%OpenBCI Raw EEG Data
%Number of channels = 16
%Sample Rate = 125 Hz
%Board = OpenBCI_GUI$BoardCytonSerialDaisy
Sample Index, EXG Channel 0, EXG Channel 1, EXG Channel 2, EXG Channel 3, EXG Channel 4, EXG Channel 5, EXG Channel 6, EXG Channel 7, EXG Channel 8, EXG Channel 9, EXG Channel 10, EXG Channel 11, EXG Channel 12, EXG Channel 13, EXG Channel 14, EXG Channel 15, Accel Channel 0, Accel Channel 1, Accel Channel 2, Other, Other, Other, Other, Other, Other, Other, Analog Channel 0, Analog Channel 1, Analog Channel 2, Timestamp, Other, Timestamp (Formatted)
0.0, -2350.9117783202864, -5361.0882593498545, -1523.1596259068997, -10600.448918396107, -712.9535928909294, 804.0145998018503, -5129.278317603865, -1913.488139329927, 0.0, 0.0, 0.0, 0.0, 0.0, 0.0, 0.0, 0.0, 0.0, 0.0, 0.0, 192.0, 0.0, 0.0, 0.0, 0.0, 0.0, 0.0, 0.0, 0.0, 0.0, 1.645920795076269E9, 0.0, 2022-02-27 11:13:15.076
64.0, -3269.0543853109343, -6099.656951386565, -2226.6137274043235, -11345.879595980598, -1565.2032572273324, 60.05913735141008, -5661.02631819562, -2495.5052132016676, -5214.6396296786825, -8410.179127476113, -4556.648976403353, -3543.4667519887394, -4693.933390847849, -3814.4145982759715, -10661.469180759095, -15234.926668992839, 0.0, 0.0, 0.0, 192.0, 0.0, 0.0, 0.0, 0.0, 0.0, 0.0, 0.0, 0.0, 0.0, 1.645920795076272E9, 0.0, 2022-02-27 11:13:15.076
0.0, -1363.4117082848202, -2825.7745892732846, -905.7597405624081, -5439.431123665706, -522.8967097874535, 225.59615678741417, -2581.134746209949, -1012.1316924252144, -2008.3042393093397, -3716.603364539548, -2087.5411734034033, -1643.143790142988, -2171.1814011551623, -1694.3292849456413, -5144.1422276666435, -7129.871205076123, 0.01, -0.112, 1.0, 192.0, 0.0, 40.0, 126.0, 64.0, 15.5, 32.0, 0.0, 0.0, 0.0, 1.645920795179076E9, 0.0, 2022-02-27 11:13:15.179
2.0, -2541.8403794575192, -5521.014990927576, -1726.1134655610879, -10800.072348126454, -895.6120485796987, 558.6595009159447, -5225.1449495726765, -2135.6197757267687, -4231.699315512099, -7630.863205297376, -4349.895340191762, -3406.875241622358, -4486.218629624681, -3545.4337055008064, -10305.763519497337, -14434.66716225948, 0.01, -0.112, 1.0, 192.0, 0.0, 0.0, 0.0, 0.0, 0.0, 0.0, 0.0, 0.0, 0.0, 1.645920795186156E9, 0.0, 2022-02-27 11:13:15.186
4.0, -3214.940811984636, -6052.874750241608, -2190.515660109003, -11306.607580972623, -1503.1995181083105, 38.73557314104714, -5467.3931559792945, -2402.0302178895736, -4282.214257981093, -8215.271915825835, -4753.724307265796, -3591.0312641896326, -4910.857070786604, -3941.864245160132, -10502.503574192951, -14855.572862097368, 0.01, -0.112, 1.0, 192.0, 0.0, 0.0, 0.0, 0.0, 0.0, 0.0, 0.0, 0.0, 0.0, 1.645920795193562E9, 0.0, 2022-02-27 11:13:15.193
6.0, -2523.623707726444, -5498.7973569390015, -1678.3924911490074, -10753.692478381692, -870.3098738562911, 582.5311639942126, -5118.661238987594, -1989.551125711337, -2755.8136291281735, -7252.157598991108, -4444.30910877098, -3336.869577988336, -4675.090870272025, -3621.139063970931, -10113.985552070804, -13849.431437186175, 0.01, -0.112, 1.0, 192.0, 0.0, 0.0, 0.0, 0.0, 0.0, 0.0, 0.0, 0.0, 0.0, 1.645920795201573E9, 0.0, 2022-02-27 11:13:15.201
8.0, -2998.6429808906296, -5887.471841272336, -2071.6937865845903, -11176.095745098084, -1332.163969536301, 179.05982483146488, -5505.659342486781, -2438.1953404182605, -5243.786304448403, -8182.638368921086, -4475.735661475142, -3546.0819060900103, -4583.694587194274, -3721.2301756417964, -10555.052525407378, -15091.406117845312, 0.006, -0.106, 0.996, 192.0, 0.0, 24.0, 126.0, 88.0, 15.5, 16.0, 0.0, 0.0, 0.0, 1.645920795209694E9, 0.0, 2022-02-27 11:13:15.209
10.0, -2927.7432474783955, -5819.34372417256, -1955.5764741392702, -11037.000839352708, -1229.1894828307013, 283.8671545823997, -5247.876673683724, -2131.4623512580815, -2688.356064362057, -7576.21319010415, -4673.1462685044135, -3415.2124423041873, -4929.699591362428, -3876.8653722840995, -10205.270076426277, -14043.39987556933, 0.006, -0.106, 0.996, 192.0, 0.0, 0.0, 0.0, 0.0, 0.0, 0.0, 0.0, 0.0, 0.0, 1.64592079521579E9, 0.0, 2022-02-27 11:13:15.215
12.0, -2537.1241613774496, -5518.75746473759, -1720.145549791521, -10796.943103902711, -899.0765689702713, 549.9870240672856, -5212.963248844534, -2150.2378166005396, -4190.795623158887, -7622.593059848912, -4338.875930175296, -3403.298962509509, -4498.020350697083, -3546.595996212482, -10296.219324614922, -14426.508775533293, 0.006, -0.106, 0.996, 192.0, 0.0, 0.0, 0.0, 0.0, 0.0, 0.0, 0.0, 0.0, 0.0, 1.645920795223302E9, 0.0, 2022-02-27 11:13:15.223
14.0, -3219.8358440203483, -6057.926244488507, -2190.269790919994, -11302.561915226212, -1499.958515162291, 49.88909362424536, -5465.381498978317, -2417.2517558636378, -4279.934380046651, -8218.95995366096, -4749.075144419092, -3587.6785025213367, -4923.955193037414, -3946.9827946403975, -10504.738748638481, -14858.724458065566, 0.006, -0.106, 0.996, 192.0, 0.0, 0.0, 0.0, 0.0, 0.0, 0.0, 0.0, 0.0, 0.0, 1.645920795231316E9, 0.0, 2022-02-27 11:13:15.231
16.0, -2547.7412399937202, -5522.110226405886, -1694.9998372793004, -10755.525321427027, -870.7569087453973, 594.0423123886958, -5102.903259146602, -1958.9292358075663, -2766.251893788802, -7272.34122423425, -4450.858169896384, -3331.415752341241, -4682.981036064749, -3629.565671630582, -10109.649313646474, -13845.966916795602, 0.008, -0.10500000000000001, 0.992, 192.0, 0.0, 40.0, 126.0, 96.0, 15.0, 112.0, 0.0, 0.0, 0.0, 1.645920795239424E9, 0.0, 2022-02-27 11:13:15.239
18.0, -3013.462187464498, -5899.698245489389, -2077.214667465051, -11188.813887693153, -1319.2446612411334, 184.24542954509613, -5476.982054350621, -2422.012677432618, -5264.9981099364895, -8208.074654111226, -4498.757958264107, -3555.246121316686, -4593.059968121048, -3696.7997189521457, -10546.558862514361, -15082.42071657428, 0.008, -0.10500000000000001, 0.992, 192.0, 0.0, 0.0, 0.0, 0.0, 0.0, 0.0, 0.0, 0.0, 0.0, 1.645920795245839E9, 0.0, 2022-02-27 11:13:15.245
20.0, -2938.4273813280324, -5823.299982941149, -1957.7892968403455, -11043.32638303356, -1228.138950841302, 285.4764801831818, -5242.266385825442, -2117.648973184702, -2692.714654530842, -7565.462001021147, -4690.5135739461875, -3430.769256445081, -4934.862844331604, -3872.0373954817533, -10200.464451368387, -14043.578689524973, 0.008, -0.10500000000000001, 0.992, 192.0, 0.0, 0.0, 0.0, 0.0, 0.0, 0.0, 0.0, 0.0, 0.0, 1.645920795253894E9, 0.0, 2022-02-27 11:13:15.253
22.0, -2539.046411400606, -5528.100493919908, -1714.4458549554176, -10796.607827735881, -889.6441328101317, 562.8392771290871, -5221.546318715372, -2128.757790178989, -4184.045396333385, -7625.185862205728, -4349.738877980576, -3404.1036253098996, -4511.051417714527, -3551.51337999265, -10299.326217094209, -14426.106444133096, 0.008, -0.10500000000000001, 0.992, 192.0, 0.0, 0.0, 0.0, 0.0, 0.0, 0.0, 0.0, 0.0, 0.0, 1.64592079526197E9, 0.0, 2022-02-27 11:13:15.261
24.0, -3223.2109574331, -6061.234302667893, -2189.5321833529692, -11308.149851340038, -1513.8165967245814, 38.22148301857508, -5492.807089424979, -2402.589011500956, -4299.268639000492, -8233.10860790117, -4746.527045551186, -3586.0691769205546, -4925.363352938099, -3951.453143531459, -10513.768853398426, -14881.791458343443, 0.008, -0.10500000000000001, 0.992, 192.0, 0.0, 0.0, 0.0, 0.0, 0.0, 0.0, 0.0, 0.0, 0.0, 1.645920795268571E9, 0.0, 2022-02-27 11:13:15.268
26.0, -2551.429277828846, -5520.657363016291, -1693.9716570343564, -10763.639004664303, -886.9842752199502, 576.9432278803858, -5120.225861099465, -1995.4296345030828, -2753.801972127196, -7274.241122512952, -4452.154571074792, -3339.3059181339645, -4694.134556547947, -3641.8814828254563, -10113.694979392885, -13853.722972121594, 0.011, -0.10350000000000001, 0.991, 192.0, 0.0, 56.0, 126.0, 104.0, 15.0, 120.0, 0.0, 0.0, 0.0, 1.645920795283719E9, 0.0, 2022-02-27 11:13:15.283
28.0, -2992.4962511654203, -5888.969408150841, -2061.1661149461406, -11177.6380154655, -1326.1513502778234, 174.45536547367163, -5508.810938454979, -2459.8318290509974, -5263.478191313528, -8206.599438977175, -4487.872658714373, -3559.269435318641, -4596.390378044889, -3705.4498440563493, -10556.460685308062, -15102.358472628412, 0.011, -0.10350000000000001, 0.991, 192.0, 0.0, 0.0, 0.0, 0.0, 0.0, 0.0, 0.0, 0.0, 0.0, 1.64592079529169E9, 0.0, 2022-02-27 11:13:15.291
30.0, -2959.9297594940376, -5853.541893189179, -1977.8611633612113, -11070.550807780124, -1264.3934803478098, 250.87597976636647, -5291.797851538402, -2157.6585957597013, -2746.6941173904083, -7616.26751616806, -4697.017931582682, -3441.7886664615476, -4952.6101294291175, -3892.8021660807335, -10234.439102940452, -14098.385166929385, 0.011, -0.10350000000000001, 0.991, 192.0, 0.0, 0.0, 0.0, 0.0, 0.0, 0.0, 0.0, 0.0, 0.0, 1.645920795298171E9, 0.0, 2022-02-27 11:13:15.298
32.0, -2539.001707911695, -5532.503787577604, -1719.72086664687, -10800.8993626713, -898.9201067590841, 556.938416592886, -5238.734810201503, -2129.450694257104, -4131.7646660524215, -7609.0702544534515, -4349.403601813746, -3408.8198433899697, -4520.2379846856575, -3564.5220952656387, -10301.404929328553, -14406.034577612232, 0.011, -0.10350000000000001, 0.991, 192.0, 0.0, 0.0, 0.0, 0.0, 0.0, 0.0, 0.0, 0.0, 0.0, 1.645920795306142E9, 0.0, 2022-02-27 11:13:15.306
34.0, -3239.5947861188397, -6093.242000727892, -2194.3601601553155, -11326.09830213765, -1515.604736281006, 5.498529136005537, -5464.710946644658, -2403.4383777902576, -4329.644659715254, -8230.068770655247, -4745.297699606144, -3595.725130525247, -4947.804504371226, -3988.9593707274644, -10525.212946559543, -14893.839048604852, 0.011, -0.10350000000000001, 0.991, 192.0, 0.0, 0.0, 0.0, 0.0, 0.0, 0.0, 0.0, 0.0, 0.0, 1.645920795314188E9, 0.0, 2022-02-27 11:13:15.314
36.0, -2606.481624422267, -5581.319997467995, -1700.8336425821356, -10769.025775078033, -879.8540687387073, 590.0860536201064, -5094.744872420415, -1980.2751517623844, -2763.972015854361, -7296.3246460347955, -4464.2915683140245, -3355.8685607753473, -4705.176318308869, -3678.5159919877046, -10105.603647900063, -13852.292460476454, 0.0095, -0.10375000000000001, 0.9915, 192.0, 0.0, 32.0, 126.0, 96.0, 15.5, 0.0, 0.0, 0.0, 0.0, 1.645920795321396E9, 0.0, 2022-02-27 11:13:15.321
38.0, -3085.814784266327, -5987.987636087852, -2080.165097733152, -11185.327015558127, -1317.8588530849045, 199.60107798589206, -5476.266798528051, -2433.568529316012, -5292.066072471866, -8225.777235719828, -4509.933830491761, -3573.6863104923145, -4598.759662957152, -3693.9610474063215, -10547.788208459402, -15084.99116718664, 0.0095, -0.10375000000000001, 0.9915, 192.0, 0.0, 0.0, 0.0, 0.0, 0.0, 0.0, 0.0, 0.0, 0.0, 1.64592079532882E9, 0.0, 2022-02-27 11:13:15.328
40.0, -3090.665112813129, -5984.746633141832, -1985.103128564731, -11069.075592646073, -1244.6345382493184, 284.47065168269296, -5264.953406447578, -2140.7830286959447, -2781.4957835073214, -7632.651344853801, -4737.429885557876, -3465.146239417343, -4967.69755693645, -3869.601055336125, -10227.375951692577, -14068.612643314917, 0.0095, -0.10375000000000001, 0.9915, 192.0, 0.0, 0.0, 0.0, 0.0, 0.0, 0.0, 0.0, 0.0, 0.0, 1.645920795335779E9, 0.0, 2022-02-27 11:13:15.335
42.0, -2720.8555008000735, -5723.3206299925605, -1727.4769219728616, -10808.387197063828, -871.6509785236095, 573.1881348118943, -5213.946725600568, -2121.225252297551, -4194.595419716289, -7664.167304535784, -4401.505518139067, -3454.864436967902, -4521.489682375155, -3573.1722203698423, -10301.650798517561, -14403.37472002205, 0.0095, -0.10375000000000001, 0.9915, 192.0, 0.0, 0.0, 0.0, 0.0, 0.0, 0.0, 0.0, 0.0, 0.0, 1.645920795343779E9, 0.0, 2022-02-27 11:13:15.343
44.0, -3461.7934777490473, -6298.386311338701, -2219.4164656897146, -11332.379142329592, -1499.444425039819, 45.172875544175575, -5470.0977170583865, -2400.622057988889, -4441.649251180798, -8300.320303478278, -4811.369456216033, -3663.8085441361127, -4928.626707628573, -3966.5405710387913, -10528.677466950116, -14903.204429531626, 0.0095, -0.10375000000000001, 0.9915, 192.0, 0.0, 0.0, 0.0, 0.0, 0.0, 0.0, 0.0, 0.0, 0.0, 1.645920795351001E9, 0.0, 2022-02-27 11:13:15.351
46.0, -2821.952440971427, -5799.875354751987, -1732.528416219761, -10794.059728867976, -879.0270541938609, 575.6468267019781, -5099.662256200583, -1974.2848842483622, -2827.5850805741647, -7348.247748404473, -4544.556682653032, -3418.386390016841, -4720.55431849412, -3680.2594280552185, -10117.025389316725, -13848.872643574792, 0.00775, -0.105875, 0.99175, 192.0, 0.0, 24.0, 126.0, 80.0, 15.5, 0.0, 0.0, 0.0, 0.0, 1.645920795358486E9, 0.0, 2022-02-27 11:13:15.358
48.0, -3260.672481140194, -6154.485780535434, -2097.0183130524533, -11197.106384886072, -1298.323428430966, 201.2998105644954, -5459.79356286449, -2420.783331487576, -5363.636358217759, -8271.240683941924, -4579.045424347571, -3629.588023375037, -4612.260116608157, -3722.2807076311956, -10554.404324818173, -15082.733640996652, 0.00775, -0.105875, 0.99175, 192.0, 0.0, 0.0, 0.0, 0.0, 0.0, 0.0, 0.0, 0.0, 0.0, 1.645920795366558E9, 0.0, 2022-02-27 11:13:15.366
50.0, -3226.362553401298, -6100.059282786761, -2012.3275533112949, -11088.879238233476, -1234.620956733341, 281.09553826994164, -5239.60652823526, -2132.2670140584723, -2859.9057030565386, -7692.218743827194, -4798.494851409776, -3523.059609301044, -4969.597455215151, -3899.0830062726745, -10230.795768594238, -14089.176248213798, 0.00775, -0.105875, 0.99175, 192.0, 0.0, 0.0, 0.0, 0.0, 0.0, 0.0, 0.0, 0.0, 0.0, 1.645920795373668E9, 0.0, 2022-02-27 11:13:15.373
52.0, -2774.2314665593467, -5742.99016511323, -1741.7596866798028, -10802.553391760992, -858.21758010597, 593.4388152884026, -5192.60080964575, -2104.573202678347, -4207.626486733733, -7658.042926555029, -4437.603585434387, -3475.1151174444103, -4534.073714503493, -3572.9934064142, -10295.191144369977, -14383.28050175673, 0.00775, -0.105875, 0.99175, 192.0, 0.0, 0.0, 0.0, 0.0, 0.0, 0.0, 0.0, 0.0, 0.0, 1.645920795381078E9, 0.0, 2022-02-27 11:13:15.381
54.0, -3476.120945944899, -6303.191936396592, -2230.413523961726, -11336.201290631449, -1496.8739744274587, 45.41874473318395, -5447.231882480608, -2401.1584998558164, -4490.890144215839, -8294.3076842198, -4821.405389476466, -3665.2837592701626, -4936.360411210109, -3970.228608873917, -10530.286792550898, -14903.89733360974, 0.00775, -0.105875, 0.99175, 192.0, 0.0, 0.0, 0.0, 0.0, 0.0, 0.0, 0.0, 0.0, 0.0, 1.645920795389093E9, 0.0, 2022-02-27 11:13:15.389
56.0, -2806.082702408159, -5767.934711925353, -1740.9773756238671, -10802.911019672278, -890.538202588344, 577.0549866026624, -5094.431947998041, -1974.9554365820215, -2828.412095119011, -7343.598585557769, -4552.04451704556, -3415.8606428933913, -4735.842911701549, -3670.335253517062, -10114.521993937731, -13841.317753948899, 0.004875, -0.10693749999999999, 0.990875, 192.0, 0.0, 8.0, 126.0, 80.0, 15.0, 120.0, 0.0, 0.0, 0.0, 1.645920795397141E9, 0.0, 2022-02-27 11:13:15.397
58.0, -3197.9311344541475, -6084.100137245672, -2090.5586589048694, -11189.573847004634, -1293.9648382621813, 207.40183680079423, -5452.775115105524, -2411.976744172185, -5344.592671941838, -8236.684887014018, -4564.069755562515, -3640.5403781581376, -4609.756721229162, -3718.1903383958747, -10547.877615437224, -15070.864864690884, 0.004875, -0.10693749999999999, 0.990875, 192.0, 0.0, 0.0, 0.0, 0.0, 0.0, 0.0, 0.0, 0.0, 0.0, 1.645920795410763E9, 0.0, 2022-02-27 11:13:15.410
60.0, -3163.285930548421, -6051.757163018842, -2013.9815824009875, -11083.470116075292, -1238.6219189908409, 279.01682603559806, -5239.964156146545, -2123.058095342886, -2840.571444102698, -7665.5978161809235, -4774.80200228715, -3507.346332948963, -4967.921074381003, -3909.63302965558, -10226.437178425453, -14084.862361533924, 0.004875, -0.10693749999999999, 0.990875, 192.0, 0.0, 0.0, 0.0, 0.0, 0.0, 0.0, 0.0, 0.0, 0.0, 1.645920795418743E9, 0.0, 2022-02-27 11:13:15.418
62.0, -2695.5309743322105, -5686.127327218929, -1734.696535431926, -10791.556333488981, -851.4450015360119, 596.2327833453159, -5182.5872281297725, -2089.1952024930956, -4146.025079014907, -7637.9487082897085, -4408.948649042684, -3459.893579470346, -4515.857042772418, -3562.8457144314907, -10281.042490129768, -14360.526425901226, 0.004875, -0.10693749999999999, 0.990875, 192.0, 0.0, 0.0, 0.0, 0.0, 0.0, 0.0, 0.0, 0.0, 0.0, 1.64592079542677E9, 0.0, 2022-02-27 11:13:15.426
64.0, -3394.9170583387686, -6224.938479058562, -2231.665221651223, -11326.500633537846, -1497.4551197832966, 43.87647436576776, -5476.646778183792, -2409.1827761152717, -4480.049548155016, -8289.591466139731, -4787.18486871539, -3656.052488810121, -4904.01743698328, -3965.7582599828556, -10531.002048373468, -14912.726272669588, 0.004875, -0.10693749999999999, 0.990875, 192.0, 0.0, 0.0, 0.0, 0.0, 0.0, 0.0, 0.0, 0.0, 0.0, 1.645920795434175E9, 0.0, 2022-02-27 11:13:15.434
66.0, -2733.774809095241, -5702.533507649125, -1741.7149831908923, -10792.830382922933, -897.3554846472126, 577.0773383471177, -5096.488308487929, -1974.5084016929154, -2761.2898065197237, -7298.425710013594, -4507.698656046231, -3404.3047910099976, -4708.864356143994, -3669.5082389722156, -10117.740645139294, -13833.718160834094, 0.0064375000000000005, -0.10946875, 0.9914375, 192.0, 0.0, 32.0, 126.0, 64.0, 15.5, 0.0, 0.0, 0.0, 0.0, 1.645920795441367E9, 0.0, 2022-02-27 11:13:15.441
68.0, -3117.6436683706843, -6027.684334240477, -2081.4391471671042, -11176.632186965011, -1290.96970450517, 211.33574382492827, -5463.03456581051, -2436.116628183917, -5303.95720052209, -8224.950221174982, -4508.972705480183, -3598.7202642822585, -4582.755813927151, -3702.9240969329, -10546.178882858621, -15066.998012900116, 0.0064375000000000005, -0.10946875, 0.9914375, 192.0, 0.0, 0.0, 0.0, 0.0, 0.0, 0.0, 0.0, 0.0, 0.0, 1.645920795448648E9, 0.0, 2022-02-27 11:13:15.448
70.0, -3110.558165378352, -5997.9118106260075, -2019.5918702592696, -11093.394290613449, -1259.6102070343743, 271.03725326505344, -5259.8348569673135, -2132.8034559253997, -2824.70170553943, -7664.681394658255, -4733.831254700573, -3490.537821118572, -4951.894873606548, -3890.164660235007, -10240.854053599127, -14110.276294979609, 0.0064375000000000005, -0.10946875, 0.9914375, 192.0, 0.0, 0.0, 0.0, 0.0, 0.0, 0.0, 0.0, 0.0, 0.0, 1.645920795456717E9, 0.0, 2022-02-27 11:13:15.456
72.0, -2654.292005812169, -5646.0730011550195, -1741.3797070240626, -10801.905191171789, -864.2525511089029, 596.16572811195, -5176.306387937831, -2083.7190251015454, -4110.172880908594, -7624.045923238507, -4392.050730234472, -3455.3338236014633, -4520.617964341398, -3559.3811940409178, -10290.162001867533, -14362.202806735375, 0.0064375000000000005, -0.10946875, 0.9914375, 192.0, 0.0, 0.0, 0.0, 0.0, 0.0, 0.0, 0.0, 0.0, 0.0, 1.645920795463687E9, 0.0, 2022-02-27 11:13:15.463
74.0, -3360.1153922218555, -6193.713092054498, -2244.606881690846, -11334.413151075025, -1518.0410764266344, 42.803590631913025, -5457.580740163415, -2411.373247071892, -4507.944525235239, -8298.420405199577, -4781.731043068296, -3659.3828987339616, -4913.6286870990625, -3964.3053965932604, -10546.782379958913, -14932.887546168275, 0.0064375000000000005, -0.10946875, 0.9914375, 192.0, 0.0, 0.0, 0.0, 0.0, 0.0, 0.0, 0.0, 0.0, 0.0, 1.645920795470872E9, 0.0, 2022-02-27 11:13:15.470
76.0, -2688.825450995618, -5657.941777460787, -1755.3495473086296, -10790.148173588297, -915.1698249780924, 577.0549866026624, -5101.785671923837, -1975.1789540265745, -2741.6202713990538, -7303.96894263851, -4511.096121203437, -3385.685787878727, -4722.230699328268, -3684.7744804351905, -10126.323715010132, -13839.417855670197, 0.01021875, -0.110734375, 0.99271875, 192.0, 0.0, 56.0, 126.0, 64.0, 15.5, 8.0, 0.0, 0.0, 0.0, 1.645920795478344E9, 0.0, 2022-02-27 11:13:15.478
78.0, -3061.361975832221, -5961.232597974849, -2086.669455369646, -11167.669137438434, -1299.9774575206588, 225.17147364276335, -5458.720679130635, -2418.90578495333, -5274.542304818905, -8177.184543273991, -4506.134033934359, -3579.2071913727755, -4587.71790119623, -3698.565506764115, -10555.387801574207, -15057.207948828693, 0.01021875, -0.110734375, 0.99271875, 192.0, 0.0, 0.0, 0.0, 0.0, 0.0, 0.0, 0.0, 0.0, 0.0, 1.645920795486447E9, 0.0, 2022-02-27 11:13:15.486
80.0, -3055.79639146285, -5939.774923297754, -2029.0019546749538, -11090.846191745542, -1270.942541473215, 269.9420177867434, -5264.32755760283, -2172.8130785003996, -2812.899984467028, -7637.03228676704, -4727.103379619525, -3486.4921553721615, -4960.165019055012, -3906.2579162428283, -10250.46530371491, -14122.212126518742, 0.01021875, -0.110734375, 0.99271875, 192.0, 0.0, 0.0, 0.0, 0.0, 0.0, 0.0, 0.0, 0.0, 0.0, 1.645920795494676E9, 0.0, 2022-02-27 11:13:15.494
82.0, -2585.4709846342785, -5579.822430589489, -1739.9268436344678, -10788.494144498605, -876.5460105593218, 598.8255857021315, -5208.291734253376, -2100.281667742928, -4042.6706126535673, -7579.2530273500715, -4367.284997377992, -3418.67696269476, -4517.287554417558, -3561.9963481421887, -10296.353435081654, -14352.815074064145, 0.01021875, -0.110734375, 0.99271875, 192.0, 0.0, 0.0, 0.0, 0.0, 0.0, 0.0, 0.0, 0.0, 0.0, 1.64592079550092E9, 0.0, 2022-02-27 11:13:15.500
84.0, -3304.7948246949704, -6138.660745461077, -2243.757515401544, -11337.318877854213, -1518.1975386378217, 35.65103240621477, -5473.539885704504, -2422.236194877171, -4506.89399324584, -8266.613872839675, -4747.823446729594, -3620.826139548557, -4895.233201412345, -3942.870073660621, -10558.382935331218, -14951.014810921528, 0.01021875, -0.110734375, 0.99271875, 192.0, 0.0, 0.0, 0.0, 0.0, 0.0, 0.0, 0.0, 0.0, 0.0, 1.645920795509033E9, 0.0, 2022-02-27 11:13:15.509
86.0, -2656.169552346415, -5618.468596752715, -1751.5273990067722, -10806.129670873843, -922.8141215818074, 562.5934079400788, -5107.8653464156805, -2001.1740328280966, -2690.39007310749, -7286.7580994079235, -4500.590801309443, -3373.928770295235, -4724.912908662905, -3679.6782826993804, -10122.233345774812, -13841.854195815826, 0.018000000000000002, -0.11, 0.986, 192.0, 0.0, 72.0, 126.0, 72.0, 15.0, 104.0, 0.0, 0.0, 0.0, 1.645920795516947E9, 0.0, 2022-02-27 11:13:15.516
88.0, -3017.1278735551687, -5919.390132354514, -2079.2710279549397, -11167.49032348279, -1299.128091231357, 232.279328379551, -5463.839228610901, -2436.3177938840145, -5239.807693935358, -8163.929958811994, -4484.5422487905325, -3566.2208278442417, -4572.6528254333525, -3686.8084891806234, -10547.721153226037, -15059.21960582967, 0.018000000000000002, -0.11, 0.986, 192.0, 0.0, 0.0, 0.0, 0.0, 0.0, 0.0, 0.0, 0.0, 0.0, 1.645920795530705E9, 0.0, 2022-02-27 11:13:15.530
90.0, -3024.213376547501, -5911.745835750799, -2033.0252686769093, -11097.48465984877, -1288.8909922708265, 261.20248570471836, -5271.8153919953575, -2154.8199242138776, -2819.8737287370836, -7653.773743364066, -4723.348286551033, -3479.764280291114, -4960.500295221841, -3902.3687127076046, -10256.813199140215, -14137.791292404092, 0.018000000000000002, -0.11, 0.986, 192.0, 0.0, 0.0, 0.0, 0.0, 0.0, 0.0, 0.0, 0.0, 0.0, 1.645920795538652E9, 0.0, 2022-02-27 11:13:15.538
92.0, -2536.5653677660666, -5535.2530521456065, -1730.0473725852219, -10780.84984789489, -868.40997557759, 597.5291845237238, -5189.918600311113, -2104.0367608114198, -3999.3752836436374, -7555.426067760714, -4351.1246861368045, -3410.7197416686704, -4512.169004937292, -3558.1294963514206, -10291.816030957227, -14344.902556526966, 0.018000000000000002, -0.11, 0.986, 192.0, 0.0, 0.0, 0.0, 0.0, 0.0, 0.0, 0.0, 0.0, 0.0, 1.645920795546576E9, 0.0, 2022-02-27 11:13:15.546
94.0, -3259.040803794957, -6102.473271187934, -2241.4552857226477, -11335.553090042245, -1539.9457859928355, 29.191378258631023, -5504.675865730746, -2445.9290439997967, -4497.12628091887, -8262.702317559995, -4727.662173230908, -3608.9350114983336, -4891.008721710292, -3951.006108642353, -10564.95434820108, -14966.05753493995, 0.018000000000000002, -0.11, 0.986, 192.0, 0.0, 0.0, 0.0, 0.0, 0.0, 0.0, 0.0, 0.0, 0.0, 1.645920795553712E9, 0.0, 2022-02-27 11:13:15.553
96.0, -2614.8188251040965, -5577.72136661069, -1758.3446810656408, -10805.190897606719, -938.5721014227988, 555.2396840142827, -5139.023678186379, -2004.0127043739205, -2668.5300670301995, -7264.987500308454, -4471.5111817730885, -3353.2310549296208, -4723.3929900399435, -3673.7550704187242, -10138.080732593624, -13846.771579595994, 0.012, -0.116, 0.99, 192.0, 0.0, 48.0, 126.0, 48.0, 15.0, 120.0, 0.0, 0.0, 0.0, 1.6459207955612E9, 0.0, 2022-02-27 11:13:15.561
98.0, -2969.5186578653647, -5878.933474890408, -2072.319635429339, -11159.175474545416, -1296.2447161966224, 230.53589231203705, -5467.326100745929, -2437.3459741289585, -5237.147836345177, -8145.243900447357, -4466.0573561259935, -3555.380231783418, -4571.490534721677, -3683.791003679157, -10557.064182408356, -15060.359544796891, 0.012, -0.116, 0.99, 192.0, 0.0, 0.0, 0.0, 0.0, 0.0, 0.0, 0.0, 0.0, 0.0, 1.645920795569352E9, 0.0, 2022-02-27 11:13:15.569
100.0, -3009.304762995811, -5897.083091388117, -2044.6705275381241, -11109.599305343545, -1305.5653936344854, 242.82935176245593, -5301.364398165274, -2205.5583841274242, -2846.2487871943463, -7659.3169759889815, -4713.781739924162, -3466.576751062483, -4964.724774923894, -3912.0246663122975, -10274.828705171192, -14169.150789874888, 0.012, -0.116, 0.99, 192.0, 0.0, 0.0, 0.0, 0.0, 0.0, 0.0, 0.0, 0.0, 0.0, 1.64592079557633E9, 0.0, 2022-02-27 11:13:15.576
102.0, -2520.6509257138882, -5518.980982182144, -1736.3729162660738, -10783.465001996161, -875.2272576364586, 596.5457077676901, -5200.98271381649, -2103.0756357998416, -3955.230588344406, -7531.107369793341, -4340.887587176274, -3399.119186296366, -4515.946449750239, -3550.8875311479014, -10290.094946634168, -14333.950201743866, 0.012, -0.116, 0.99, 192.0, 0.0, 0.0, 0.0, 0.0, 0.0, 0.0, 0.0, 0.0, 0.0, 1.645920795582922E9, 0.0, 2022-02-27 11:13:15.582
104.0, -3244.69098385465, -6085.240076212893, -2245.8138758914324, -11335.262517364326, -1538.2694051586873, 28.744343369524884, -5505.32406631995, -2456.300253427059, -4522.786083553563, -8262.881131515638, -4720.286097560656, -3615.148796456909, -4889.757024020794, -3926.5980036971578, -10565.513141812462, -14974.73001178861, 0.012, -0.116, 0.99, 192.0, 0.0, 0.0, 0.0, 0.0, 0.0, 0.0, 0.0, 0.0, 0.0, 1.645920795591041E9, 0.0, 2022-02-27 11:13:15.591
106.0, -2603.3300284540687, -5570.725270596179, -1762.9044369345233, -10806.621409251858, -939.0414880563603, 558.8383148715872, -5147.49498933494, -1998.424768260094, -2654.224950578803, -7255.935043804056, -4475.914475430784, -3351.129990950822, -4734.390048311955, -3671.4751924842826, -10137.09725583759, -13846.637469129262, 0.012, -0.11, 0.988, 192.0, 0.0, 48.0, 126.0, 72.0, 15.0, 112.0, 0.0, 0.0, 0.0, 1.645920795598953E9, 0.0, 2022-02-27 11:13:15.598
108.0, -2948.083334932725, -5869.6575009414555, -2062.8201440358334, -11150.25712850775, -1285.6052858358962, 227.45135157720466, -5466.32027224544, -2431.333354870481, -5204.782510373892, -8130.849377018139, -4451.193446063215, -3547.2665485461416, -4569.031842831593, -3683.5451344901485, -10553.867882951246, -15051.93293713724, 0.012, -0.11, 0.988, 192.0, 0.0, 0.0, 0.0, 0.0, 0.0, 0.0, 0.0, 0.0, 0.0, 1.645920795606095E9, 0.0, 2022-02-27 11:13:15.606
110.0, -2993.882059321649, -5883.761451692754, -2031.3712395872165, -11104.81603203011, -1303.8219575669716, 238.76133427159004, -5308.896936046713, -2193.3990351437374, -2835.2740806667903, -7656.6571183988, -4710.518385233687, -3463.7827830055694, -4964.545960968252, -3913.7010471464455, -10271.721812691905, -14167.362650318462, 0.012, -0.11, 0.988, 192.0, 0.0, 0.0, 0.0, 0.0, 0.0, 0.0, 0.0, 0.0, 0.0, 1.645920795613528E9, 0.0, 2022-02-27 11:13:15.613
112.0, -2505.362332506458, -5501.010179640077, -1718.9609073353897, -10775.597187947893, -868.2982168553135, 599.6078967580672, -5200.066292293822, -2097.3759409637382, -3931.224814799406, -7529.743913381567, -4341.2005115986485, -3386.959837312679, -4522.584917853465, -3547.668879946337, -10285.60224599865, -14328.339913885584, 0.012, -0.11, 0.988, 192.0, 0.0, 0.0, 0.0, 0.0, 0.0, 0.0, 0.0, 0.0, 0.0, 1.645920795622154E9, 0.0, 2022-02-27 11:13:15.622
114.0, -3228.485969124552, -6067.24692192637, -2228.893605338765, -11333.00499117434, -1525.126579418967, 26.55387241290479, -5501.904249418289, -2454.8920935263745, -4530.072752245993, -8267.507942617887, -4715.6369347139525, -3603.637648062426, -4887.097166430613, -3945.6193382286237, -10562.987394689011, -14981.100258958371, 0.012, -0.11, 0.988, 192.0, 0.0, 0.0, 0.0, 0.0, 0.0, 0.0, 0.0, 0.0, 0.0, 1.645920795629546E9, 0.0, 2022-02-27 11:13:15.629
116.0, -2597.719740595787, -5564.019747259587, -1763.239713101353, -10805.66028424028, -937.5439211778547, 548.1318292774951, -5145.416277100597, -1987.4500617325382, -2618.842139106052, -7255.219787981486, -4469.007786394094, -3344.1785984252215, -4727.863338931005, -3685.3779775354838, -10130.48113947882, -13841.004829526524, 0.014, -0.108, 0.986, 192.0, 0.0, 56.0, 126.0, 80.0, 15.0, 104.0, 0.0, 0.0, 0.0, 1.645920795636264E9, 0.0, 2022-02-27 11:13:15.636
118.0, -2931.3195265912445, -5848.646861153467, -2065.547056859381, -11144.400971460458, -1277.6033613208963, 239.92362498326602, -5469.069536813443, -2410.2780115935816, -5188.21986773251, -8110.442234330444, -4445.359640760379, -3536.8506356299686, -4565.164991040825, -3678.9630268768105, -10550.068086393845, -15038.588945697422, 0.014, -0.108, 0.986, 192.0, 0.0, 0.0, 0.0, 0.0, 0.0, 0.0, 0.0, 0.0, 0.0, 1.645920795644185E9, 0.0, 2022-02-27 11:13:15.644
120.0, -2980.0016260149036, -5876.832410911609, -2043.4858850819928, -11115.29900017965, -1297.362303419388, 239.54364532752578, -5298.391616152718, -2174.891790734743, -2839.6550225800306, -7660.568673678479, -4705.131614819958, -3467.6049313074273, -4964.769478412804, -3918.0596373152302, -10270.648928958051, -14172.727068987737, 0.014, -0.108, 0.986, 192.0, 0.0, 0.0, 0.0, 0.0, 0.0, 0.0, 0.0, 0.0, 0.0, 1.645920795658404E9, 0.0, 2022-02-27 11:13:15.658
122.0, -2482.8094223510534, -5488.470851000649, -1723.1183318040767, -10775.70894667017, -866.0183389208721, 595.8975071784863, -5198.099338781755, -2094.9172490736546, -3889.0917765011523, -7513.695360862656, -4330.76224693802, -3391.38548271483, -4519.4109701408115, -3570.4453075462948, -10278.740260450872, -14317.812242247135, 0.014, -0.108, 0.986, 192.0, 0.0, 0.0, 0.0, 0.0, 0.0, 0.0, 0.0, 0.0, 0.0, 1.64592079566581E9, 0.0, 2022-02-27 11:13:15.665
124.0, -3226.653126079217, -6077.886352287096, -2243.332832256893, -11343.018572690318, -1537.665908058394, 19.69188686512552, -5513.750673979602, -2474.3381112024917, -4548.714107121719, -8267.284425173333, -4710.987771867249, -3609.1585289428867, -4882.492707072819, -3944.166474839029, -10560.95338594358, -14995.092450987393, 0.014, -0.108, 0.986, 192.0, 0.0, 0.0, 0.0, 0.0, 0.0, 0.0, 0.0, 0.0, 0.0, 1.645920795673842E9, 0.0, 2022-02-27 11:13:15.673
126.0, -2591.5059556372116, -5565.494962393637, -1765.296073591241, -10818.71370300218, -948.5186277054105, 531.7032971028444, -5144.522207322384, -2006.739617197468, -2617.7245518832865, -7260.494799672938, -4480.407176066301, -3350.459438617163, -4735.239414601257, -3694.855117184534, -10120.311095751655, -13847.240966229554, 0.016, -0.106, 0.99, 192.0, 0.0, 64.0, 126.0, 88.0, 15.0, 120.0, 0.0, 0.0, 0.0, 1.645920795681906E9, 0.0, 2022-02-27 11:13:15.681
128.0, -2898.440110497488, -5816.750921815744, -2051.7113270415457, -11140.891747580976, -1281.291399156022, 229.93239521174377, -5499.378502294839, -2430.461636836724, -5175.389966415163, -8112.31978086469, -4439.682297668731, -3540.449266487273, -4560.314662494024, -3684.618018224003, -10538.020496132434, -15045.11565507837, 0.016, -0.106, 0.99, 192.0, 0.0, 0.0, 0.0, 0.0, 0.0, 0.0, 0.0, 0.0, 0.0, 1.645920795688465E9, 0.0, 2022-02-27 11:13:15.688
130.0, -2971.01622474387, -5864.516599716735, -2048.246806650973, -11116.796567058154, -1305.7218558456727, 229.1277324113527, -5324.34199146533, -2192.5273171099802, -2840.4373336359663, -7655.450124198213, -4696.436786226844, -3452.025765422078, -4960.142667310556, -3909.5659744222135, -10275.119277849111, -14192.910694230879, 0.016, -0.106, 0.99, 192.0, 0.0, 0.0, 0.0, 0.0, 0.0, 0.0, 0.0, 0.0, 0.0, 1.645920795696619E9, 0.0, 2022-02-27 11:13:15.696
132.0, -2451.6734423248104, -5463.571007677438, -1719.5867561801383, -10764.8907023538, -854.0154521483722, 610.4931963078018, -5225.927260628612, -2094.60432465128, -3864.706023300412, -7496.9539042656315, -4324.637868957266, -3383.808241344481, -4516.214670683703, -3570.7582319686694, -10267.296167289755, -14305.384672329983, 0.016, -0.106, 0.99, 192.0, 0.0, 0.0, 0.0, 0.0, 0.0, 0.0, 0.0, 0.0, 0.0, 1.64592079570456E9, 0.0, 2022-02-27 11:13:15.704
134.0, -3180.586180756829, -6037.720267500909, -2241.6117479338345, -11327.931145182985, -1523.3607916069975, 26.531520668449485, -5500.160813350775, -2461.262340696137, -4572.76458415563, -8244.619756295653, -4685.797355866117, -3600.28488639413, -4848.629814223029, -3933.705858433945, -10561.288662110408, -15000.881552801318, 0.016, -0.106, 0.99, 192.0, 0.0, 0.0, 0.0, 0.0, 0.0, 0.0, 0.0, 0.0, 0.0, 1.64592079571171E9, 0.0, 2022-02-27 11:13:15.711
136.0, -2561.509914578189, -5538.605813813903, -1771.8674864611014, -10806.084967384932, -945.2329212704803, 542.4991896747578, -5134.329811850764, -1998.7600444269235, -2574.3398158955356, -7240.132360474153, -4471.377071306357, -3338.3000896334756, -4725.047019129636, -3690.138899104464, -10114.209069515357, -13831.371227666286, 0.014, -0.106, 0.988, 192.0, 0.0, 56.0, 126.0, 88.0, 15.0, 112.0, 0.0, 0.0, 0.0, 1.645920795718065E9, 0.0, 2022-02-27 11:13:15.718
138.0, -2859.6821856119855, -5787.738357512755, -2040.0213646914203, -11116.975381013797, -1251.6082825193744, 257.5815031029586, -5454.049164539477, -2427.2206338907044, -5141.214149142998, -8072.801896667707, -4422.627916649332, -3520.735027877692, -4536.666516860309, -3663.6073784360146, -10524.56474597034, -15015.83486984192, 0.014, -0.106, 0.988, 192.0, 0.0, 0.0, 0.0, 0.0, 0.0, 0.0, 0.0, 0.0, 0.0, 1.645920795726012E9, 0.0, 2022-02-27 11:13:15.726
140.0, -2980.985102770937, -5865.2542072837605, -2058.2156846780404, -11122.406854916437, -1326.8889578448484, 214.28617409302882, -5308.874584302257, -2192.7284828100783, -2893.634485439597, -7671.94571160623, -4708.573783466075, -3461.5923120489497, -4959.963853354914, -3920.004239082842, -10278.60614998414, -14208.892191516423, 0.014, -0.106, 0.988, 192.0, 0.0, 0.0, 0.0, 0.0, 0.0, 0.0, 0.0, 0.0, 0.0, 1.64592079573418E9, 0.0, 2022-02-27 11:13:15.734
142.0, -2459.7424220731764, -5459.190065764197, -1716.077532300655, -10761.023850563031, -856.3400335717242, 603.810024715665, -5186.342321198264, -2078.801641321378, -3816.828586677145, -7470.869418486288, -4337.735991208076, -3386.445747190207, -4518.047513729038, -3563.3151010650517, -10251.69464965995, -14273.10875333652, 0.014, -0.106, 0.988, 192.0, 0.0, 0.0, 0.0, 0.0, 0.0, 0.0, 0.0, 0.0, 0.0, 1.645920795741364E9, 0.0, 2022-02-27 11:13:15.741
144.0, -3195.427739075153, -6041.453008824946, -2237.051992064952, -11331.730941740387, -1532.279137644665, 28.051439291410365, -5529.218081142674, -2456.9037505273523, -4589.886020408395, -8252.040535454815, -4700.281286273156, -3603.481185851239, -4861.973805662848, -3921.4123989835266, -10558.785266731415, -15001.663863857255, 0.014, -0.106, 0.988, 192.0, 0.0, 0.0, 0.0, 0.0, 0.0, 0.0, 0.0, 0.0, 0.0, 1.64592079574865E9, 0.0, 2022-02-27 11:13:15.748
146.0, -2593.674074849376, -5562.678642592268, -1773.655626017526, -10824.100473415909, -962.4884679899774, 518.426360896392, -5136.967317696491, -2004.9514776410435, -2580.017158987184, -7254.10220075872, -4484.0728621569715, -3347.844284515892, -4739.285080347667, -3689.244829326252, -10117.271258505734, -13833.516995133996, 0.01, -0.10400000000000001, 0.996, 192.0, 0.0, 40.0, 126.0, 96.0, 15.5, 16.0, 0.0, 0.0, 0.0, 1.645920795756814E9, 0.0, 2022-02-27 11:13:15.756
148.0, -2894.729720917907, -5811.699427568845, -2050.92901598561, -11129.827634075598, -1270.294340884011, 242.24820640661795, -5468.1531152907755, -2421.9903256881626, -5153.775829526881, -8094.147812622526, -4441.135161058326, -3541.969185110234, -4560.582883427487, -3682.606361223026, -10528.118673338733, -15018.539430921011, 0.01, -0.10400000000000001, 0.996, 192.0, 0.0, 0.0, 0.0, 0.0, 0.0, 0.0, 0.0, 0.0, 0.0, 1.645920795763926E9, 0.0, 2022-02-27 11:13:15.763
150.0, -2999.917030324582, -5880.989835380296, -2065.278835925917, -11134.63325913349, -1326.64308865584, 212.20746185868526, -5324.364343209785, -2219.7740936009995, -2897.6801511860076, -7692.33050254947, -4732.557205266619, -3480.479536113684, -4979.70044370895, -3934.5328729787916, -10282.540057008275, -14217.922296276367, 0.01, -0.10400000000000001, 0.996, 192.0, 0.0, 0.0, 0.0, 0.0, 0.0, 0.0, 0.0, 0.0, 0.0, 1.645920795778469E9, 0.0, 2022-02-27 11:13:15.778
152.0, -2479.166088004838, -5478.189048551208, -1724.7053056604036, -10779.41933624975, -867.3594435881905, 605.0170189162516, -5220.182862303599, -2094.134938017719, -3831.3125170841836, -7501.58071536788, -4366.525038066511, -3402.7178171536707, -4534.699563348242, -3574.4462698037946, -10263.764591665817, -14293.627654746493, 0.01, -0.10400000000000001, 0.996, 192.0, 0.0, 0.0, 0.0, 0.0, 0.0, 0.0, 0.0, 0.0, 0.0, 1.645920795786429E9, 0.0, 2022-02-27 11:13:15.786
154.0, -3218.9864777310468, -6066.397555637069, -2253.8158004064326, -11351.132255927594, -1542.091553460545, 31.471256193072342, -5530.2015578987075, -2467.8337535659975, -4627.749875515685, -8275.06283224378, -4727.818635442095, -3622.6589825938922, -4868.500515043797, -3943.1829980829953, -10573.515066327462, -15025.177899024236, 0.01, -0.10400000000000001, 0.996, 192.0, 0.0, 0.0, 0.0, 0.0, 0.0, 0.0, 0.0, 0.0, 0.0, 1.645920795793613E9, 0.0, 2022-02-27 11:13:15.793
156.0, -2613.678886136876, -5582.884619579866, -1783.3115796222187, -10835.835139254945, -961.1250115782037, 536.8218465831097, -5148.657280046616, -2010.2041375880408, -2589.136670724949, -7267.356785220717, -4515.141786949848, -3365.613921357861, -4751.287967120167, -3709.4508063138496, -10118.81352887315, -13834.187547467656, 0.008, -0.10400000000000001, 0.996, 192.0, 0.0, 32.0, 126.0, 96.0, 15.5, 16.0, 0.0, 0.0, 0.0, 1.645920795801019E9, 0.0, 2022-02-27 11:13:15.801
158.0, -2898.730683175407, -5817.041494493663, -2051.353699130261, -11126.854852063043, -1249.8648464518603, 280.9390760587545, -5464.241560011096, -2414.7483604846434, -5149.6631085471045, -8086.637626485543, -4458.793039178019, -3547.1100863349543, -4556.067831047515, -3673.8444773965452, -10527.895155894179, -15003.317892946947, 0.008, -0.10400000000000001, 0.996, 192.0, 0.0, 0.0, 0.0, 0.0, 0.0, 0.0, 0.0, 0.0, 0.0, 1.645920795809082E9, 0.0, 2022-02-27 11:13:15.809
160.0, -3019.720675911984, -5897.708940232867, -2077.6617023541576, -11135.996715545263, -1315.1766437502677, 234.02276444706496, -5303.9795522665445, -2192.929648510176, -2923.988154409904, -7707.574392267989, -4751.869112476005, -3486.8050797945357, -4978.135821597079, -3932.9011956335544, -10284.059975631235, -14214.033092741143, 0.008, -0.10400000000000001, 0.996, 192.0, 0.0, 0.0, 0.0, 0.0, 0.0, 0.0, 0.0, 0.0, 0.0, 1.645920795817074E9, 0.0, 2022-02-27 11:13:15.817
162.0, -2490.788995121598, -5486.861525399867, -1731.9025673750125, -10766.388269232306, -853.0766788812493, 627.9946122163072, -5173.423012903097, -2070.486792384004, -3809.676028451446, -7490.449546629137, -4381.970093485128, -3397.1745845287546, -4538.588766883465, -3572.255798847175, -10254.958004350425, -14259.116561307499, 0.008, -0.10400000000000001, 0.996, 192.0, 0.0, 0.0, 0.0, 0.0, 0.0, 0.0, 0.0, 0.0, 0.0, 1.645920795823567E9, 0.0, 2022-02-27 11:13:15.823
164.0, -3228.754190058016, -6076.2770266863145, -2260.946006887675, -11346.639555292077, -1530.8486259995254, 40.05432606391025, -5512.409569312283, -2457.1049162274503, -4657.365936918966, -8289.099727761713, -4736.17818786838, -3617.3616191579845, -4870.221599366856, -3940.1431608370735, -10573.291548882908, -15015.678407630732, 0.009000000000000001, -0.10500000000000001, 0.993, 192.0, 0.0, 40.0, 126.0, 88.0, 15.0, 120.0, 0.0, 0.0, 0.0, 1.645920795832098E9, 0.0, 2022-02-27 11:13:15.832
166.0, -2630.487397967267, -5593.077015051486, -1796.4097018730286, -10834.561089820992, -956.632310942687, 535.8160180826209, -5134.910957206602, -2001.06227410582, -2585.0239497451726, -7272.967073078999, -4524.820092298995, -3359.7577643105706, -4757.881731734483, -3720.201995396852, -10118.835880617606, -13828.264335187, 0.009000000000000001, -0.10500000000000001, 0.993, 192.0, 0.0, 0.0, 0.0, 0.0, 0.0, 0.0, 0.0, 0.0, 0.0, 1.645920795838705E9, 0.0, 2022-02-27 11:13:15.838
168.0, -2904.117453589136, -5820.10368348404, -2049.319690384828, -11124.642029361967, -1243.002860904081, 276.4240236787824, -5456.150228518275, -2403.013694645607, -5150.490123091951, -8085.989425896339, -4466.035004381538, -3541.611557198949, -4555.307871736035, -3670.9387506173553, -10518.239202289487, -14997.439384155201, 0.009000000000000001, -0.10500000000000001, 0.993, 192.0, 0.0, 0.0, 0.0, 0.0, 0.0, 0.0, 0.0, 0.0, 0.0, 1.645920795846764E9, 0.0, 2022-02-27 11:13:15.846
170.0, -3043.055897123325, -5917.400827097992, -2076.231190709018, -11150.502997696758, -1318.6411641408401, 218.28713635052878, -5325.548985665916, -2219.7293901120893, -2950.899654734094, -7730.261412890127, -4759.669871290907, -3496.997475266156, -4983.634350733084, -3949.1956173414733, -10285.915170421025, -14230.640438871436, 0.009000000000000001, -0.10500000000000001, 0.993, 192.0, 0.0, 0.0, 0.0, 0.0, 0.0, 0.0, 0.0, 0.0, 0.0, 1.645920795853173E9, 0.0, 2022-02-27 11:13:15.853
172.0, -2508.6033354524775, -5503.290057574518, -1725.53232020525, -10773.697289669191, -850.8638561801739, 616.8857952220196, -5199.909830082635, -2076.275894197928, -3795.013284088765, -7500.977218267587, -4384.182916186204, -3415.9500498712123, -4539.952223295239, -3597.4462148483058, -10253.84041712766, -14260.25650027472, 0.009000000000000001, -0.10500000000000001, 0.993, 192.0, 0.0, 0.0, 0.0, 0.0, 0.0, 0.0, 0.0, 0.0, 0.0, 1.645920795861388E9, 0.0, 2022-02-27 11:13:15.861
174.0, -3252.0000042915353, -6094.717215861942, -2270.2890360699935, -11353.501540839856, -1536.9730039802796, 41.64129992023706, -5533.621374800369, -2450.0641167240283, -4718.02857137067, -8314.133681551657, -4743.666022260907, -3643.2896427261408, -4873.417898823965, -3948.4356580299927, -10581.360528631274, -15035.035018329028, 0.0115, -0.10550000000000001, 0.9904999999999999, 192.0, 0.0, 56.0, 126.0, 88.0, 15.0, 112.0, 0.0, 0.0, 0.0, 1.645920795869366E9, 0.0, 2022-02-27 11:13:15.869
176.0, -2651.7662586887195, -5611.0925210824635, -1804.1881089434755, -10848.24035742764, -966.2882645473796, 532.4409046698695, -5159.207303429521, -2011.5228905109038, -2587.6614555908986, -7299.520945491904, -4551.2845577340795, -3378.9579127976795, -4783.027444246703, -3731.623736813514, -10130.123511567535, -13830.097178232334, 0.0115, -0.10550000000000001, 0.9904999999999999, 192.0, 0.0, 0.0, 0.0, 0.0, 0.0, 0.0, 0.0, 0.0, 0.0, 1.64592079587586E9, 0.0, 2022-02-27 11:13:15.875
178.0, -2904.6538954560633, -5824.5740323751015, -2043.9105682266438, -11123.256221205738, -1232.6987067101845, 281.922552814788, -5461.7605163765575, -2386.8310316599645, -5139.82834098677, -8087.665806730486, -4470.773574206063, -3549.3005572915745, -4555.889017091873, -3689.915381659911, -10518.105091822756, -14982.955453748162, 0.0115, -0.10550000000000001, 0.9904999999999999, 192.0, 0.0, 0.0, 0.0, 0.0, 0.0, 0.0, 0.0, 0.0, 0.0, 1.645920795883881E9, 0.0, 2022-02-27 11:13:15.883
180.0, -3050.4096210491207, -5920.55242306619, -2091.899763572188, -11152.961689586842, -1340.2776527735773, 214.12971188184167, -5335.629622415259, -2215.43785517667, -2979.956922525993, -7742.8454450184645, -4773.103269708547, -3498.383283422385, -4995.011388660835, -3966.4958675498806, -10300.063824661234, -14243.224470999774, 0.0115, -0.10550000000000001, 0.9904999999999999, 192.0, 0.0, 0.0, 0.0, 0.0, 0.0, 0.0, 0.0, 0.0, 0.0, 1.645920795891936E9, 0.0, 2022-02-27 11:13:15.891
182.0, -2497.583925436011, -5496.405720282283, -1730.0250208407667, -10769.18223728922, -849.6121584906767, 629.4698273503575, -5196.132385269688, -2074.4430511525934, -3770.4263651879273, -7493.355273408327, -4389.904962766763, -3404.3047910099976, -4551.597482156454, -3592.461775834772, -10251.046449070745, -14244.833796600557, 0.0115, -0.10550000000000001, 0.9904999999999999, 192.0, 0.0, 0.0, 0.0, 0.0, 0.0, 0.0, 0.0, 0.0, 0.0, 1.645920795905538E9, 0.0, 2022-02-27 11:13:15.905
184.0, -3238.745419829538, -6086.625884369121, -2265.2375418230945, -11354.686183295988, -1535.3189748905868, 36.25452950650806, -5528.167549153274, -2462.514038385634, -4706.763292165196, -8311.496175705932, -4730.612603499008, -3635.891215311434, -4874.222561624356, -3943.294756805272, -10578.253636151987, -15036.063198573971, 0.01375, -0.10575000000000001, 0.98925, 192.0, 0.0, 64.0, 126.0, 88.0, 15.0, 112.0, 0.0, 0.0, 0.0, 1.645920795913643E9, 0.0, 2022-02-27 11:13:15.913
186.0, -2653.3755842895016, -5613.238288550173, -1811.497129380361, -10850.810808040002, -966.8470581587623, 534.5419686486684, -5141.571777054283, -1997.8883263931664, -2571.6352548164436, -7294.424747756094, -4533.067886003004, -3378.220305230654, -4773.595008086563, -3730.081466446098, -10122.389807986, -13828.800777053926, 0.01375, -0.10575000000000001, 0.98925, 192.0, 0.0, 0.0, 0.0, 0.0, 0.0, 0.0, 0.0, 0.0, 0.0, 1.645920795922192E9, 0.0, 2022-02-27 11:13:15.922
188.0, -2891.354607505156, -5810.335971157071, -2040.6025100472582, -11107.095909964552, -1223.7356571836065, 298.0158088226091, -5451.322251715929, -2380.6843019347552, -5148.813742257803, -8086.704681718908, -4468.136068360337, -3564.499743521183, -4566.99783408616, -3669.8435151390454, -10522.038998846889, -14975.042936210983, 0.01375, -0.10575000000000001, 0.98925, 192.0, 0.0, 0.0, 0.0, 0.0, 0.0, 0.0, 0.0, 0.0, 0.0, 1.645920795928671E9, 0.0, 2022-02-27 11:13:15.928
190.0, -3056.690461241062, -5926.341524880115, -2100.482833443026, -11157.20852103335, -1347.02787959908, 219.3153165954729, -5366.1397535967535, -2233.7439338855665, -3031.8576731512157, -7772.752079099665, -4767.671795805907, -3502.0266177686, -5001.046359663768, -3947.6980504629673, -10311.753787011361, -14269.174846312386, 0.01375, -0.10575000000000001, 0.98925, 192.0, 0.0, 0.0, 0.0, 0.0, 0.0, 0.0, 0.0, 0.0, 0.0, 1.645920795936314E9, 0.0, 2022-02-27 11:13:15.936
192.0, -2501.1155010599496, -5501.27840057354, -1730.4050004965068, -10762.588472674905, -849.2545305793918, 623.904242980986, -5164.929350010079, -2065.0553184813643, -3729.7461902792684, -7484.8616105153105, -4386.060462720449, -3399.677979907749, -4562.572188684009, -3578.1343076389203, -10244.69855364544, -14222.772624823168, 0.01375, -0.10575000000000001, 0.98925, 192.0, 0.0, 0.0, 0.0, 0.0, 0.0, 0.0, 0.0, 0.0, 0.0, 1.645920795944361E9, 0.0, 2022-02-27 11:13:15.944
194.0, -3244.5121698990074, -6093.0631867722495, -2255.089849840385, -11346.505444825345, -1520.9691549502797, 31.22538700406397, -5506.0169703980655, -2473.8687245689302, -4750.41624908641, -8323.186138056057, -4727.751580208728, -3637.76876184568, -4865.863009198071, -3932.096532833163, -10573.246845393998, -15041.137044565327, 0.013875, -0.106875, 0.989625, 192.0, 0.0, 56.0, 126.0, 80.0, 15.0, 120.0, 0.0, 0.0, 0.0, 1.645920795952319E9, 0.0, 2022-02-27 11:13:15.952
196.0, -2658.7623547032304, -5626.1128933564305, -1804.8139577882241, -10846.273403915573, -976.3689012967232, 529.1104947460287, -5144.566910811295, -2012.9757539004988, -2567.164905925382, -7307.679332218091, -4540.332202950979, -3379.516706409062, -4781.1498977124575, -3725.2311378992963, -10121.115758552047, -13832.086483488856, 0.013875, -0.106875, 0.989625, 192.0, 0.0, 0.0, 0.0, 0.0, 0.0, 0.0, 0.0, 0.0, 0.0, 1.645920795958386E9, 0.0, 2022-02-27 11:13:15.958
198.0, -2885.699616157963, -5821.824767807098, -2022.229376104996, -11103.944313996353, -1215.0408285904919, 297.63582916686886, -5440.928690544211, -2387.881563649364, -5115.755512208404, -8084.961245651394, -4453.227454808647, -3552.6309672154152, -4553.3409182239675, -3663.9650063472995, -10513.947667354068, -14963.554139560956, 0.013875, -0.106875, 0.989625, 192.0, 0.0, 0.0, 0.0, 0.0, 0.0, 0.0, 0.0, 0.0, 0.0, 1.645920795965782E9, 0.0, 2022-02-27 11:13:15.965
200.0, -3070.6155980367184, -5951.934272281441, -2096.0795397853303, -11175.201675319871, -1340.3000045180327, 203.8032059434898, -5331.159273524198, -2217.270698222005, -3043.525283756886, -7794.276809010126, -4769.102307451047, -3520.511510433139, -4994.877278194103, -3952.906006921054, -10304.17654564101, -14278.003785372233, 0.013875, -0.106875, 0.989625, 192.0, 0.0, 0.0, 0.0, 0.0, 0.0, 0.0, 0.0, 0.0, 0.0, 1.64592079597463E9, 0.0, 2022-02-27 11:13:15.974
202.0, -2499.4391202258016, -5502.060711629476, -1721.0619713141884, -10768.288167511007, -835.217635061459, 635.1471704420055, -5196.042978291867, -2080.0086355219646, -3726.326373377606, -7483.6322645702685, -4385.747538298076, -3413.1113783253886, -4555.017299058116, -3578.1343076389203, -10236.02607679678, -14217.363502664984, 0.013875, -0.106875, 0.989625, 192.0, 0.0, 0.0, 0.0, 0.0, 0.0, 0.0, 0.0, 0.0, 0.0, 1.645920795981808E9, 0.0, 2022-02-27 11:13:15.981
204.0, -3244.8250943213816, -6092.862021072152, -2267.45036452417, -11347.399514603558, -1526.959422464302, 52.2136750475973, -5526.8040927415, -2472.1476402458716, -4773.796173786661, -8327.343562524744, -4725.449350529832, -3636.539415900638, -4852.854293925082, -3926.3968379970597, -10577.113697184766, -15052.983469126639, 0.012937500000000001, -0.1044375, 0.9888125, 192.0, 0.0, 48.0, 126.0, 104.0, 15.0, 112.0, 0.0, 0.0, 0.0, 1.645920795988502E9, 0.0, 2022-02-27 11:13:15.988
206.0, -2665.5125815287333, -5619.16150083083, -1821.8906905520787, -10849.894386517333, -974.7819274403963, 526.9200237894087, -5141.102390420722, -2000.5928874722586, -2571.322330394069, -7307.075835117797, -4553.13975252387, -3380.0531482759893, -4787.2519239487565, -3726.4604838443383, -10121.987476585804, -13826.945582264136, 0.012937500000000001, -0.1044375, 0.9888125, 192.0, 0.0, 0.0, 0.0, 0.0, 0.0, 0.0, 0.0, 0.0, 0.0, 1.645920795996545E9, 0.0, 2022-02-27 11:13:15.996
208.0, -2871.4615549399323, -5796.187316916861, -2028.6219750192138, -11088.05222368863, -1191.3703312123218, 313.9302508747877, -5431.07157123942, -2377.3091885220038, -5110.9722388949685, -8066.7445739203185, -4452.959233875184, -3538.07998157501, -4545.115476264415, -3650.3527939740175, -10505.990446327978, -14951.998287677561, 0.012937500000000001, -0.1044375, 0.9888125, 192.0, 0.0, 0.0, 0.0, 0.0, 0.0, 0.0, 0.0, 0.0, 0.0, 1.645920796004449E9, 0.0, 2022-02-27 11:13:16.004
210.0, -3062.5242665438973, -5940.803103542698, -2107.255412012984, -11160.941262357386, -1333.2145015257004, 205.3678280553613, -5335.0261253149665, -2228.245404749561, -3060.5796647762854, -7789.940570585796, -4761.860342247527, -3505.8487660704573, -4984.908400167036, -3943.54062599428, -10310.770310255326, -14279.948387139844, 0.012937500000000001, -0.1044375, 0.9888125, 192.0, 0.0, 0.0, 0.0, 0.0, 0.0, 0.0, 0.0, 0.0, 0.0, 1.645920796011079E9, 0.0, 2022-02-27 11:13:16.011
212.0, -2480.306026972059, -5485.542772477004, -1722.7607038927918, -10751.613766147348, -818.2079575309704, 629.0451442057067, -5184.732995597482, -2060.674376568124, -3677.9348466318665, -7467.762526007, -4367.664977033732, -3391.9219245817576, -4541.449790173744, -3568.388947056407, -10230.795768594238, -14197.38104312194, 0.012937500000000001, -0.1044375, 0.9888125, 192.0, 0.0, 0.0, 0.0, 0.0, 0.0, 0.0, 0.0, 0.0, 0.0, 1.645920796026042E9, 0.0, 2022-02-27 11:13:16.026
214.0, -3232.039896492946, -6083.161363978549, -2266.6233499793234, -11337.542395298768, -1511.469663556774, 41.23896852004153, -5523.630145028847, -2456.635529593889, -4790.5376303836865, -8311.876155361671, -4705.399835753422, -3621.3625814154843, -4834.369401260544, -3903.0616167857193, -10577.76189777397, -15049.697762691709, 0.01146875, -0.10421875, 0.98740625, 192.0, 0.0, 40.0, 126.0, 96.0, 15.0, 104.0, 0.0, 0.0, 0.0, 1.645920796034092E9, 0.0, 2022-02-27 11:13:16.034
216.0, -2667.0772036406047, -5627.118721856919, -1826.0034115318551, -10848.083895216454, -974.3795960402008, 514.0677707276071, -5162.247140675443, -2017.6919719805685, -2553.306824363092, -7304.72890194999, -4545.115476264415, -3378.354415697386, -4782.200429701857, -3718.8385389850787, -10121.205165529867, -13824.285724673955, 0.01146875, -0.10421875, 0.98740625, 192.0, 0.0, 0.0, 0.0, 0.0, 0.0, 0.0, 0.0, 0.0, 0.0, 1.645920796040726E9, 0.0, 2022-02-27 11:13:16.040
218.0, -2862.677319368997, -5799.696540796344, -2028.2643471079289, -11080.989072440752, -1188.039921288481, 309.23638453917323, -5444.862597568345, -2383.4782699916686, -5089.693378173516, -8052.26064351328, -4440.889291869318, -3538.5270164641165, -4539.214615728213, -3639.7804188466575, -10501.475393948007, -14938.944868915662, 0.01146875, -0.10421875, 0.98740625, 192.0, 0.0, 0.0, 0.0, 0.0, 0.0, 0.0, 0.0, 0.0, 0.0, 1.645920796048749E9, 0.0, 2022-02-27 11:13:16.048
220.0, -3073.141345160168, -5949.006193757796, -2123.572185465358, -11172.45241075187, -1349.0395366000578, 183.9548568671771, -5370.811268187913, -2246.9091113697423, -3080.7632900194276, -7793.49449795419, -4763.782592270683, -3522.2996499895635, -4987.612961246128, -3943.3618120386377, -10310.770310255326, -14291.034852389677, 0.01146875, -0.10421875, 0.98740625, 192.0, 0.0, 0.0, 0.0, 0.0, 0.0, 0.0, 0.0, 0.0, 0.0, 1.645920796056725E9, 0.0, 2022-02-27 11:13:16.056
222.0, -2490.0513875545726, -5504.56410700847, -1731.589642952638, -10762.543769185993, -827.1933588020038, 617.2881266222151, -5174.115916981211, -2088.614057137258, -3666.3566430040173, -7469.058927185408, -4380.114898695338, -3398.739206640626, -4550.301080978046, -3567.025490644633, -10226.92891680347, -14188.61915929546, 0.01146875, -0.10421875, 0.98740625, 192.0, 0.0, 0.0, 0.0, 0.0, 0.0, 0.0, 0.0, 0.0, 0.0, 1.645920796063824E9, 0.0, 2022-02-27 11:13:16.063
224.0, -3234.7444575720383, -6094.0019600393725, -2278.760347218555, -11354.261500151337, -1510.5979455230172, 20.98828804353333, -5522.780778739546, -2493.448852711779, -4797.399615931466, -8333.55734748332, -4704.058731086103, -3633.3431164435287, -4835.419933249943, -3911.979962823387, -10564.999051689989, -15062.192387842226, 0.013734375, -0.107109375, 0.985703125, 192.0, 0.0, 64.0, 126.0, 72.0, 15.0, 96.0, 0.0, 0.0, 0.0, 1.645920796071372E9, 0.0, 2022-02-27 11:13:16.071
226.0, -2670.541724031177, -5631.387905047883, -1843.9518623294668, -10867.686375103758, -978.9170001646281, 501.12611068798435, -5152.837056259758, -2055.6899375545904, -2551.0269464286503, -7314.630724743692, -4546.858912331929, -3388.4127007022744, -4783.765051813728, -3724.4488268433606, -10104.24019148829, -13824.97862875207, 0.013734375, -0.107109375, 0.985703125, 192.0, 0.0, 0.0, 0.0, 0.0, 0.0, 0.0, 0.0, 0.0, 0.0, 1.645920796078456E9, 0.0, 2022-02-27 11:13:16.078
228.0, -2859.9504065454494, -5792.499279081736, -2048.02328920642, -11085.504124820725, -1187.0787962769027, 300.8321286239778, -5439.207606221153, -2393.558906741012, -5082.362005992175, -8048.0808673001375, -4436.933033100729, -3530.8827198604013, -4537.895862805351, -3650.9339393298555, -10487.684367619082, -14938.497834026557, 0.013734375, -0.107109375, 0.985703125, 192.0, 0.0, 0.0, 0.0, 0.0, 0.0, 0.0, 0.0, 0.0, 0.0, 1.645920796086598E9, 0.0, 2022-02-27 11:13:16.086
230.0, -3069.9897491919696, -5950.436705402935, -2147.4438485436262, -11174.128791586018, -1347.7431354216499, 192.49322324910443, -5341.3069655069075, -2227.9771838160973, -3083.0878714427795, -7809.319533028547, -4765.70484229384, -3522.2549465006527, -4992.955028170947, -3936.7903991687776, -10304.042435174279, -14288.129125610487, 0.013734375, -0.107109375, 0.985703125, 192.0, 0.0, 0.0, 0.0, 0.0, 0.0, 0.0, 0.0, 0.0, 0.0, 1.645920796093618E9, 0.0, 2022-02-27 11:13:16.093
232.0, -2481.8259455950197, -5493.2764760585405, -1757.8305909431685, -10757.179350516719, -827.9980216023948, 631.5708913291563, -5167.008062244423, -2061.903722513166, -3664.702613914325, -7476.256188900017, -4377.700910294165, -3398.359226984886, -4548.445886188256, -3567.338415067007, -10218.368198677088, -14179.790220235613, 0.013734375, -0.107109375, 0.985703125, 192.0, 0.0, 0.0, 0.0, 0.0, 0.0, 0.0, 0.0, 0.0, 0.0, 1.645920796101039E9, 0.0, 2022-02-27 11:13:16.101
234.0, -3228.8883005247476, -6080.233285454904, -2297.468757327647, -11348.718267526421, -1513.570727535573, 37.997965574022004, -5515.628220513848, -2495.728730646221, -4814.968087073336, -8343.995612143948, -4703.07525433007, -3636.2041397338085, -4829.76494190275, -3904.6038871531355, -10564.909644712168, -15052.134102837337, 0.014, -0.114, 0.988, 192.0, 0.0, 56.0, 126.0, 56.0, 15.0, 112.0, 0.0, 0.0, 0.0, 1.645920796109015E9, 0.0, 2022-02-27 11:13:16.109
236.0, -2665.8702094400182, -5627.92338465731, -1855.9323973575113, -10858.633918599358, -984.8625641897398, 509.4856631142692, -5165.30932966582, -2029.5607482863365, -2538.129989877938, -7318.005838156443, -4535.727743593186, -3379.784927342526, -4775.114926709524, -3713.1611958934304, -10104.173136254924, -13818.474271115574, 0.014, -0.114, 0.988, 192.0, 0.0, 0.0, 0.0, 0.0, 0.0, 0.0, 0.0, 0.0, 0.0, 1.645920796116205E9, 0.0, 2022-02-27 11:13:16.116
238.0, -2835.3634876446117, -5772.025081160675, -2035.9533472005544, -11062.101848376018, -1172.4384036586766, 330.24702432716185, -5426.914146770733, -2369.687243662744, -5076.4611454559745, -8046.695059143908, -4426.762989373564, -3534.213129784242, -4534.856025559428, -3627.8669390519785, -10483.683405361582, -14917.509545983023, 0.014, -0.114, 0.988, 192.0, 0.0, 0.0, 0.0, 0.0, 0.0, 0.0, 0.0, 0.0, 0.0, 1.645920796123709E9, 0.0, 2022-02-27 11:13:16.123
240.0, -3069.3191968583105, -5948.000365257307, -2141.4982845185145, -11173.301777041172, -1357.2202750707002, 186.05592084597598, -5341.575186440371, -2255.402774262759, -3130.495921432486, -7827.156225103882, -4751.667946775907, -3512.5319376625944, -4985.981283900891, -3939.517311992325, -10308.535135809796, -14312.269009622218, 0.014, -0.114, 0.988, 192.0, 0.0, 0.0, 0.0, 0.0, 0.0, 0.0, 0.0, 0.0, 0.0, 1.64592079613164E9, 0.0, 2022-02-27 11:13:16.131
242.0, -2476.238009481193, -5479.440746240705, -1740.172712823476, -10751.658469636259, -824.3770390006351, 630.2968418952039, -5166.605730844228, -2076.253542453473, -3607.1021684529983, -7448.674136242168, -4361.965282197629, -3393.128918782344, -4550.56930191151, -3561.0575748750657, -10202.297294413722, -14157.192606591298, 0.014, -0.114, 0.988, 192.0, 0.0, 0.0, 0.0, 0.0, 0.0, 0.0, 0.0, 0.0, 0.0, 1.645920796139703E9, 0.0, 2022-02-27 11:13:16.139
244.0, -3226.3849051457532, -6080.367395921636, -2285.354111832871, -11348.450046592958, -1515.4482740698188, 34.68990739463656, -5510.800243711501, -2501.0260940821286, -4841.566662975152, -8336.038391117858, -4680.634102896941, -3644.9660235602887, -4825.920441856438, -3900.1111865176185, -10561.579234788327, -15062.684126220242, 0.016, -0.10400000000000001, 0.99, 192.0, 0.0, 64.0, 126.0, 96.0, 15.0, 120.0, 0.0, 0.0, 0.0, 1.645920796153319E9, 0.0, 2022-02-27 11:13:16.153
246.0, -2678.029558423705, -5626.2917073120725, -1852.2443595223856, -10865.853532058421, -992.1492328821699, 499.2262124092832, -5150.735992280959, -2047.5986060617695, -2536.6994782327984, -7325.337210337783, -4538.119380249904, -3382.087157021422, -4794.4715374078205, -3721.744265764268, -10098.76401409674, -13823.63752408475, 0.016, -0.10400000000000001, 0.99, 192.0, 0.0, 0.0, 0.0, 0.0, 0.0, 0.0, 0.0, 0.0, 0.0, 1.645920796161464E9, 0.0, 2022-02-27 11:13:16.161
248.0, -2841.0184789918044, -5774.796697473133, -2029.9854314309873, -11068.561502523602, -1164.235313443579, 323.31798354601665, -5411.178518674197, -2393.6706654632885, -5059.607930136673, -8038.089637528616, -4419.521024170044, -3531.88854836089, -4530.922118535294, -3630.7056105978027, -10466.852541786737, -14911.631037191277, 0.016, -0.10400000000000001, 0.99, 192.0, 0.0, 0.0, 0.0, 0.0, 0.0, 0.0, 0.0, 0.0, 0.0, 1.645920796169422E9, 0.0, 2022-02-27 11:13:16.169
250.0, -3062.7924874773607, -5930.4095423709805, -2140.0007176400086, -11166.126867071018, -1348.547798222041, 182.70315917767994, -5345.15146555322, -2273.7088529716557, -3121.2870027168997, -7827.513853015167, -4750.349193853044, -3508.3074579605413, -4984.7742897003045, -3944.3005853057607, -10299.728548494406, -14311.665512521926, 0.016, -0.10400000000000001, 0.99, 192.0, 0.0, 0.0, 0.0, 0.0, 0.0, 0.0, 0.0, 0.0, 0.0, 1.64592079617598E9, 0.0, 2022-02-27 11:13:16.175
252.0, -2461.7764308186092, -5463.883932099811, -1740.9326721349564, -10733.195928716175, -824.1535215560821, 636.5776820871451, -5177.334568182775, -2080.1427459886963, -3599.591982316015, -7441.432171038648, -4345.827322700897, -3373.1017557503887, -4547.954147810238, -3555.7155079502477, -10206.320608415677, -14165.485103784216, 0.016, -0.10400000000000001, 0.99, 192.0, 0.0, 0.0, 0.0, 0.0, 0.0, 0.0, 0.0, 0.0, 0.0, 1.645920796184132E9, 0.0, 2022-02-27 11:13:16.184
254.0, -3208.525861325963, -6054.372317120114, -2288.0363211675076, -11320.845642190652, -1515.381218836453, 33.72878238305836, -5520.009162427087, -2510.8832133869187, -4832.357744259566, -8317.30762926431, -4660.852809053995, -3613.8076917895905, -4817.851462108071, -3887.460099155915, -10568.128295913732, -15068.786152456541, 0.012, -0.106, 0.992, 192.0, 0.0, 48.0, 126.0, 88.0, 15.5, 0.0, 0.0, 0.0, 0.0, 1.645920796192011E9, 0.0, 2022-02-27 11:13:16.192
0.0, -2665.691395484376, -5613.417102505816, -1858.7263654144247, -10850.095552217432, -1000.1064539082593, 492.7665582616995, -5163.208265687021, -2065.4576498815595, -2517.0522948565836, -7303.365445538217, -4520.796778297041, -3364.831610301925, -4790.559982128141, -3722.750094264757, -10109.202278757368, -13825.135090963257, 0.012, -0.106, 0.992, 192.0, 0.0, 0.0, 0.0, 0.0, 0.0, 0.0, 0.0, 0.0, 0.0, 1.645920796199194E9, 0.0, 2022-02-27 11:13:16.199
2.0, -2807.2673448642904, -5737.938670866331, -2015.25563183494, -11045.069819101074, -1163.005967498537, 327.6542219703462, -5426.578870603904, -2419.3528198424365, -5029.6789443110165, -8013.569773861143, -4396.610486103355, -3516.4658446867284, -4521.84731028644, -3626.7493518292135, -10473.602768612238, -14912.86038313632, 0.012, -0.106, 0.992, 192.0, 0.0, 0.0, 0.0, 0.0, 0.0, 0.0, 0.0, 0.0, 0.0, 1.645920796205618E9, 0.0, 2022-02-27 11:13:16.205
4.0, -3064.2229991225004, -5925.98389696883, -2143.1970170971176, -11171.893617140488, -1363.6799292182839, 171.63904567230293, -5366.676195463681, -2292.819594480943, -3133.938090078603, -7820.294239556103, -4730.925527921382, -3503.0324462690887, -4978.60520823064, -3942.803018427255, -10315.441824846486, -14341.21451869184, 0.012, -0.106, 0.992, 192.0, 0.0, 0.0, 0.0, 0.0, 0.0, 0.0, 0.0, 0.0, 0.0, 1.645920796213658E9, 0.0, 2022-02-27 11:13:16.213
6.0, -2466.783221576598, -5465.448554211683, -1735.8141226546911, -10744.08122826591, -833.7200681829535, 622.227862146838, -5178.988597272468, -2105.7578451344784, -3564.0303568876216, -7443.8908629287325, -4349.940043680674, -3390.7149303811707, -4559.353537482445, -3554.642624216393, -10205.225372937366, -14163.51815027215, 0.012, -0.106, 0.992, 192.0, 0.0, 0.0, 0.0, 0.0, 0.0, 0.0, 0.0, 0.0, 0.0, 1.645920796221575E9, 0.0, 2022-02-27 11:13:16.221
8.0, -3211.1857189161447, -6054.685241542487, -2280.459079797158, -11325.964191670919, -1513.280154857654, 33.48291319404998, -5548.440581374238, -2540.7004404902987, -4879.028186682247, -8336.664239962607, -4662.439782910322, -3632.605508876504, -4815.437473706898, -3889.449404412437, -10573.068031438355, -15093.685995779753, 0.014, -0.11, 0.986, 192.0, 0.0, 56.0, 126.0, 72.0, 15.0, 104.0, 0.0, 0.0, 0.0, 1.645920796228313E9, 0.0, 2022-02-27 11:13:16.228
10.0, -2688.5348783176996, -5630.918518414321, -1869.8351824087124, -10857.426924398771, -1004.2862301214017, 487.80447099262136, -5163.722355809493, -2047.7103647840459, -2526.663544972366, -7317.849375945256, -4544.981365797683, -3372.8111830724697, -4805.1556712574575, -3727.0863326890867, -10114.678456148918, -13827.54907936443, 0.014, -0.11, 0.986, 192.0, 0.0, 0.0, 0.0, 0.0, 0.0, 0.0, 0.0, 0.0, 0.0, 1.645920796236383E9, 0.0, 2022-02-27 11:13:16.236
12.0, -2818.1973479029357, -5742.409019757392, -2020.6647539931244, -11043.415790011382, -1163.9894442545706, 328.2577190706395, -5416.095902454365, -2395.749377697632, -5007.081330666701, -8015.5590791176655, -4405.506480396567, -3521.405580211351, -4523.367228909401, -3618.836834292035, -10471.41229765562, -14889.078127035873, 0.014, -0.11, 0.986, 192.0, 0.0, 0.0, 0.0, 0.0, 0.0, 0.0, 0.0, 0.0, 0.0, 1.645920796244802E9, 0.0, 2022-02-27 11:13:16.244
14.0, -3065.184124134079, -5924.486330090324, -2137.9667088945757, -11173.480590996813, -1368.84318218746, 169.6720921602359, -5355.857951147313, -2287.9692659341417, -3157.3180147788544, -7840.388457821425, -4745.498865306243, -3518.343391220974, -4997.537135784285, -3947.519236507325, -10314.212478901443, -14338.688771568392, 0.014, -0.11, 0.986, 192.0, 0.0, 0.0, 0.0, 0.0, 0.0, 0.0, 0.0, 0.0, 0.0, 1.645920796251496E9, 0.0, 2022-02-27 11:13:16.251
16.0, -2464.1904192197826, -5455.882007584812, -1733.1542650645097, -10739.476768908116, -825.4722744789451, 622.2725656357486, -5168.036242489367, -2088.4352431816155, -3550.865179403446, -7431.083313355842, -4346.0731918899055, -3376.2086482296763, -4557.5653979260205, -3567.2713598336413, -10200.509154857296, -14153.99630713419, 0.014, -0.11, 0.986, 192.0, 0.0, 0.0, 0.0, 0.0, 0.0, 0.0, 0.0, 0.0, 0.0, 1.645920796258912E9, 0.0, 2022-02-27 11:13:16.258
18.0, -3209.5093380819962, -6046.929186216496, -2276.7263384731223, -11336.268345864815, -1514.0401141691345, 27.15736951319808, -5549.714630808191, -2546.3554318374913, -4872.881456957038, -8328.707018936519, -4665.144343989414, -3627.4869593962385, -4810.833014349105, -3885.426090410482, -10574.051508194389, -15087.22634163217, 0.01, -0.10400000000000001, 0.992, 192.0, 0.0, 40.0, 126.0, 96.0, 15.5, 0.0, 0.0, 0.0, 0.0, 1.645920796274058E9, 0.0, 2022-02-27 11:13:16.274
20.0, -2674.475631055311, -5617.596878718959, -1852.847856622679, -10864.467723902193, -1006.1190731667368, 477.9697034322862, -5191.125594511699, -2085.037778024409, -2500.0873208150056, -7309.869803174711, -4532.218519713702, -3373.414680172763, -4794.292723452178, -3726.9969257112657, -10108.822299101628, -13834.053437000925, 0.01, -0.10400000000000001, 0.992, 192.0, 0.0, 0.0, 0.0, 0.0, 0.0, 0.0, 0.0, 0.0, 0.0, 1.645920796281118E9, 0.0, 2022-02-27 11:13:16.281
22.0, -2787.21783008788, -5720.258441002184, -1997.8436229042559, -11030.80940613859, -1148.2538161580344, 340.4841232876925, -5417.392303632772, -2382.114813579895, -4984.46136527793, -7994.704901540864, -4391.2684191785365, -3502.920687546812, -4515.946449750239, -3614.4111888898838, -10468.081887731778, -14891.46976369259, 0.01, -0.10400000000000001, 0.992, 192.0, 0.0, 0.0, 0.0, 0.0, 0.0, 0.0, 0.0, 0.0, 0.0, 1.645920796288479E9, 0.0, 2022-02-27 11:13:16.288
24.0, -3058.098621141746, -5923.83812950112, -2140.671269973668, -11176.811000920654, -1381.807193971538, 152.8859320743003, -5374.58871300086, -2308.6446295553005, -3185.39180581472, -7855.4311818398455, -4734.345344823044, -3509.1344725053877, -4980.46040302043, -3945.2840620617944, -10328.271726163832, -14374.585673163614, 0.01, -0.10400000000000001, 0.992, 192.0, 0.0, 0.0, 0.0, 0.0, 0.0, 0.0, 0.0, 0.0, 0.0, 1.645920796296621E9, 0.0, 2022-02-27 11:13:16.296
26.0, -2432.3391833709697, -5432.278565440008, -1721.1513782920097, -10720.947172754666, -831.9319286265288, 622.1831586579274, -5173.378309414185, -2099.544060175903, -3473.5057918436282, -7409.5585834453805, -4334.472636517601, -3354.125124707833, -4552.133924023381, -3558.509476007161, -10196.374082133065, -14139.46767323824, 0.01, -0.10400000000000001, 0.992, 192.0, 0.0, 0.0, 0.0, 0.0, 0.0, 0.0, 0.0, 0.0, 0.0, 1.645920796304783E9, 0.0, 2022-02-27 11:13:16.304
28.0, -3169.455012018086, -6012.887479411063, -2262.510628999547, -11314.363636298614, -1514.8000734806149, 23.13405551124281, -5552.419191887283, -2550.758725495187, -4866.600616765096, -8305.617666914186, -4634.835378508017, -3597.401511359395, -4799.679493865907, -3869.0646134691974, -10576.152572173187, -15098.111641181904, 0.012, -0.10400000000000001, 0.992, 192.0, 0.0, 48.0, 126.0, 96.0, 15.5, 0.0, 0.0, 0.0, 0.0, 1.645920796311074E9, 0.0, 2022-02-27 11:13:16.311
30.0, -2652.414459277923, -5591.91472433981, -1849.3386327431958, -10859.8632645444, -1023.5534338418763, 469.47604053926955, -5185.269437464409, -2092.771481605945, -2465.10684074245, -7293.083643088776, -4514.650048571832, -3351.8228950289367, -4797.4666711648315, -3714.3905418384725, -10107.794118856684, -13838.367323680797, 0.012, -0.10400000000000001, 0.992, 192.0, 0.0, 0.0, 0.0, 0.0, 0.0, 0.0, 0.0, 0.0, 0.0, 1.645920796319001E9, 0.0, 2022-02-27 11:13:16.319
32.0, -2766.028376344249, -5694.397472667393, -1988.8805733776778, -11025.914374102877, -1163.2965401764561, 335.0973528739635, -5444.3261557014175, -2410.0321424045733, -4954.26415851881, -7974.34246234208, -4381.925389996218, -3493.9799897646894, -4522.719028320197, -3606.9680579862666, -10468.506570876429, -14885.591254900844, 0.012, -0.10400000000000001, 0.992, 192.0, 0.0, 0.0, 0.0, 0.0, 0.0, 0.0, 0.0, 0.0, 0.0, 1.645920796326232E9, 0.0, 2022-02-27 11:13:16.326
34.0, -3049.7614204599167, -5903.296876346693, -2134.7257059485564, -11175.983986375808, -1384.8693829619149, 153.78000185251258, -5402.595448803359, -2341.993432282619, -3170.371433540754, -7841.684858999832, -4734.010068656215, -3496.416329910318, -4988.439975790975, -3933.169416567018, -10337.61475534615, -14375.904426086478, 0.012, -0.10400000000000001, 0.992, 192.0, 0.0, 0.0, 0.0, 0.0, 0.0, 0.0, 0.0, 0.0, 0.0, 1.64592079633351E9, 0.0, 2022-02-27 11:13:16.333
36.0, -2426.751247257143, -5421.236803679086, -1715.2281660113533, -10731.698361837669, -840.090315352716, 611.4766730638353, -5186.945818298557, -2121.51582497547, -3484.256980926631, -7398.315655984361, -4336.081962118383, -3353.767496796548, -4559.867627604917, -3541.2986327765743, -10204.934800259447, -14146.441417508295, 0.012, -0.10400000000000001, 0.992, 192.0, 0.0, 0.0, 0.0, 0.0, 0.0, 0.0, 0.0, 0.0, 0.0, 1.645920796340788E9, 0.0, 2022-02-27 11:13:16.340
38.0, -3158.457953746075, -6002.04688335024, -2254.8439806513766, -11321.069159635206, -1526.892367230936, 22.44115143312829, -5579.889485822855, -2557.17367615386, -4882.827983239649, -8296.900486576616, -4626.878157481928, -3596.2615723921745, -4799.433624676898, -3865.2201134228844, -10585.205028677587, -15108.952237242727, 0.006, -0.108, 0.99, 192.0, 0.0, 24.0, 126.0, 80.0, 15.0, 120.0, 0.0, 0.0, 0.0, 1.64592079634883E9, 0.0, 2022-02-27 11:13:16.348
40.0, -2650.514560999222, -5589.500735938637, -1846.589368175193, -10867.395802425839, -1030.5718816008427, 449.0018426182083, -5170.9643210130125, -2101.6227724102464, -2465.3527099314583, -7294.402396011638, -4513.644220071343, -3347.0396217155007, -4802.47346192282, -3723.040666942676, -10116.95833408336, -13843.351762694332, 0.006, -0.108, 0.99, 192.0, 0.0, 0.0, 0.0, 0.0, 0.0, 0.0, 0.0, 0.0, 0.0, 1.645920796356873E9, 0.0, 2022-02-27 11:13:16.356
42.0, -2749.868065103062, -5686.149678963385, -1969.4345557015606, -11018.98533332173, -1142.822342255395, 345.4909140456813, -5390.190230630664, -2393.8718311633866, -4940.696649634439, -7962.831313947597, -4376.225695160115, -3492.9965130086557, -4520.595612596942, -3614.1206162119647, -10458.35887889372, -14880.003318787018, 0.006, -0.108, 0.99, 192.0, 0.0, 0.0, 0.0, 0.0, 0.0, 0.0, 0.0, 0.0, 0.0, 1.645920796363549E9, 0.0, 2022-02-27 11:13:16.363
44.0, -3051.6836704830735, -5909.26479211626, -2132.736400692034, -11186.109326614062, -1397.2298976456998, 126.68968757268043, -5382.568285771405, -2348.497789919113, -3225.513187111996, -7854.894739972919, -4733.607737256019, -3503.904164302846, -4982.673225721505, -3951.453143531459, -10336.161891956555, -14412.360121293083, 0.006, -0.108, 0.99, 192.0, 0.0, 0.0, 0.0, 0.0, 0.0, 0.0, 0.0, 0.0, 0.0, 1.645920796371441E9, 0.0, 2022-02-27 11:13:16.371
46.0, -2425.007811189629, -5418.018152477522, -1706.533337418239, -10723.919954767223, -837.7433821849087, 611.0296381747291, -5168.393870400652, -2119.861795885777, -3413.4690062366735, -7377.059147007364, -4340.552311009445, -3355.287415419509, -4557.028956059094, -3567.472525533739, -10193.334244887143, -14127.12951029891, 0.007, -0.109, 0.993, 192.0, 0.0, 32.0, 126.0, 72.0, 15.5, 16.0, 0.0, 0.0, 0.0, 1.645920796379481E9, 0.0, 2022-02-27 11:13:16.379
48.0, -3149.249035030489, -6000.817537405198, -2241.0082508335413, -11306.674636205988, -1521.5279485616625, 30.554834670404755, -5574.614474131403, -2564.1474204239157, -4923.128178492568, -8293.681835375051, -4629.24744239419, -3596.507441581183, -4782.602761102052, -3858.559293575203, -10588.446031623607, -15120.530440870578, 0.007, -0.109, 0.993, 192.0, 0.0, 0.0, 0.0, 0.0, 0.0, 0.0, 0.0, 0.0, 0.0, 1.645920796386376E9, 0.0, 2022-02-27 11:13:16.386
50.0, -2667.703052485353, -5604.565811701514, -1852.400821733573, -10865.33944193595, -1053.6388818787195, 448.89008389593175, -5170.114954723711, -2096.191298507607, -2466.8055733210535, -7312.6414194871695, -4537.426476171789, -3354.3039386634755, -4818.8349388641045, -3738.4857223612935, -10128.603592944573, -13852.292460476454, 0.007, -0.109, 0.993, 192.0, 0.0, 0.0, 0.0, 0.0, 0.0, 0.0, 0.0, 0.0, 0.0, 1.645920796400987E9, 0.0, 2022-02-27 11:13:16.400
52.0, -2743.4978179332993, -5680.673501571835, -1964.2042474990187, -10998.444080167304, -1148.007946969026, 352.12938214890744, -5398.572134801404, -2418.212880875216, -4908.711303318894, -7937.529139224189, -4372.850581747363, -3472.4776115986842, -4517.041685228549, -3588.304351366085, -10454.380268380675, -14854.075295218861, 0.007, -0.109, 0.993, 192.0, 0.0, 0.0, 0.0, 0.0, 0.0, 0.0, 0.0, 0.0, 0.0, 1.645920796408973E9, 0.0, 2022-02-27 11:13:16.408
54.0, -3054.6117490067186, -5914.942135207908, -2129.1601215791848, -11172.92179738543, -1397.0510836900573, 150.0472605284763, -5379.215524103109, -2320.893385516809, -3205.8213002468706, -7839.852015954497, -4727.550414508631, -3495.5669636210164, -4974.961873884425, -3928.1849775534843, -10337.90532802407, -14399.105536831086, 0.007, -0.109, 0.993, 192.0, 0.0, 0.0, 0.0, 0.0, 0.0, 0.0, 0.0, 0.0, 0.0, 1.645920796416162E9, 0.0, 2022-02-27 11:13:16.416
56.0, -2436.2730903951037, -5430.512777628038, -1704.5887356506273, -10718.935515753688, -833.7871234163193, 627.8157982606648, -5165.488143621462, -2095.543097918403, -3424.8460441644247, -7371.940597527099, -4344.352107566847, -3356.1367817088108, -4563.779182884596, -3542.662089188348, -10195.792936777227, -14112.578524658506, 0.0085, -0.1085, 0.9924999999999999, 192.0, 0.0, 40.0, 126.0, 80.0, 15.5, 0.0, 0.0, 0.0, 0.0, 1.645920796423663E9, 0.0, 2022-02-27 11:13:16.423
58.0, -3176.6746254771506, -6023.415151049513, -2250.0160038490303, -11321.829118946687, -1519.3374776050423, 28.744343369524884, -5519.673886260258, -2537.9511759222955, -4925.519815149286, -8320.325114765777, -4637.025849464637, -3605.4257876188503, -4785.284970436689, -3861.040337209742, -10579.103002441288, -15113.735510556164, 0.0085, -0.1085, 0.9924999999999999, 192.0, 0.0, 0.0, 0.0, 0.0, 0.0, 0.0, 0.0, 0.0, 0.0, 1.645920796431754E9, 0.0, 2022-02-27 11:13:16.431
60.0, -2683.8186602376295, -5622.804835177045, -1851.238531021897, -10878.8175438425, -1042.7759340734403, 450.7229269412669, -5154.513437093907, -2094.3808072067272, -2470.1359832448943, -7315.055407888342, -4537.873511060895, -3360.1153922218555, -4811.883546338505, -3734.775332781712, -10110.632790402507, -13846.302192962432, 0.0085, -0.1085, 0.9924999999999999, 192.0, 0.0, 0.0, 0.0, 0.0, 0.0, 0.0, 0.0, 0.0, 0.0, 1.645920796438734E9, 0.0, 2022-02-27 11:13:16.438
62.0, -2749.5551406806876, -5689.524792376136, -1961.00794804191, -11000.768661590655, -1128.8077984819172, 365.2498561441727, -5381.316588081907, -2372.1906390417385, -4919.68600984645, -7956.796342944664, -4383.087680707894, -3493.9129345313236, -4513.174833437781, -3596.1945171588086, -10445.439570598552, -14858.74680981002, 0.0085, -0.1085, 0.9924999999999999, 192.0, 0.0, 0.0, 0.0, 0.0, 0.0, 0.0, 0.0, 0.0, 0.0, 1.645920796446489E9, 0.0, 2022-02-27 11:13:16.446
64.0, -3093.1238047032125, -5942.479484376846, -2147.7791247104556, -11193.21718135085, -1405.477691349708, 145.3086907039512, -5373.046442633444, -2324.2014436961945, -3294.7588914345374, -7887.572990366578, -4748.695164763351, -3513.336600462985, -4985.981283900891, -3932.789436911278, -10341.973345514936, -14436.47765356036, 0.0085, -0.1085, 0.9924999999999999, 192.0, 0.0, 0.0, 0.0, 0.0, 0.0, 0.0, 0.0, 0.0, 0.0, 1.645920796453256E9, 0.0, 2022-02-27 11:13:16.453
66.0, -2463.6539773528552, -5452.4845424276045, -1705.214584495376, -10724.702265823158, -830.2555477923809, 638.3211181546591, -5112.5592127512955, -2073.4372226521045, -3392.525421682051, -7384.882257566722, -4362.948758953662, -3362.909360278769, -4567.757793397641, -3545.254891545164, -10172.882398710537, -14095.635902361382, 0.009250000000000001, -0.10925, 0.99025, 192.0, 0.0, 40.0, 126.0, 72.0, 15.0, 112.0, 0.0, 0.0, 0.0, 1.645920796461379E9, 0.0, 2022-02-27 11:13:16.461
68.0, -3188.744567483016, -6032.7805319762865, -2244.6515851797562, -11316.084720621673, -1504.898250686914, 43.80941913240184, -5504.1394238638195, -2534.0619723870723, -4953.079516062679, -8317.061760075303, -4633.136645929414, -3608.063293464577, -4773.2820836641895, -3835.5369967862366, -10564.775534245437, -15117.311789669013, 0.009250000000000001, -0.10925, 0.99025, 192.0, 0.0, 0.0, 0.0, 0.0, 0.0, 0.0, 0.0, 0.0, 0.0, 1.645920796468361E9, 0.0, 2022-02-27 11:13:16.468
70.0, -2714.7311228193194, -5645.6036145214575, -1861.6767956825252, -10881.991491555154, -1046.240454464013, 463.8210491920769, -5149.283128891365, -2071.962007518054, -2480.9542275612625, -7329.7852074843895, -4548.9376245662725, -3370.5313051380285, -4816.197433018378, -3727.3545536225506, -10104.664874632941, -13850.638431386762, 0.009250000000000001, -0.10925, 0.99025, 192.0, 0.0, 0.0, 0.0, 0.0, 0.0, 0.0, 0.0, 0.0, 0.0, 1.645920796475875E9, 0.0, 2022-02-27 11:13:16.475
72.0, -2770.811649657685, -5703.628743127435, -1962.3490527092283, -10999.919295301353, -1121.878757700772, 378.1021092059743, -5364.150448340231, -2367.3179587504815, -4901.5363933487415, -7945.3522497835465, -4380.338416139891, -3492.862402541924, -4512.79485378204, -3583.8787059639344, -10432.788483236847, -14836.529175821446, 0.009250000000000001, -0.10925, 0.99025, 192.0, 0.0, 0.0, 0.0, 0.0, 0.0, 0.0, 0.0, 0.0, 0.0, 1.645920796483836E9, 0.0, 2022-02-27 11:13:16.483
74.0, -3114.8720520582265, -5958.952720040407, -2161.0337091724527, -11192.993663906296, -1409.8139297740377, 154.83053384191203, -5360.77533492748, -2315.9089465032753, -3298.290467058476, -7887.662397344398, -4757.7252695232955, -3517.963411565234, -4990.183411858489, -3929.7048961764453, -10336.675982079028, -14426.039388899731, 0.009250000000000001, -0.10925, 0.99025, 192.0, 0.0, 0.0, 0.0, 0.0, 0.0, 0.0, 0.0, 0.0, 0.0, 1.645920796491907E9, 0.0, 2022-02-27 11:13:16.491
76.0, -2486.7880328640977, -5463.213379766153, -1726.716962661381, -10718.68964656468, -840.380888030635, 644.0878682241283, -5137.637870030149, -2066.6646440821464, -3412.5525847140057, -7386.111603511764, -4377.835020760896, -3362.3058631784756, -4580.6323982038975, -3534.056667573055, -10178.313872613176, -14092.998396515655, 0.010625, -0.105625, 0.989125, 192.0, 0.0, 48.0, 126.0, 104.0, 15.0, 112.0, 0.0, 0.0, 0.0, 1.6459207964985E9, 0.0, 2022-02-27 11:13:16.498
78.0, -3200.9039164667033, -6024.823310950197, -2260.7448411875775, -11304.595923971645, -1498.9526866618023, 64.95416938712232, -5499.691426717213, -2529.591623496011, -4994.117318882623, -8319.475748476476, -4653.096753728003, -3614.008857489688, -4782.491002379776, -3829.814950205678, -10572.598644804793, -15115.389539645856, 0.010625, -0.105625, 0.989125, 192.0, 0.0, 0.0, 0.0, 0.0, 0.0, 0.0, 0.0, 0.0, 0.0, 1.645920796506532E9, 0.0, 2022-02-27 11:13:16.506
80.0, -2723.9847450238162, -5642.183797619796, -1874.1937725774972, -10877.856418830923, -1039.6913933386081, 463.4187177918813, -5142.242329387943, -2080.8803535557217, -2477.847335081975, -7325.538376037882, -4562.1475055393585, -3369.5925318709055, -4816.845633607582, -3719.598498296559, -10107.056511289658, -13846.011620284513, 0.010625, -0.105625, 0.989125, 192.0, 0.0, 0.0, 0.0, 0.0, 0.0, 0.0, 0.0, 0.0, 0.0, 1.645920796521689E9, 0.0, 2022-02-27 11:13:16.521
82.0, -2763.8826088765395, -5699.493670403203, -1953.6542241161137, -10989.88336204092, -1104.7126179590962, 387.98158025521997, -5347.096067320832, -2354.242188244127, -4869.77456447775, -7928.7449036532535, -4382.014796974039, -3491.4318908967844, -4498.266219886091, -3575.18387737082, -10423.937192432546, -14818.893649446209, 0.010625, -0.105625, 0.989125, 192.0, 0.0, 0.0, 0.0, 0.0, 0.0, 0.0, 0.0, 0.0, 0.0, 1.645920796529834E9, 0.0, 2022-02-27 11:13:16.529
84.0, -3120.4599881720533, -5970.4415166904355, -2150.349575322816, -11201.487326799313, -1400.8508802474596, 151.47777217361596, -5335.160235781698, -2300.5309463180242, -3296.3011618019536, -7905.4990894197335, -4754.6183770440075, -3528.9828215817, -4973.106679094634, -3931.716553177423, -10333.926717511025, -14432.499043047315, 0.010625, -0.105625, 0.989125, 192.0, 0.0, 0.0, 0.0, 0.0, 0.0, 0.0, 0.0, 0.0, 0.0, 1.645920796536284E9, 0.0, 2022-02-27 11:13:16.536
86.0, -2489.8949253433857, -5474.65747292727, -1707.7850351077361, -10729.530242625504, -826.478102979434, 636.1977024314049, -5113.475634273963, -2056.6287108217134, -3378.7120436086707, -7399.70146414059, -4377.34328238288, -3380.6342936318274, -4565.030880574093, -3560.1635050968534, -10167.674442252452, -14086.382280156886, 0.009312500000000001, -0.1048125, 0.9895625, 192.0, 0.0, 32.0, 126.0, 96.0, 15.0, 120.0, 0.0, 0.0, 0.0, 1.645920796544259E9, 0.0, 2022-02-27 11:13:16.544
88.0, -3209.330524126354, -6042.682354769988, -2243.8692741238206, -11311.435557774968, -1504.7864919646374, 52.34778551432914, -5513.795377468512, -2524.2272048267373, -4982.27089432131, -8330.383399770666, -4644.468980368255, -3620.535566870638, -4766.554208583142, -3838.4874270543373, -10565.870769723746, -15114.786042545564, 0.009312500000000001, -0.1048125, 0.9895625, 192.0, 0.0, 0.0, 0.0, 0.0, 0.0, 0.0, 0.0, 0.0, 0.0, 1.64592079655155E9, 0.0, 2022-02-27 11:13:16.551
90.0, -2730.936137549417, -5646.989422677687, -1859.6427869370923, -10878.8175438425, -1045.1675707301583, 468.82783995006565, -5167.812725044814, -2090.7151211160567, -2475.3886431918913, -7332.668582519124, -4564.628549173898, -3375.7616133405704, -4815.973915573825, -3718.6597250294362, -10110.521031680231, -13840.758960337516, 0.009312500000000001, -0.1048125, 0.9895625, 192.0, 0.0, 0.0, 0.0, 0.0, 0.0, 0.0, 0.0, 0.0, 0.0, 1.645920796558808E9, 0.0, 2022-02-27 11:13:16.558
92.0, -2770.565780468676, -5692.788147066611, -1950.3014624478178, -10985.16714396085, -1107.9312691606606, 384.56176335355804, -5355.902654636223, -2362.0205953145737, -4877.642378526018, -7923.849871617541, -4391.044901733983, -3486.0451204830556, -4501.261353643102, -3572.1440401248983, -10428.228727367965, -14818.558373279378, 0.009312500000000001, -0.1048125, 0.9895625, 192.0, 0.0, 0.0, 0.0, 0.0, 0.0, 0.0, 0.0, 0.0, 0.0, 1.6459207965668E9, 0.0, 2022-02-27 11:13:16.566
94.0, -3129.043058042891, -5961.3443566971255, -2162.0842411618523, -11194.40182380698, -1418.7099240672499, 142.84999881386744, -5339.742343395036, -2320.4239988832474, -3327.8171214839367, -7904.783833597164, -4765.3025108936445, -3520.5562139220497, -4988.75290021335, -3925.972154852409, -10342.979174015425, -14434.62245877057, 0.009312500000000001, -0.1048125, 0.9895625, 192.0, 0.0, 0.0, 0.0, 0.0, 0.0, 0.0, 0.0, 0.0, 0.0, 1.64592079657396E9, 0.0, 2022-02-27 11:13:16.573
96.0, -2490.856050354964, -5457.200760507674, -1718.8715003575685, -10718.60023958686, -825.7181436679535, 638.164655943472, -5108.960581893991, -2085.6859786136124, -3376.543924396506, -7385.12812675573, -4382.372424885324, -3365.122182979844, -4577.681967935797, -3538.2364437861975, -10168.188532374923, -14074.155875939832, 0.009656250000000002, -0.10840625000000001, 0.9897812500000001, 192.0, 0.0, 40.0, 126.0, 64.0, 15.0, 120.0, 0.0, 0.0, 0.0, 1.645920796580449E9, 0.0, 2022-02-27 11:13:16.580
98.0, -3211.789216016438, -6030.277136597292, -2254.2851870399936, -11306.495822250346, -1505.0323611536458, 54.158276815209014, -5492.2259440691405, -2515.7335419337205, -5010.434092334997, -8325.868347390693, -4651.487428127221, -3615.3276104125516, -4769.571694084608, -3811.0618366076756, -10569.42469709214, -15116.395368146344, 0.009656250000000002, -0.10840625000000001, 0.9897812500000001, 192.0, 0.0, 0.0, 0.0, 0.0, 0.0, 0.0, 0.0, 0.0, 0.0, 1.645920796588558E9, 0.0, 2022-02-27 11:13:16.588
100.0, -2757.6688239179643, -5666.703661287268, -1875.6242842226368, -10889.121698036397, -1063.0266145499486, 445.2914530386273, -5144.879835233669, -2070.799716806378, -2485.1116520299497, -7352.271062406428, -4587.494383751677, -3381.6177703878607, -4836.314003028155, -3739.8715305175224, -10109.068168290636, -13843.664687116705, 0.009656250000000002, -0.10840625000000001, 0.9897812500000001, 192.0, 0.0, 0.0, 0.0, 0.0, 0.0, 0.0, 0.0, 0.0, 0.0, 1.645920796596463E9, 0.0, 2022-02-27 11:13:16.596
102.0, -2766.2071902998914, -5689.502440631681, -1935.2810901738515, -10976.248797923185, -1093.8273184093616, 396.98933327070876, -5339.027087572466, -2347.983699796641, -4854.016584636758, -7925.034514073672, -4395.403491902768, -3495.45520489874, -4502.691865288242, -3572.1663918693534, -10413.431872538553, -14794.776117178932, 0.009656250000000002, -0.10840625000000001, 0.9897812500000001, 192.0, 0.0, 0.0, 0.0, 0.0, 0.0, 0.0, 0.0, 0.0, 0.0, 1.645920796603617E9, 0.0, 2022-02-27 11:13:16.603
104.0, -3132.976965067025, -5962.618406131078, -2148.8073049553996, -11197.888695942009, -1403.5554413265518, 143.83347556990094, -5353.622776701782, -2324.8719960298536, -3361.7694213115483, -7927.269688519203, -4767.917664994916, -3528.7593041371474, -4977.711138452428, -3930.9342421214874, -10335.468987878441, -14451.967412467888, 0.009656250000000002, -0.10840625000000001, 0.9897812500000001, 192.0, 0.0, 0.0, 0.0, 0.0, 0.0, 0.0, 0.0, 0.0, 0.0, 1.645920796611056E9, 0.0, 2022-02-27 11:13:16.611
106.0, -2485.290465985592, -5453.9374058172, -1708.3438287191188, -10715.470995363117, -815.0787133072273, 639.8186850331647, -5098.477613744451, -2055.2429026654845, -3337.2495576440765, -7374.376937672728, -4377.0080062160505, -3362.708194578671, -4569.031842831593, -3546.4842374902055, -10146.730857697828, -14057.749695509638, 0.008828125000000001, -0.11020312500000001, 0.989890625, 192.0, 0.0, 32.0, 126.0, 64.0, 15.0, 120.0, 0.0, 0.0, 0.0, 1.645920796619081E9, 0.0, 2022-02-27 11:13:16.619
108.0, -3200.143957155223, -6033.182863376483, -2247.154980558751, -11309.33449379617, -1491.218983080266, 47.18453254515321, -5498.775005194546, -2530.2845275741256, -5018.458368594453, -8323.40965550061, -4641.898529755894, -3614.590002845526, -4754.730135766285, -3827.602127504603, -10555.454856807573, -15118.921115269795, 0.008828125000000001, -0.11020312500000001, 0.989890625, 192.0, 0.0, 0.0, 0.0, 0.0, 0.0, 0.0, 0.0, 0.0, 0.0, 1.645920796627089E9, 0.0, 2022-02-27 11:13:16.627
110.0, -2743.6989836333973, -5658.768792005634, -1877.7924034348016, -10894.709634150224, -1059.562094159376, 438.9882611022307, -5156.905073750624, -2099.253487497984, -2475.232180980704, -7350.147646683175, -4572.965749855727, -3381.2601424765758, -4821.785369132205, -3739.31273690614, -10099.814546086138, -13851.845425587348, 0.008828125000000001, -0.11020312500000001, 0.989890625, 192.0, 0.0, 0.0, 0.0, 0.0, 0.0, 0.0, 0.0, 0.0, 0.0, 1.645920796633649E9, 0.0, 2022-02-27 11:13:16.633
112.0, -2745.0177365562604, -5671.97867297872, -1945.9205205345775, -10974.259492666662, -1092.9108968866942, 389.6356093449127, -5345.8890731202455, -2353.75044986611, -4848.272186311744, -7916.764368625209, -4384.428785375212, -3481.485364614173, -4498.6909030307415, -3578.179011127831, -10412.738968460437, -14802.68863471611, 0.008828125000000001, -0.11020312500000001, 0.989890625, 192.0, 0.0, 0.0, 0.0, 0.0, 0.0, 0.0, 0.0, 0.0, 0.0, 1.645920796648835E9, 0.0, 2022-02-27 11:13:16.648
114.0, -3128.2830987314105, -5955.89053105003, -2173.8859622342543, -11199.989759920807, -1413.7031333092611, 140.4360104126943, -5364.597483229338, -2335.2208537126608, -3393.061863548978, -7926.777950141186, -4763.89435099296, -3523.149016278865, -4978.292283808266, -3938.913814892032, -10347.449522906485, -14471.10050572163, 0.008828125000000001, -0.11020312500000001, 0.989890625, 192.0, 0.0, 0.0, 0.0, 0.0, 0.0, 0.0, 0.0, 0.0, 0.0, 1.64592079665685E9, 0.0, 2022-02-27 11:13:16.656
116.0, -2475.2768844696147, -5445.287280712996, -1725.8675963720796, -10711.246515661063, -826.6569169350764, 633.582548330134, -5090.699206674005, -2060.8084870348557, -3328.398266839775, -7362.664623578146, -4376.650378304766, -3353.409868885263, -4570.752927154652, -3553.413278271351, -10154.77748570174, -14061.34832636694, 0.008, -0.108, 0.992, 192.0, 0.0, 32.0, 126.0, 80.0, 15.5, 0.0, 0.0, 0.0, 0.0, 1.645920796663442E9, 0.0, 2022-02-27 11:13:16.663
118.0, -3189.9292099391473, -6016.173185845993, -2263.516457500036, -11291.542505209745, -1491.7554249471934, 55.96876811608888, -5487.643836455803, -2502.1883847938043, -5035.535101358307, -8310.93738209455, -4630.745009272696, -3602.9670957287667, -4749.522179308197, -3825.277546081251, -10563.099153411289, -15120.105757725927, 0.008, -0.108, 0.992, 192.0, 0.0, 0.0, 0.0, 0.0, 0.0, 0.0, 0.0, 0.0, 0.0, 1.645920796671348E9, 0.0, 2022-02-27 11:13:16.671
120.0, -2749.9574720808832, -5660.2216553952285, -1893.7068454869802, -10883.667872389302, -1059.11505927027, 446.2749297946608, -5148.299652135331, -2078.22049596554, -2479.099032771472, -7341.676335534613, -4572.675177177808, -3370.1513254822885, -4824.892261611493, -3741.078524718109, -10100.395691441976, -13840.669553359694, 0.008, -0.108, 0.992, 192.0, 0.0, 0.0, 0.0, 0.0, 0.0, 0.0, 0.0, 0.0, 0.0, 1.645920796679365E9, 0.0, 2022-02-27 11:13:16.679
122.0, -2744.3248324781457, -5672.112783445452, -1945.585244367748, -10957.093352924985, -1081.4444519811216, 402.04082751760814, -5345.844369631335, -2350.1965224977166, -4829.429665735921, -7897.385406182458, -4378.05853820545, -3478.579637834983, -4491.493641316133, -3574.669787248348, -10409.609724236694, -14780.850980383275, 0.008, -0.108, 0.992, 192.0, 0.0, 0.0, 0.0, 0.0, 0.0, 0.0, 0.0, 0.0, 0.0, 1.645920796686036E9, 0.0, 2022-02-27 11:13:16.686
124.0, -3155.5969304557957, -5983.383176730058, -2184.6595030617123, -11206.136489646016, -1420.6992293237722, 120.83353052538997, -5330.846349101824, -2321.9662692506636, -3432.0880093679443, -7946.9392236398735, -4772.6338830749855, -3543.7573246666584, -4983.254371077343, -3952.883655176599, -10348.47770315143, -14480.287072692761, 0.008, -0.108, 0.992, 192.0, 0.0, 0.0, 0.0, 0.0, 0.0, 0.0, 0.0, 0.0, 0.0, 1.645920796694003E9, 0.0, 2022-02-27 11:13:16.694
126.0, -2488.263247998148, -5449.824684837424, -1726.4934452168281, -10715.873326763312, -829.6520506920875, 623.7701325142542, -5091.81679389677, -2067.6481208381797, -3317.669429501227, -7359.31186190985, -4386.529849354011, -3373.7499563395927, -4582.62170346042, -3566.6008074999822, -10147.96020364287, -14047.870224460392, 0.008, -0.108, 0.984, 192.0, 0.0, 32.0, 126.0, 80.0, 15.0, 96.0, 0.0, 0.0, 0.0, 1.645920796701024E9, 0.0, 2022-02-27 11:13:16.701
128.0, -3214.359666628798, -6045.923357716008, -2264.0081958780524, -11310.675598463487, -1496.024608138157, 37.9756138295667, -5491.331874290929, -2540.8121992125753, -5048.655575353572, -8325.376609012677, -4630.253270894679, -3625.2964884396183, -4743.733077494273, -3835.2464241083176, -10562.875635966735, -15132.063941009515, 0.008, -0.108, 0.984, 192.0, 0.0, 0.0, 0.0, 0.0, 0.0, 0.0, 0.0, 0.0, 0.0, 1.645920796708948E9, 0.0, 2022-02-27 11:13:16.708
130.0, -2791.442309789933, -5706.288600717617, -1911.4317788400388, -10912.613381458925, -1073.9119140996831, 430.0475633201079, -5141.30355612082, -2068.5645423608476, -2501.428425482324, -7384.971664544543, -4597.91029666785, -3413.5360614700394, -4838.415067006954, -3767.36417619755, -10103.636694387997, -13858.059210545924, 0.008, -0.108, 0.984, 192.0, 0.0, 0.0, 0.0, 0.0, 0.0, 0.0, 0.0, 0.0, 0.0, 1.645920796715774E9, 0.0, 2022-02-27 11:13:16.715
132.0, -2751.1868180259253, -5698.733711091722, -1944.1547327226083, -10970.414992620348, -1073.6436931662195, 399.22450771623943, -5320.721008863569, -2339.378278181348, -4822.500624954775, -7927.850833875041, -4388.094471465883, -3515.191795252776, -4497.148632663326, -3588.505517066183, -10401.0043026214, -14775.039526824896, 0.008, -0.108, 0.984, 192.0, 0.0, 0.0, 0.0, 0.0, 0.0, 0.0, 0.0, 0.0, 0.0, 1.645920796723711E9, 0.0, 2022-02-27 11:13:16.723
134.0, -3154.456991488575, -6011.255802065826, -2179.0715669478855, -11225.426045110948, -1415.2677554211325, 126.30970791694021, -5340.8375788733465, -2316.020705225552, -3430.836311678447, -7979.371604844524, -4760.072202691103, -3562.6669004758483, -4960.41088824402, -3941.774838182311, -10349.751752585382, -14486.813782073712, 0.008, -0.108, 0.984, 192.0, 0.0, 0.0, 0.0, 0.0, 0.0, 0.0, 0.0, 0.0, 0.0, 1.645920796731816E9, 0.0, 2022-02-27 11:13:16.731
136.0, -2502.657771427366, -5502.217173840663, -1720.883157358546, -10734.782902572502, -820.3760767431352, 628.1510744274943, -5088.888715373125, -2040.580158302803, -3278.3527110043424, -7407.0328363219305, -4369.877799734807, -3394.0229885605563, -4559.420592715811, -3587.1644123988644, -10142.014639617759, -14036.87316618838, 0.01, -0.10400000000000001, 0.988, 192.0, 0.0, 40.0, 126.0, 96.0, 15.0, 112.0, 0.0, 0.0, 0.0, 1.645920796738889E9, 0.0, 2022-02-27 11:13:16.738
138.0, -3198.132300154245, -6067.068107970728, -2245.63506193579, -11313.871897920597, -1476.735052673227, 55.90171288272296, -5502.016008140566, -2515.845300655997, -5040.564243860751, -8373.723432269506, -4604.861689193451, -3652.9455963308333, -4715.324010291578, -3851.2055696494067, -10559.724039998537, -15124.240830450159, 0.01, -0.10400000000000001, 0.988, 192.0, 0.0, 0.0, 0.0, 0.0, 0.0, 0.0, 0.0, 0.0, 0.0, 1.645920796746657E9, 0.0, 2022-02-27 11:13:16.746
140.0, -2773.0468241032154, -5721.577193925046, -1884.6767407270363, -10917.866041405921, -1052.8789225672392, 429.8463976200101, -5127.49017804744, -2076.968798276043, -2445.4149538773245, -7404.641199665213, -4557.207770014736, -3421.2027098182098, -4801.847613078072, -3775.3884524570053, -10095.791232084184, -13852.40421919873, 0.01, -0.10400000000000001, 0.988, 192.0, 0.0, 0.0, 0.0, 0.0, 0.0, 0.0, 0.0, 0.0, 0.0, 1.645920796754307E9, 0.0, 2022-02-27 11:13:16.754
142.0, -2739.943890564906, -5711.138929264418, -1914.9186509750666, -10963.195379161285, -1047.559207386876, 415.49657767970297, -5300.962066765078, -2326.9060047752864, -4761.413307358421, -7931.047133332149, -4352.488142548578, -3528.1334552923986, -4455.887312398829, -3597.4909183372165, -10385.2016192915, -14759.348602217271, 0.01, -0.10400000000000001, 0.988, 192.0, 0.0, 0.0, 0.0, 0.0, 0.0, 0.0, 0.0, 0.0, 0.0, 1.645920796768497E9, 0.0, 2022-02-27 11:13:16.768
144.0, -3166.146953838701, -6037.049715167251, -2175.964674468598, -11229.158786434984, -1417.4582263777527, 119.85005376935646, -5350.672346433681, -2349.0118800415853, -3462.0616986825107, -8026.667896111953, -4747.801094985139, -3587.6785025213367, -4949.033850316268, -3968.865152462143, -10352.009278775367, -14512.004198074843, 0.01, -0.10400000000000001, 0.988, 192.0, 0.0, 0.0, 0.0, 0.0, 0.0, 0.0, 0.0, 0.0, 0.0, 1.645920796775963E9, 0.0, 2022-02-27 11:13:16.775
146.0, -2509.5644604640556, -5514.600040268903, -1718.6479829130153, -10727.809158302445, -816.2633557633586, 635.1471704420055, -5087.525258961351, -2037.093286167775, -3226.9884022460465, -7406.116414799263, -4367.284997377992, -3404.282439265542, -4564.874418362906, -3589.176069399842, -10138.594822716097, -14024.914982904791, 0.01, -0.1, 0.986, 192.0, 0.0, 40.0, 126.0, 112.0, 15.0, 104.0, 0.0, 0.0, 0.0, 1.645920796783883E9, 0.0, 2022-02-27 11:13:16.783
148.0, -3204.9942857020246, -6070.175000450015, -2241.723506656111, -11307.389892028557, -1472.0411863376125, 57.980425117066524, -5484.1793160652305, -2523.9366321488183, -5054.109401000667, -8363.061650164325, -4609.24263110669, -3655.337232987551, -4717.26861205919, -3842.9577759453987, -10555.477208552029, -15124.12907172788, 0.01, -0.1, 0.986, 192.0, 0.0, 0.0, 0.0, 0.0, 0.0, 0.0, 0.0, 0.0, 0.0, 1.645920796791069E9, 0.0, 2022-02-27 11:13:16.791
150.0, -2779.5064782507993, -5714.581097910535, -1889.8846971851228, -10919.631829217891, -1051.8283905778399, 433.1991592883062, -5132.742837994438, -2080.858001811266, -2449.840599279475, -7407.368112488761, -4563.510961951132, -3427.729419199159, -4802.138185755991, -3771.7004146218796, -10093.936037294394, -13855.444056444652, 0.01, -0.1, 0.986, 192.0, 0.0, 0.0, 0.0, 0.0, 0.0, 0.0, 0.0, 0.0, 0.0, 1.645920796798474E9, 0.0, 2022-02-27 11:13:16.798
152.0, -2723.9176897904504, -5686.663769085857, -1914.1139881746756, -10960.334355871006, -1040.3395939278118, 422.1350457829292, -5307.220555212564, -2320.0663709719624, -4750.997394442248, -7914.663304646409, -4354.522151294012, -3519.7515511216584, -4460.491771756622, -3591.4559473342833, -10381.826505878747, -14749.715000357033, 0.01, -0.1, 0.986, 192.0, 0.0, 0.0, 0.0, 0.0, 0.0, 0.0, 0.0, 0.0, 0.0, 1.645920796806615E9, 0.0, 2022-02-27 11:13:16.806
154.0, -3144.1975407835894, -6011.769892188298, -2172.2095814001063, -11228.108254445584, -1404.4718628492192, 130.78005680800163, -5341.128151551265, -2337.9254147917527, -3442.5262740285725, -8005.277276668225, -4729.092684876047, -3577.2849413496187, -4939.802579856227, -3970.3850710851043, -10352.47866540893, -14507.958532328432, 0.01, -0.1, 0.986, 192.0, 0.0, 0.0, 0.0, 0.0, 0.0, 0.0, 0.0, 0.0, 0.0, 1.645920796814531E9, 0.0, 2022-02-27 11:13:16.814
156.0, -2476.595637392478, -5486.2356765551185, -1707.9414973189232, -10729.731408325602, -804.8639660911521, 632.1967401739049, -5073.980101821435, -2052.0689549528306, -3199.2945908659212, -7379.182562730618, -4345.804970956441, -3389.1056047803886, -4551.150447267348, -3572.27815059163, -10134.86208139206, -14022.903325903813, 0.012, -0.11, 0.982, 192.0, 0.0, 48.0, 126.0, 72.0, 15.0, 88.0, 0.0, 0.0, 0.0, 1.645920796820749E9, 0.0, 2022-02-27 11:13:16.820
158.0, -3162.257750303477, -6041.989450691874, -2227.8430733493656, -11301.041996603251, -1451.9469680722914, 68.50809675551615, -5476.8479438838895, -2534.9783939097397, -5043.0005840063795, -8348.197740101545, -4568.7189184092185, -3632.9631367877887, -4688.077233800559, -3832.51951128477, -10552.169150372643, -15135.95314454474, 0.012, -0.11, 0.982, 192.0, 0.0, 0.0, 0.0, 0.0, 0.0, 0.0, 0.0, 0.0, 0.0, 1.645920796828769E9, 0.0, 2022-02-27 11:13:16.828
160.0, -2766.542466466721, -5711.764778109166, -1898.8253949672455, -10926.762035699134, -1072.950789088105, 410.914470066365, -5154.133457438166, -2109.89291785871, -2436.2954421395593, -7407.859850866777, -4547.0600780320265, -3411.1444248133216, -4805.937982313393, -3786.944304340399, -10108.084691534603, -13883.18257131369, 0.012, -0.11, 0.982, 192.0, 0.0, 0.0, 0.0, 0.0, 0.0, 0.0, 0.0, 0.0, 0.0, 1.645920796836194E9, 0.0, 2022-02-27 11:13:16.836
162.0, -2699.3084191451576, -5680.964074249754, -1905.7097322594802, -10954.500550568171, -1043.9382247851163, 412.3449817115047, -5319.871642574268, -2338.08187700294, -4694.760405392695, -7887.394176410935, -4330.181101582182, -3509.2015277387536, -4457.273120555058, -3596.28392413663, -10389.515505971374, -14747.993916033975, 0.012, -0.11, 0.982, 192.0, 0.0, 0.0, 0.0, 0.0, 0.0, 0.0, 0.0, 0.0, 0.0, 1.645920796844274E9, 0.0, 2022-02-27 11:13:16.844
164.0, -3141.0235930709355, -6027.214947606915, -2178.9374564811537, -11239.619402840068, -1421.5932991019845, 99.66642852621419, -5367.123230352787, -2368.8378773734426, -3480.412480880318, -8013.055683738671, -4727.550414508631, -3574.155697125876, -4939.780228111771, -3965.7359082384005, -10373.735174385927, -14549.957460159954, 0.012, -0.11, 0.982, 192.0, 0.0, 0.0, 0.0, 0.0, 0.0, 0.0, 0.0, 0.0, 0.0, 1.645920796850807E9, 0.0, 2022-02-27 11:13:16.850
166.0, -2475.880381569908, -5503.625333741347, -1709.7296368753478, -10730.424312403717, -816.5315766968223, 612.3036876086817, -5108.871174916169, -2069.5703708613364, -3164.850552660293, -7364.720984068034, -4342.586319754877, -3390.558468169984, -4553.6314909018865, -3603.9729242292556, -10142.841654162605, -14031.240526585643, 0.014, -0.108, 0.982, 192.0, 0.0, 56.0, 126.0, 80.0, 15.0, 88.0, 0.0, 0.0, 0.0, 1.645920796858773E9, 0.0, 2022-02-27 11:13:16.858
168.0, -3161.944825881103, -6066.598721337166, -2229.318288483416, -11300.863182647608, -1459.4348024648193, 50.42553549117273, -5505.614638997869, -2545.4166585703683, -5056.433982424019, -8353.428048304087, -4568.7189184092185, -3646.53064567216, -4690.468870457276, -3844.209473634896, -10568.083592424822, -15148.38071446189, 0.014, -0.108, 0.982, 192.0, 0.0, 0.0, 0.0, 0.0, 0.0, 0.0, 0.0, 0.0, 0.0, 1.645920796866788E9, 0.0, 2022-02-27 11:13:16.866
170.0, -2770.2081525573913, -5740.442066245326, -1900.0100374233768, -10929.466596778226, -1072.0790710543479, 400.47620540573666, -5158.335585395764, -2110.9210981036545, -2439.558796830034, -7419.035723094431, -4555.151409524848, -3420.778026673559, -4807.90493582546, -3792.5992956875916, -10113.67262764843, -13884.70248993665, 0.014, -0.108, 0.982, 192.0, 0.0, 0.0, 0.0, 0.0, 0.0, 0.0, 0.0, 0.0, 0.0, 1.645920796873874E9, 0.0, 2022-02-27 11:13:16.873
172.0, -2677.2695991122246, -5681.2322951832175, -1903.1392816471198, -10942.11768413993, -1024.626317575731, 421.46449344927, -5320.1175117632765, -2323.9332227627306, -4676.7225476172625, -7879.638121084943, -4328.370610281302, -3503.278315458097, -4448.31007102848, -3588.1031856659874, -10383.86051462418, -14734.649924594156, 0.014, -0.108, 0.982, 192.0, 0.0, 0.0, 0.0, 0.0, 0.0, 0.0, 0.0, 0.0, 0.0, 1.645920796881393E9, 0.0, 2022-02-27 11:13:16.881
174.0, -3127.3443254642875, -6021.179976603982, -2179.920933237187, -11239.977030751352, -1417.9499647557695, 100.3146291154181, -5394.794689988457, -2362.8029063705094, -3509.0450655275663, -8014.217974450347, -4713.133539334958, -3575.832077960024, -4924.7822075822605, -3959.54447502428, -10379.032537821835, -14564.93312894501, 0.014, -0.108, 0.982, 192.0, 0.0, 0.0, 0.0, 0.0, 0.0, 0.0, 0.0, 0.0, 0.0, 1.645920796896463E9, 0.0, 2022-02-27 11:13:16.896
176.0, -2458.937759272785, -5500.719606962158, -1707.0697792851663, -10729.642001347782, -805.3557044691688, 609.8673474630532, -5096.756529421393, -2064.0047864919648, -3125.8914620746928, -7359.423620632127, -4333.891491161763, -3377.9520842971906, -4542.075639018493, -3585.5550867980824, -10140.047686105692, -14014.834346155447, 0.014, -0.112, 0.988, 192.0, 0.0, 56.0, 126.0, 64.0, 15.0, 112.0, 0.0, 0.0, 0.0, 1.645920796903321E9, 0.0, 2022-02-27 11:13:16.903
178.0, -3156.043965344902, -6061.927206746007, -2227.284279737983, -11301.869011148097, -1438.513569654652, 45.53050345546049, -5472.288188015007, -2545.7295829927425, -5051.158970732567, -8335.032562617369, -4548.378830954889, -3628.470436152272, -4664.071460255559, -3813.073493608653, -10558.807618475868, -15148.559528417532, 0.014, -0.112, 0.988, 192.0, 0.0, 0.0, 0.0, 0.0, 0.0, 0.0, 0.0, 0.0, 0.0, 1.645920796911048E9, 0.0, 2022-02-27 11:13:16.911
180.0, -2782.032225374249, -5772.785040472155, -1902.871060713656, -10944.129341140908, -1066.8264111073509, 384.58411509801334, -5156.413335372607, -2100.348722976294, -2436.809532262031, -7423.483720241037, -4547.261243732124, -3419.280459795053, -4797.7572438427505, -3799.3718742575497, -10104.866040333038, -13892.972635385113, 0.014, -0.112, 0.988, 192.0, 0.0, 0.0, 0.0, 0.0, 0.0, 0.0, 0.0, 0.0, 0.0, 1.645920796919095E9, 0.0, 2022-02-27 11:13:16.919
182.0, -2704.2034511808697, -5718.470301445759, -1892.6339617531255, -10943.525844040614, -1006.7449220114854, 416.3235922245494, -5304.985380767033, -2339.311222947982, -4648.246425181202, -7878.006443739706, -4315.875985130785, -3499.4338154117845, -4430.585137675422, -3589.4889938222163, -10375.00922381988, -14732.548860615358, 0.014, -0.112, 0.988, 192.0, 0.0, 0.0, 0.0, 0.0, 0.0, 0.0, 0.0, 0.0, 0.0, 1.645920796927059E9, 0.0, 2022-02-27 11:13:16.927
184.0, -3209.5763933153626, -6111.324561992235, -2177.6857587916566, -11246.123760476561, -1404.382455871398, 91.84331796685672, -5357.735497681559, -2366.13331629435, -3525.451245957762, -8034.960393304872, -4725.2705365741895, -3584.6163135309594, -4918.143739479035, -3963.679547748512, -10367.029651049335, -14574.7902482498, 0.015, -0.111, 0.989, 192.0, 0.0, 64.0, 126.0, 72.0, 15.0, 120.0, 0.0, 0.0, 0.0, 1.645920796933912E9, 0.0, 2022-02-27 11:13:16.933
186.0, -2580.620656087477, -5616.63575370738, -1709.439064197429, -10736.79455957348, -801.7794253563196, 620.3056121236816, -5088.016997339368, -2024.7327714839903, -3174.081823120335, -7378.713176097057, -4364.20045664316, -3412.4631777361847, -4553.85500834644, -3579.9224471953453, -10128.603592944573, -14012.9567996212, 0.015, -0.111, 0.989, 192.0, 0.0, 0.0, 0.0, 0.0, 0.0, 0.0, 0.0, 0.0, 0.0, 1.645920796941796E9, 0.0, 2022-02-27 11:13:16.941
188.0, -3306.6276677403057, -6204.017246248394, -2229.1618262722286, -11297.309255279215, -1429.4834648947078, 66.07175660988767, -5489.186106823219, -2539.5605015230776, -5136.20735838501, -8361.094696652257, -4595.7198257112295, -3655.024308565177, -4685.775004121662, -3806.524432483248, -10556.818313219346, -15147.66545863932, 0.015, -0.111, 0.989, 192.0, 0.0, 0.0, 0.0, 0.0, 0.0, 0.0, 0.0, 0.0, 0.0, 1.645920796948887E9, 0.0, 2022-02-27 11:13:16.948
190.0, -2969.20573344299, -5918.630173043033, -1927.3685726366728, -10938.094370137975, -1076.5494199454095, 400.74442633920034, -5155.631024316672, -2096.146595018696, -2524.271908315648, -7436.313621558384, -4609.6896659957965, -3442.772143217581, -4830.435494236409, -3770.7839930992122, -10112.979723570315, -13894.045519118969, 0.015, -0.111, 0.989, 192.0, 0.0, 0.0, 0.0, 0.0, 0.0, 0.0, 0.0, 0.0, 0.0, 1.645920796955911E9, 0.0, 2022-02-27 11:13:16.955
192.0, -2876.2001247644575, -5831.994811534263, -1917.8020260098012, -10928.773692700111, -1012.7351895255077, 444.9338251273424, -5314.060189015889, -2289.3774258348258, -4732.199577355334, -7861.399097609413, -4383.668826063732, -3524.825397113013, -4471.667643984276, -3536.895339118879, -10376.663252909571, -14701.994025944952, 0.015, -0.111, 0.989, 192.0, 0.0, 0.0, 0.0, 0.0, 0.0, 0.0, 0.0, 0.0, 0.0, 1.645920796963365E9, 0.0, 2022-02-27 11:13:16.963
194.0, -3354.9521392526794, -6199.032807234861, -2218.0753610223965, -11231.84099576962, -1417.5699851000293, 103.66739078371415, -5379.461393292117, -2356.1197347783727, -3653.2585207532074, -8025.349143189091, -4787.587200115586, -3580.9059239513786, -4963.607187701129, -3944.7252684504115, -10389.940189116025, -14568.777628991322, 0.014499999999999999, -0.1125, 0.9884999999999999, 192.0, 0.0, 56.0, 126.0, 56.0, 15.0, 112.0, 0.0, 0.0, 0.0, 1.645920796971475E9, 0.0, 2022-02-27 11:13:16.971
196.0, -2677.761337490241, -5656.958300704754, -1748.9345966499563, -10724.925783267712, -808.6190591596436, 618.3386586116146, -5097.896468388613, -2064.809449292356, -3234.4985883830295, -7350.661736805647, -4422.896137582796, -3390.9160960812687, -4601.2407065916905, -3566.6902144778032, -10137.700752937884, -13999.277532014554, 0.014499999999999999, -0.1125, 0.9884999999999999, 192.0, 0.0, 0.0, 0.0, 0.0, 0.0, 0.0, 0.0, 0.0, 0.0, 1.645920796979592E9, 0.0, 2022-02-27 11:13:16.979
198.0, -3343.6645083027493, -6179.095051180727, -2263.2258848221168, -11291.721319165388, -1442.2463109786881, 72.24083807955243, -5515.896441447311, -2536.9676991662623, -5202.010894061434, -8313.083149562259, -4629.314497627556, -3639.2216252352746, -4717.246260314734, -3773.399147200483, -10567.033060435422, -15144.580917904488, 0.014499999999999999, -0.1125, 0.9884999999999999, 192.0, 0.0, 0.0, 0.0, 0.0, 0.0, 0.0, 0.0, 0.0, 0.0, 1.645920796986127E9, 0.0, 2022-02-27 11:13:16.986
200.0, -2957.6722333040516, -5846.63520415249, -1936.5998430967145, -10929.488948522681, -1072.7272716435518, 404.432464174326, -5145.528035822873, -2135.887996660232, -2564.035661701639, -7379.875466808733, -4632.53314882912, -3417.0452853495226, -4864.119573130557, -3758.1552574819634, -10116.511299194253, -13889.284597549988, 0.014499999999999999, -0.1125, 0.9884999999999999, 192.0, 0.0, 0.0, 0.0, 0.0, 0.0, 0.0, 0.0, 0.0, 0.0, 1.645920796994068E9, 0.0, 2022-02-27 11:13:16.994
202.0, -2840.213816191413, -5775.288435851149, -1914.6280782971476, -10922.559907741537, -1003.7050847655637, 435.43433373383687, -5313.81431982688, -2318.926432004742, -4747.935205451871, -7821.791806434609, -4390.374349400324, -3485.7545478051366, -4491.583048293955, -3552.2062840707645, -10373.66811915256, -14710.510040582425, 0.014499999999999999, -0.1125, 0.9884999999999999, 192.0, 0.0, 0.0, 0.0, 0.0, 0.0, 0.0, 0.0, 0.0, 0.0, 1.645920797002038E9, 0.0, 2022-02-27 11:13:17.002
204.0, -3300.056254870445, -6135.129169837138, -2212.6215353753014, -11243.50860637529, -1419.447531634275, 92.60327727833716, -5368.866666420301, -2355.2033132557053, -3675.140878574953, -8005.769015046241, -4788.391862915977, -3576.27911284913, -4974.023100617302, -3941.6407277155795, -10383.636997179628, -14589.542399590302, 0.01325, -0.10925, 0.99025, 192.0, 0.0, 48.0, 126.0, 88.0, 15.5, 0.0, 0.0, 0.0, 0.0, 1.645920797015746E9, 0.0, 2022-02-27 11:13:17.015
206.0, -2605.3416854550464, -5585.3209597254945, -1738.3622215225962, -10729.999629259066, -809.7813498713195, 627.9275569829413, -5066.492267428907, -2017.7366754694792, -3194.86894546377, -7318.788149212379, -4410.4685676656445, -3400.996732830612, -4603.967619415238, -3543.0644205885437, -10120.802834129672, -13987.542866175518, 0.01325, -0.10925, 0.99025, 192.0, 0.0, 0.0, 0.0, 0.0, 0.0, 0.0, 0.0, 0.0, 0.0, 1.645920797023749E9, 0.0, 2022-02-27 11:13:17.023
208.0, -3267.221542265599, -6133.609251214177, -2247.534960214491, -11283.495877205834, -1433.1715027298335, 65.40120427622847, -5480.2454090410965, -2501.1155010599496, -5177.066347249312, -8309.104539049213, -4611.477805552221, -3639.5792531465595, -4708.104396832514, -3796.399092244994, -10549.576348015828, -15136.601345133942, 0.01325, -0.10925, 0.99025, 192.0, 0.0, 0.0, 0.0, 0.0, 0.0, 0.0, 0.0, 0.0, 0.0, 1.645920797031756E9, 0.0, 2022-02-27 11:13:17.031
210.0, -2896.271991285323, -5816.393293904459, -1939.9079012761, -10939.949564927765, -1086.7194636725742, 393.1001297354853, -5167.075117477789, -2099.119377031252, -2518.169882079349, -7403.009522319976, -4617.289259110601, -3417.8275964054583, -4857.615215494063, -3770.582827399114, -10112.063302047647, -13885.79772541496, 0.01325, -0.10925, 0.99025, 192.0, 0.0, 0.0, 0.0, 0.0, 0.0, 0.0, 0.0, 0.0, 0.0, 1.645920797038297E9, 0.0, 2022-02-27 11:13:17.038
212.0, -2766.967149611372, -5730.51789170717, -1909.71069451698, -10915.362646026928, -1003.3251051098234, 455.9979386327194, -5293.09425271681, -2285.4882222996025, -4685.640893654931, -7833.571175762556, -4375.063404448439, -3502.0713212575106, -4490.5325163045545, -3551.3569177814625, -10369.086011539222, -14688.448868805037, 0.01325, -0.10925, 0.99025, 192.0, 0.0, 0.0, 0.0, 0.0, 0.0, 0.0, 0.0, 0.0, 0.0, 1.645920797046384E9, 0.0, 2022-02-27 11:13:17.046
214.0, -3260.8289433513814, -6121.695771419499, -2226.770189615511, -11249.565929122678, -1433.2609097076547, 94.43612032367234, -5383.082375893877, -2367.0944413059287, -3711.5518702926483, -8050.360745234579, -4776.545438354664, -3590.0477874335993, -4973.285493050277, -3939.1820358254954, -10399.037349109334, -14607.960237021476, 0.012625, -0.108625, 0.9901249999999999, 192.0, 0.0, 48.0, 126.0, 80.0, 15.0, 120.0, 0.0, 0.0, 0.0, 1.645920797054756E9, 0.0, 2022-02-27 11:13:17.054
216.0, -2575.6138653294884, -5574.949750298232, -1743.4137157694956, -10732.346562426874, -804.9310213245179, 630.2521384062933, -5076.438793711519, -2032.5558820433478, -3127.9254708201256, -7334.412018586639, -4408.166337986749, -3397.6663229067713, -4611.410750318855, -3574.535676781616, -10120.422854473933, -13970.734354345126, 0.012625, -0.108625, 0.9901249999999999, 192.0, 0.0, 0.0, 0.0, 0.0, 0.0, 0.0, 0.0, 0.0, 0.0, 1.645920797063006E9, 0.0, 2022-02-27 11:13:17.063
218.0, -3224.68617256715, -6087.341140191691, -2249.278396282005, -11287.116859807595, -1421.123912468423, 89.36227433231764, -5489.767252179057, -2524.4954257602008, -5173.087736736266, -8304.88005934716, -4599.452567035266, -3646.821218350079, -4702.516460718687, -3773.0191675447427, -10557.242996363997, -15135.170833488803, 0.012625, -0.108625, 0.9901249999999999, 192.0, 0.0, 0.0, 0.0, 0.0, 0.0, 0.0, 0.0, 0.0, 0.0, 1.645920797069193E9, 0.0, 2022-02-27 11:13:17.069
220.0, -2881.7657091338288, -5804.3233518985935, -1953.7883345828457, -10954.232329634706, -1088.9993416070154, 391.9601907682646, -5182.430765918585, -2114.027990582942, -2524.0260391266393, -7423.28255454094, -4621.4913870681985, -3433.25030007962, -4866.332395831632, -3770.336958210106, -10121.741607396794, -13902.159202356244, 0.012625, -0.108625, 0.9901249999999999, 192.0, 0.0, 0.0, 0.0, 0.0, 0.0, 0.0, 0.0, 0.0, 0.0, 1.645920797075957E9, 0.0, 2022-02-27 11:13:17.075
222.0, -2734.0206782842492, -5702.801728582589, -1904.6368485256255, -10916.770805927612, -983.9461426670722, 453.38278453144846, -5251.22943535202, -2288.1257281453286, -4646.033602480126, -7815.68978019831, -4368.223770645114, -3494.6505420983485, -4487.760899992097, -3549.501722991672, -10354.847950321193, -14668.42170577308, 0.012625, -0.108625, 0.9901249999999999, 192.0, 0.0, 0.0, 0.0, 0.0, 0.0, 0.0, 0.0, 0.0, 0.0, 1.645920797084049E9, 0.0, 2022-02-27 11:13:17.084
224.0, -3239.4383239076524, -6081.216762210937, -2228.737143127578, -11258.953661793908, -1425.3707439149314, 83.2155446071082, -5357.646090703737, -2364.6357494158447, -3717.3409721065727, -8057.826227882651, -4772.65623481944, -3596.8650694924677, -4966.5799697136845, -3944.546454494769, -10383.324072757254, -14617.347969692704, 0.013312500000000001, -0.1083125, 0.9870625, 192.0, 0.0, 56.0, 126.0, 80.0, 15.0, 96.0, 0.0, 0.0, 0.0, 1.645920797091085E9, 0.0, 2022-02-27 11:13:17.091
226.0, -2551.809257484586, -5536.415342857283, -1747.8393611716465, -10734.31351593894, -802.1147015231493, 627.4581703493799, -5071.141430275611, -2027.3479255852612, -3088.8322697677936, -7324.7337132374905, -4399.9632477716505, -3396.3028664949975, -4605.4651862937435, -3576.0779471490323, -10111.862136347549, -13962.151284474288, 0.013312500000000001, -0.1083125, 0.9870625, 192.0, 0.0, 0.0, 0.0, 0.0, 0.0, 0.0, 0.0, 0.0, 0.0, 1.645920797098585E9, 0.0, 2022-02-27 11:13:17.098
228.0, -3193.974875685558, -6041.229491380393, -2251.6700329387227, -11280.56779868219, -1403.3766273709093, 90.97159993309974, -5474.456307227172, -2515.4206175113463, -5169.377347156686, -8311.674989661573, -4584.074566850015, -3631.867901309479, -4685.618541910475, -3765.5089814077596, -10546.46945553654, -15132.019237520604, 0.013312500000000001, -0.1083125, 0.9870625, 192.0, 0.0, 0.0, 0.0, 0.0, 0.0, 0.0, 0.0, 0.0, 0.0, 1.645920797106657E9, 0.0, 2022-02-27 11:13:17.106
230.0, -2874.389633463578, -5783.469174321792, -1974.709567393013, -10962.256605894161, -1096.1295480882584, 382.19247844129546, -5171.92544602459, -2112.08338881533, -2519.3098210465696, -7434.190205835129, -4619.5467853005875, -3425.0472098645223, -4864.007814408281, -3777.0201298022425, -10118.321790495133, -13907.255400092054, 0.013312500000000001, -0.1083125, 0.9870625, 192.0, 0.0, 0.0, 0.0, 0.0, 0.0, 0.0, 0.0, 0.0, 0.0, 1.645920797113766E9, 0.0, 2022-02-27 11:13:17.113
232.0, -2710.8642710285512, -5671.285768900606, -1917.198528909508, -10910.020579102109, -973.7537471954522, 460.04360437913, -5272.195371651098, -2273.083004126907, -4601.777148458618, -7799.037730579106, -4360.2218461301145, -3473.9751784771897, -4482.999978423117, -3550.7534206811692, -10350.645822363595, -14646.002906084408, 0.013312500000000001, -0.1083125, 0.9870625, 192.0, 0.0, 0.0, 0.0, 0.0, 0.0, 0.0, 0.0, 0.0, 0.0, 1.645920797121202E9, 0.0, 2022-02-27 11:13:17.121
234.0, -3230.5199778699853, -6066.062279470239, -2248.272567781516, -11260.920615305975, -1433.6632411078504, 82.07560563988753, -5376.466259535106, -2364.6133976713895, -3720.201995396852, -8050.673669656953, -4771.538647596675, -3581.4870693072166, -4967.094059836157, -3943.9206056500207, -10392.108308328188, -14612.430585912536, 0.014656250000000001, -0.10915625000000001, 0.98653125, 192.0, 0.0, 64.0, 126.0, 72.0, 15.0, 104.0, 0.0, 0.0, 0.0, 1.645920797129365E9, 0.0, 2022-02-27 11:13:17.129
236.0, -2553.5526935521, -5527.184072397241, -1763.2173613568975, -10737.465111907139, -808.2390795039034, 625.1782924149386, -5088.866363628669, -2032.3100128543394, -3100.9245635181146, -7329.628745273202, -4410.133291498815, -3379.449651175696, -4617.848052721984, -3573.4851447922165, -10117.830052117117, -13962.844188552403, 0.014656250000000001, -0.10915625000000001, 0.98653125, 192.0, 0.0, 0.0, 0.0, 0.0, 0.0, 0.0, 0.0, 0.0, 0.0, 1.645920797143232E9, 0.0, 2022-02-27 11:13:17.143
238.0, -3193.0137506739798, -6039.866034968619, -2261.661262710245, -11286.267493518293, -1425.7954270595822, 80.95801841712218, -5511.3590373228835, -2537.615899755466, -5179.413280417119, -8311.607934428208, -4591.048311120071, -3627.4422559073278, -4698.984885094748, -3771.9909872997987, -10559.433467320618, -15139.618830635409, 0.014656250000000001, -0.10915625000000001, 0.98653125, 192.0, 0.0, 0.0, 0.0, 0.0, 0.0, 0.0, 0.0, 0.0, 0.0, 1.645920797150765E9, 0.0, 2022-02-27 11:13:17.150
240.0, -2872.243865995868, -5776.026043418175, -1972.4296894585718, -10966.838713507499, -1092.3297515308561, 377.1186324499408, -5180.754385084437, -2108.350647491294, -2513.87834714393, -7423.439016752126, -4620.709076012263, -3425.449541264718, -4872.769698234761, -3759.3398999380947, -10124.379113242521, -13903.567362256928, 0.014656250000000001, -0.10915625000000001, 0.98653125, 192.0, 0.0, 0.0, 0.0, 0.0, 0.0, 0.0, 0.0, 0.0, 0.0, 1.645920797158911E9, 0.0, 2022-02-27 11:13:17.158
242.0, -2712.25007918478, -5662.859161240955, -1916.3491626202062, -10914.960314626733, -980.6380844876868, 457.3166915555825, -5283.460650856573, -2274.692329727689, -4618.29508761109, -7810.370065017947, -4369.542523567978, -3494.1364519758768, -4487.559734291999, -3556.341356794996, -10354.311508454264, -14657.894034134632, 0.014656250000000001, -0.10915625000000001, 0.98653125, 192.0, 0.0, 0.0, 0.0, 0.0, 0.0, 0.0, 0.0, 0.0, 0.0, 1.645920797166752E9, 0.0, 2022-02-27 11:13:17.166
244.0, -3236.6890593396497, -6061.39076487908, -2257.705003941656, -11263.736935107343, -1436.0995812534788, 71.27971306797423, -5375.9968729015445, -2384.8417264034424, -3747.337013165595, -8069.873818144062, -4780.591104101075, -3590.763043256169, -4969.351586026142, -3958.44923954597, -10396.936285130536, -14634.692923390023, 0.015328125000000001, -0.108578125, 0.987265625, 192.0, 0.0, 64.0, 126.0, 80.0, 15.0, 112.0, 0.0, 0.0, 0.0, 1.645920797173447E9, 0.0, 2022-02-27 11:13:17.173
246.0, -2549.5517312946, -5515.561165280481, -1779.6011900426377, -10738.426236918716, -825.6287366901323, 604.4582253048688, -5102.590334724228, -2054.6841090541016, -3095.940124504581, -7312.619067742714, -4418.1575677582705, -3375.7616133405704, -4624.86650048095, -3595.2557438916856, -10120.020523073736, -13971.315499700964, 0.015328125000000001, -0.108578125, 0.987265625, 192.0, 0.0, 0.0, 0.0, 0.0, 0.0, 0.0, 0.0, 0.0, 0.0, 1.645920797181426E9, 0.0, 2022-02-27 11:13:17.181
248.0, -3202.043855433924, -6039.016668679317, -2279.408547807759, -11287.206266785415, -1427.740028827194, 67.83754442185693, -5504.832327941934, -2509.9667918642513, -5203.642571406672, -8318.112292064701, -4597.843241434484, -3630.0574100085987, -4707.769120665685, -3792.778109643234, -10561.735696999514, -15146.369057460912, 0.015328125000000001, -0.108578125, 0.987265625, 192.0, 0.0, 0.0, 0.0, 0.0, 0.0, 0.0, 0.0, 0.0, 0.0, 1.645920797189439E9, 0.0, 2022-02-27 11:13:17.189
