%OpenBCI Raw EEG Data
%Number of channels = 16
%Sample Rate = 125 Hz
%Board = OpenBCI_GUI$BoardCytonSerialDaisy
Sample Index, EXG Channel 0, EXG Channel 1, EXG Channel 2, EXG Channel 3, EXG Channel 4, EXG Channel 5, EXG Channel 6, EXG Channel 7, EXG Channel 8, EXG Channel 9, EXG Channel 10, EXG Channel 11, EXG Channel 12, EXG Channel 13, EXG Channel 14, EXG Channel 15, Accel Channel 0, Accel Channel 1, Accel Channel 2, Other, Other, Other, Other, Other, Other, Other, Analog Channel 0, Analog Channel 1, Analog Channel 2, Timestamp, Other, Timestamp (Formatted)
0.0, -3378.6896918642155, -6353.393954443211, -1669.85412476708, -10982.574341604035, -1298.5692976199743, 450.1194298409736, -5228.631821707705, -2586.7673858126864, 0.0, 0.0, 0.0, 0.0, 0.0, 0.0, 0.0, 0.0, 0.0, 0.0, 0.0, 192.0, 0.0, 0.0, 0.0, 0.0, 0.0, 0.0, 0.0, 0.0, 0.0, 1.645920577001336E9, 0.0, 2022-02-27 11:09:37.001
240.0, -3465.481515584173, -6407.6863417251525, -1733.176616808965, -11029.08832181553, -1365.93745540827, 415.6306881464348, -5264.036984924911, -2607.6662668783983, -4147.1426662376725, -7981.137392656493, -4532.889072047362, -3273.2788650129874, -4850.194436334901, -3938.4444282584705, -11032.642249183924, -14453.733200279858, 0.0, 0.0, 0.0, 192.0, 0.0, 0.0, 0.0, 0.0, 0.0, 0.0, 0.0, 0.0, 0.0, 1.645920577001339E9, 0.0, 2022-02-27 11:09:37.001
0.0, -1790.2853238922744, -3289.617990209817, -902.3622754052014, -5560.1975989577295, -788.6365996165991, 51.118439569287254, -2681.1364509029927, -1422.6438310913838, -1958.1245730071753, -3868.4834681133593, -2194.6507328332345, -1546.606605840517, -2341.6805078602442, -1880.4746127694384, -5426.623574092815, -7153.362888498651, 0.009000000000000001, -0.055, 0.504, 192.0, 0.0, 72.0, 126.0, 72.0, 15.5, 64.0, 0.0, 0.0, 0.0, 1.645920577113728E9, 0.0, 2022-02-27 11:09:37.113
2.0, -3378.8238023309473, -6388.016806604482, -1615.3158682961307, -10939.681343994302, -1368.4408507872643, 300.5639076905141, -5184.442422919563, -2682.4775555703113, -3917.769064637311, -7927.739075152765, -4574.262151034135, -3315.456606800152, -4877.463564570376, -3902.234602240873, -10916.502584994148, -14364.8403125811, 0.009000000000000001, -0.055, 0.504, 192.0, 0.0, 0.0, 0.0, 0.0, 0.0, 0.0, 0.0, 0.0, 0.0, 1.645920577120809E9, 0.0, 2022-02-27 11:09:37.120
4.0, -3469.9518644752343, -6488.465546186632, -1714.5576136776942, -11050.411886025893, -1470.7447851592046, 184.53600222301512, -5278.766784520958, -2794.2139261023913, -3948.100381863163, -7845.574062535055, -4468.717213716175, -3195.852422219804, -4765.749545782751, -3773.622664645036, -10818.177261135252, -14407.442737512916, 0.009000000000000001, -0.055, 0.504, 192.0, 0.0, 0.0, 0.0, 0.0, 0.0, 0.0, 0.0, 0.0, 0.0, 1.645920577128137E9, 0.0, 2022-02-27 11:09:37.128
6.0, -3500.8866788013793, -6508.269191774034, -1737.4457999999286, -11058.838493685544, -1498.3491895615089, 175.79647014099004, -5304.247773200009, -2763.748498409808, -4047.2974237558155, -8024.8350530666185, -4645.58656759102, -3406.517613711073, -4959.293301021255, -3986.6571410485676, -11000.343978446004, -14466.876026019578, 0.009000000000000001, -0.055, 0.504, 192.0, 0.0, 0.0, 0.0, 0.0, 0.0, 0.0, 0.0, 0.0, 0.0, 1.645920577136226E9, 0.0, 2022-02-27 11:09:37.136
8.0, -3359.4895433771067, -6386.161611814691, -1604.765844913226, -10935.434512547794, -1350.0453651005466, 298.57460243399174, -5167.589207600261, -2663.09859312756, -3864.5272093447697, -7813.588716219511, -4469.968911405672, -3176.5181632659633, -4764.1849236708795, -3791.101728809086, -10806.934333674233, -14320.494451581772, 0.018000000000000002, -0.10400000000000001, 0.992, 192.0, 0.0, 72.0, 126.0, 96.0, 15.5, 0.0, 0.0, 0.0, 0.0, 1.645920577142694E9, 0.0, 2022-02-27 11:09:37.142
10.0, -3563.471563276239, -6572.798678016506, -1795.0238937167996, -11123.703256094845, -1548.3276901635754, 93.63145752328128, -5333.1485787807205, -2849.8474180516505, -4069.4032990221144, -7995.062529452149, -4579.33599702549, -3316.708304489649, -4888.058291442191, -3929.168454309518, -10933.467559035726, -14485.115049495107, 0.018000000000000002, -0.10400000000000001, 0.992, 192.0, 0.0, 0.0, 0.0, 0.0, 0.0, 0.0, 0.0, 0.0, 0.0, 1.645920577150629E9, 0.0, 2022-02-27 11:09:37.150
12.0, -3373.034700517023, -6385.826335647862, -1610.823167660614, -10946.699791753268, -1359.9695396387028, 279.06152952450867, -5159.721393551993, -2679.035386924194, -3922.753503650845, -7911.176432511382, -4575.1785725568025, -3311.1427201202778, -4881.196305894412, -3922.977021095398, -10915.228535560196, -14364.37092594754, 0.018000000000000002, -0.10400000000000001, 0.992, 192.0, 0.0, 0.0, 0.0, 0.0, 0.0, 0.0, 0.0, 0.0, 0.0, 1.645920577158704E9, 0.0, 2022-02-27 11:09:37.158
14.0, -3470.153030175332, -6491.348921221366, -1707.6062211520937, -11048.37787728046, -1466.2744362681433, 181.25029578808497, -5279.459688599073, -2757.937044851428, -3970.6756437630233, -7846.736353246732, -4475.98153066415, -3190.309189594888, -4770.979853985293, -3811.531223241237, -10817.752577990601, -14398.457336241883, 0.018000000000000002, -0.10400000000000001, 0.992, 192.0, 0.0, 0.0, 0.0, 0.0, 0.0, 0.0, 0.0, 0.0, 0.0, 1.645920577165295E9, 0.0, 2022-02-27 11:09:37.165
16.0, -3507.8157195825247, -6510.90669761976, -1737.334041277652, -11067.533322278658, -1502.4842622857407, 160.1502490222751, -5296.782290551936, -2774.4326322594443, -4059.479124483958, -8034.692172371409, -4651.107448471481, -3399.320351996464, -4968.479867992386, -4003.778577301333, -11006.535411660125, -14460.304613149718, 0.018000000000000002, -0.10400000000000001, 0.992, 192.0, 0.0, 0.0, 0.0, 0.0, 0.0, 0.0, 0.0, 0.0, 0.0, 1.645920577173738E9, 0.0, 2022-02-27 11:09:37.173
18.0, -3359.914226521758, -6382.697091424119, -1596.3839407424857, -10944.799893474566, -1348.6595569443175, 299.8039483790336, -5176.21698096001, -2667.1442588739706, -3890.164660235007, -7820.830681423031, -4475.713309730686, -3181.435547046131, -4771.069260963114, -3804.46807199336, -10811.18116512074, -14323.623695805514, 0.016, -0.112, 0.988, 192.0, 0.0, 64.0, 126.0, 64.0, 15.0, 112.0, 0.0, 0.0, 0.0, 1.64592057718138E9, 0.0, 2022-02-27 11:09:37.181
20.0, -3566.3549383109735, -6576.844343762916, -1792.296980893252, -11135.460273678336, -1562.3198821925978, 92.84914646734553, -5356.193227314142, -2847.478133139388, -4082.859049184209, -7999.510526598755, -4582.778165671607, -3316.5071387895514, -4884.504364073797, -3927.6708874310125, -10936.887375937387, -14485.360918684117, 0.016, -0.112, 0.988, 192.0, 0.0, 0.0, 0.0, 0.0, 0.0, 0.0, 0.0, 0.0, 0.0, 1.645920577188425E9, 0.0, 2022-02-27 11:09:37.188
22.0, -3376.163944740766, -6385.446355992121, -1608.2080135593433, -10955.864006979944, -1366.160972852823, 293.2325355091734, -5182.810745574325, -2664.618511750521, -3935.426942757004, -7921.458234960823, -4580.833563903995, -3314.6295922553054, -4881.39747159451, -3925.927451363498, -10928.438416533281, -14363.476856169327, 0.016, -0.112, 0.988, 192.0, 0.0, 0.0, 0.0, 0.0, 0.0, 0.0, 0.0, 0.0, 0.0, 1.645920577202877E9, 0.0, 2022-02-27 11:09:37.202
24.0, -3467.3367103739633, -6481.737671105585, -1700.2524972262977, -11053.205854082806, -1468.95664560278, 188.35815052487263, -5279.079708943333, -2783.5297922527543, -3976.8894287215985, -7848.658603269888, -4472.114678873382, -3176.9875498995248, -4753.433734587877, -3805.160976071474, -10818.624296024358, -14402.346539777105, 0.016, -0.112, 0.988, 192.0, 0.0, 0.0, 0.0, 0.0, 0.0, 0.0, 0.0, 0.0, 0.0, 1.645920577211528E9, 0.0, 2022-02-27 11:09:37.211
26.0, -3517.471673187217, -6520.361485524355, -1738.1163523335879, -11076.071688660586, -1514.4871490582407, 158.8761995883226, -5303.063130743877, -2772.6444927030198, -4064.7094326865, -8039.721314873853, -4657.008309007681, -3396.459328706185, -4956.8346091311705, -4003.108024967674, -11004.903734314888, -14466.67486031948, 0.014, -0.111, 0.989, 192.0, 0.0, 48.0, 126.0, 72.0, 15.0, 120.0, 0.0, 0.0, 0.0, 1.645920577218118E9, 0.0, 2022-02-27 11:09:37.218
28.0, -3378.4661744196624, -6386.072204836871, -1599.021446588212, -10945.582204530503, -1347.6537284438286, 310.89041362886593, -5182.050786262845, -2660.1481628594593, -3907.1743377654957, -7825.9045274143855, -4487.135051147348, -3187.5822767713403, -4765.906007993938, -3806.3232667831503, -10815.137423889331, -14329.278687152708, 0.014, -0.111, 0.989, 192.0, 0.0, 0.0, 0.0, 0.0, 0.0, 0.0, 0.0, 0.0, 0.0, 1.645920577225512E9, 0.0, 2022-02-27 11:09:37.225
30.0, -3587.991426943711, -6587.617884590374, -1796.7449780398583, -11141.025858047708, -1564.1303734934777, 105.67904778469179, -5357.221407559086, -2829.574385830687, -4092.5597062778124, -7991.016863705739, -4594.043444877082, -3319.8599004578473, -4876.949474447903, -3921.814730383722, -10936.619155003924, -14480.734107581868, 0.014, -0.111, 0.989, 192.0, 0.0, 0.0, 0.0, 0.0, 0.0, 0.0, 0.0, 0.0, 0.0, 1.645920577233623E9, 0.0, 2022-02-27 11:09:37.233
32.0, -3436.15602685881, -6442.867987497805, -1617.662801463938, -10968.202169919274, -1368.9102374208258, 284.04596853804213, -5176.038167004367, -2669.1335641304927, -3957.577521512213, -7952.594214987066, -4607.208622361258, -3339.8870634898026, -4886.49366933032, -3937.550358480258, -10929.757169456145, -14366.69550737089, 0.014, -0.111, 0.989, 192.0, 0.0, 0.0, 0.0, 0.0, 0.0, 0.0, 0.0, 0.0, 0.0, 1.645920577240583E9, 0.0, 2022-02-27 11:09:37.240
34.0, -3550.2616823031526, -6553.665584762763, -1705.3933984510184, -11056.04452562863, -1463.0557850665791, 194.99661862809882, -5285.472307857551, -2776.712510193886, -4018.84365306421, -7883.996711253729, -4508.995057224638, -3209.4422828486304, -4760.60864455803, -3816.6497727215024, -10821.217098381174, -14403.441775255416, 0.014, -0.111, 0.989, 192.0, 0.0, 0.0, 0.0, 0.0, 0.0, 0.0, 0.0, 0.0, 0.0, 1.645920577248129E9, 0.0, 2022-02-27 11:09:37.248
36.0, -3651.693898641336, -6635.227100280178, -1746.565311737694, -11086.979339954774, -1506.4628727987854, 160.93256007821086, -5299.978590009045, -2778.5230014947656, -4091.129194632673, -8073.092469345626, -4692.5699344360755, -3431.0374773785447, -4954.420620729998, -4021.1682344875617, -11008.345902961006, -14465.266700418795, 0.015, -0.1105, 0.9875, 192.0, 0.0, 64.0, 126.0, 72.0, 15.0, 104.0, 0.0, 0.0, 0.0, 1.6459205772552E9, 0.0, 2022-02-27 11:09:37.255
38.0, -3556.27430156163, -6557.510084809075, -1613.728894439804, -10955.439323835293, -1352.3028912905327, 315.07018984200835, -5162.78358254237, -2647.832351664585, -3962.9195884370315, -7878.855810029007, -4540.332202950979, -3237.9184052846917, -4773.192676686368, -3824.1823106029406, -10815.584458778438, -14323.802509761157, 0.015, -0.1105, 0.9875, 192.0, 0.0, 0.0, 0.0, 0.0, 0.0, 0.0, 0.0, 0.0, 0.0, 1.645920577263237E9, 0.0, 2022-02-27 11:09:37.263
40.0, -3831.4466275509153, -6812.677599510861, -1819.3872951730843, -11149.072486051618, -1570.7241381077931, 116.94432699016656, -5363.926930895678, -2825.1040369396255, -4179.798564886876, -8047.92440508895, -4659.578759620043, -3370.8218778159476, -4887.96888446437, -3912.270535501306, -10936.97678291521, -14476.91195928001, 0.015, -0.1105, 0.9875, 192.0, 0.0, 0.0, 0.0, 0.0, 0.0, 0.0, 0.0, 0.0, 0.0, 1.645920577270378E9, 0.0, 2022-02-27 11:09:37.270
42.0, -3695.4586142848275, -6684.959731693236, -1644.7754674882256, -10976.919350256843, -1369.156106609834, 300.921535601799, -5164.035280231868, -2642.8926161399622, -4058.18272330555, -8026.354971689579, -4686.02087331067, -3407.9704771006677, -4905.045617228225, -3930.867186888121, -10937.06618989303, -14358.805341578167, 0.015, -0.1105, 0.9875, 192.0, 0.0, 0.0, 0.0, 0.0, 0.0, 0.0, 0.0, 0.0, 0.0, 1.645920577277799E9, 0.0, 2022-02-27 11:09:37.277
44.0, -3791.012321831265, -6774.210247303277, -1727.3875149950404, -11063.889987932444, -1452.9527965727802, 212.87801419234447, -5261.488886057006, -2740.7262016208415, -4112.095130931751, -7950.71666845282, -4577.883133635894, -3269.5461236889514, -4774.131449953491, -3802.858746392578, -10813.57280177746, -14391.438888482917, 0.015, -0.1105, 0.9875, 192.0, 0.0, 0.0, 0.0, 0.0, 0.0, 0.0, 0.0, 0.0, 0.0, 1.645920577285786E9, 0.0, 2022-02-27 11:09:37.285
46.0, -3835.626403764058, -6808.006084919702, -1769.855829460124, -11095.76357552571, -1492.4930325142184, 183.2619527890626, -5267.412098337662, -2739.3627452090677, -4186.526439967924, -8127.898946750039, -4761.167438169413, -3483.45231812624, -4971.69851919395, -4002.4374726340143, -11000.656902868379, -14448.48054033286, 0.014499999999999999, -0.10725000000000001, 0.98675, 192.0, 0.0, 56.0, 126.0, 96.0, 15.0, 104.0, 0.0, 0.0, 0.0, 1.645920577293872E9, 0.0, 2022-02-27 11:09:37.293
48.0, -3671.25167503973, -6656.08127785698, -1618.3333537975973, -10953.539425556592, -1325.8831293443598, 337.2878238305836, -5126.640811758139, -2614.4164937039013, -4017.837824563721, -7910.751749366731, -4575.312683023534, -3269.814344622415, -4770.532819096186, -3796.4884992228153, -10803.179240605741, -14307.441032819872, 0.014499999999999999, -0.10725000000000001, 0.98675, 192.0, 0.0, 0.0, 0.0, 0.0, 0.0, 0.0, 0.0, 0.0, 0.0, 1.645920577300445E9, 0.0, 2022-02-27 11:09:37.300
50.0, -3872.90911351551, -6839.499692857229, -1824.4387894199838, -11145.719724383322, -1550.8534372870251, 133.66343184273623, -5333.349744480818, -2784.960303897894, -4206.486547766513, -8062.140114562526, -4670.508762658687, -3381.5954186434055, -4881.017491938769, -3904.112148775119, -10916.167308827318, -14463.143284695541, 0.014499999999999999, -0.10725000000000001, 0.98675, 192.0, 0.0, 0.0, 0.0, 0.0, 0.0, 0.0, 0.0, 0.0, 0.0, 1.645920577308493E9, 0.0, 2022-02-27 11:09:37.308
52.0, -3675.476154741783, -6652.907330144326, -1642.2273686203205, -10967.710431541256, -1355.1415628363566, 317.6182887099134, -5153.462905104507, -2639.1151713270156, -4058.3391855167374, -8007.4900993693, -4673.526248160154, -3393.3747879713524, -4892.662750799984, -3916.450311714448, -10927.611401988435, -14345.103722227064, 0.014499999999999999, -0.10725000000000001, 0.98675, 192.0, 0.0, 0.0, 0.0, 0.0, 0.0, 0.0, 0.0, 0.0, 0.0, 1.645920577323458E9, 0.0, 2022-02-27 11:09:37.323
54.0, -3744.140713708486, -6719.940211765792, -1719.8102736246913, -11049.718981947779, -1439.8546743219704, 224.88090096484436, -5250.111848129255, -2727.2704514587467, -4097.767662735899, -7926.286211763169, -4544.511979164121, -3245.003908277024, -4752.673775276396, -3794.298028266195, -10807.157851118785, -14385.158048290974, 0.014499999999999999, -0.10725000000000001, 0.98675, 192.0, 0.0, 0.0, 0.0, 0.0, 0.0, 0.0, 0.0, 0.0, 0.0, 1.645920577330167E9, 0.0, 2022-02-27 11:09:37.330
56.0, -3793.8733451215444, -6754.607767415973, -1774.9296754514785, -11090.354453367527, -1503.5347942751403, 172.98015033962136, -5269.647272783193, -2727.7621898367634, -4173.428317717114, -8104.295504605235, -4735.708801234818, -3460.3629661039076, -4967.071708091701, -3992.870926007143, -10998.175859233841, -14448.972278710877, 0.01325, -0.106625, 0.988375, 192.0, 0.0, 48.0, 126.0, 88.0, 15.0, 120.0, 0.0, 0.0, 0.0, 1.645920577338131E9, 0.0, 2022-02-27 11:09:37.338
58.0, -3606.2528021636967, -6578.6771868082515, -1614.7347229402928, -10937.759093971144, -1321.5468909200301, 343.88158844489914, -5128.831282714758, -2616.0928745380493, -4014.261545450872, -7893.51855439169, -4564.069755562515, -3257.1409055162558, -4778.355929655544, -3787.7713188852454, -10810.130633131343, -14304.624713018504, 0.01325, -0.106625, 0.988375, 192.0, 0.0, 0.0, 0.0, 0.0, 0.0, 0.0, 0.0, 0.0, 0.0, 1.64592057734619E9, 0.0, 2022-02-27 11:09:37.346
60.0, -3802.5681737146588, -6768.108221066978, -1820.9966207738664, -11135.572032400612, -1540.3034139041204, 130.1318562187977, -5341.128151551265, -2803.780472729263, -4177.563390441345, -8043.096428286604, -4643.999593734693, -3354.6392148303053, -4871.115669145068, -3917.456140214937, -10915.228535560196, -14459.701116049424, 0.01325, -0.106625, 0.988375, 192.0, 0.0, 0.0, 0.0, 0.0, 0.0, 0.0, 0.0, 0.0, 0.0, 1.64592057735275E9, 0.0, 2022-02-27 11:09:37.352
62.0, -3612.980677244744, -6585.963855500681, -1653.0456129366892, -10966.995175718686, -1361.355347794932, 313.08088458548605, -5175.322911181797, -2622.261956007714, -4032.2323479929387, -8000.873983010529, -4657.790620063618, -3381.416604687763, -4898.585963080641, -3918.461968715426, -10939.658992249846, -14347.629469350513, 0.01325, -0.106625, 0.988375, 192.0, 0.0, 0.0, 0.0, 0.0, 0.0, 0.0, 0.0, 0.0, 0.0, 1.645920577360755E9, 0.0, 2022-02-27 11:09:37.360
64.0, -3660.6792999123695, -6642.2455480391445, -1723.7441806488255, -11039.23601379824, -1438.1782934878224, 227.31724111047282, -5219.467606481029, -2756.7300506508413, -4064.3071012863043, -7917.077293047583, -4526.697638833241, -3234.7668093164934, -4762.352080625544, -3798.3213422681506, -10814.75744423359, -14381.693527900403, 0.01325, -0.106625, 0.988375, 192.0, 0.0, 0.0, 0.0, 0.0, 0.0, 0.0, 0.0, 0.0, 0.0, 1.645920577368813E9, 0.0, 2022-02-27 11:09:37.368
66.0, -3727.823940256112, -6706.1715371813225, -1788.5418878247606, -11093.863677247009, -1500.2043843512995, 158.38446121030586, -5242.556958503361, -2719.9390792774057, -4130.512968362924, -8109.905792463517, -4712.887670145949, -3444.9179106852903, -4962.087269078168, -4011.9816675164307, -11000.343978446004, -14452.570909568181, 0.012625, -0.1073125, 0.9901875, 192.0, 0.0, 48.0, 126.0, 80.0, 15.5, 0.0, 0.0, 0.0, 0.0, 1.645920577375971E9, 0.0, 2022-02-27 11:09:37.375
68.0, -3516.4211411978176, -6513.723017421129, -1611.0243333607118, -10935.21099510324, -1313.097931515924, 319.22761431069546, -5118.43772154304, -2616.428150704879, -3969.848629218177, -7899.665284116899, -4538.968746539205, -3249.4295536791747, -4761.592121314064, -3814.3251912981505, -10806.442595296216, -14313.610114289537, 0.012625, -0.1073125, 0.9901875, 192.0, 0.0, 0.0, 0.0, 0.0, 0.0, 0.0, 0.0, 0.0, 0.0, 1.645920577382303E9, 0.0, 2022-02-27 11:09:37.382
70.0, -3714.59170753857, -6691.307627118544, -1814.2240422039083, -11122.988000272275, -1543.6785273168716, 128.70134457365808, -5346.559625453905, -2817.102112424626, -4131.138817207672, -8026.757303089775, -4606.158090371859, -3323.1456068927773, -4854.709488714872, -3898.0548260277305, -10911.562849469525, -14466.33958415265, 0.012625, -0.1073125, 0.9901875, 192.0, 0.0, 0.0, 0.0, 0.0, 0.0, 0.0, 0.0, 0.0, 0.0, 1.645920577390685E9, 0.0, 2022-02-27 11:09:37.390
72.0, -3532.2014727832643, -6514.125348821324, -1644.663708765949, -10951.863044722444, -1347.8772458883818, 313.952602619243, -5159.475524362984, -2609.1414820124487, -3996.7377777979113, -7987.999378204272, -4631.259099395168, -3361.5682556114502, -4891.902791488504, -3922.1276548060964, -10935.501567781159, -14348.098855984075, 0.012625, -0.1073125, 0.9901875, 192.0, 0.0, 0.0, 0.0, 0.0, 0.0, 0.0, 0.0, 0.0, 0.0, 1.645920577398385E9, 0.0, 2022-02-27 11:09:37.398
74.0, -3577.799031472091, -6555.990166186115, -1706.175709506954, -11027.523699703659, -1413.5913745869846, 245.600968074914, -5207.285905752887, -2695.2180499098363, -4024.386885689126, -7885.762499065698, -4490.688978515742, -3208.324695625865, -4730.947879665838, -3763.5643796401478, -10800.47467952665, -14369.489475427805, 0.012625, -0.1073125, 0.9901875, 192.0, 0.0, 0.0, 0.0, 0.0, 0.0, 0.0, 0.0, 0.0, 0.0, 1.645920577405598E9, 0.0, 2022-02-27 11:09:37.405
76.0, -3642.1273520144646, -6615.199937248223, -1774.3932335845511, -11081.950197452332, -1495.0411313821235, 160.91020833375555, -5233.728019443514, -2751.1421145370145, -4095.7113022460107, -8072.041937356226, -4682.869277342472, -3422.2308900631538, -4947.379821226576, -3972.128507152618, -10986.821173050545, -14448.167615910485, 0.0113125, -0.10665625000000001, 0.98909375, 192.0, 0.0, 40.0, 126.0, 88.0, 15.0, 112.0, 0.0, 0.0, 0.0, 1.645920577413132E9, 0.0, 2022-02-27 11:09:37.413
78.0, -3446.0802013969665, -6435.514263572009, -1605.5481559691616, -10920.30238155155, -1301.6985418437175, 341.86993144392153, -5136.117951407189, -2622.485473452267, -3945.462876017437, -7857.509894074189, -4516.348781150435, -3214.650239306717, -4756.875903233994, -3789.1571270414743, -10816.590287278925, -14314.88416372349, 0.0113125, -0.10665625000000001, 0.98909375, 192.0, 0.0, 0.0, 0.0, 0.0, 0.0, 0.0, 0.0, 0.0, 0.0, 1.645920577421064E9, 0.0, 2022-02-27 11:09:37.421
80.0, -3660.835762123557, -6629.750922888627, -1814.6710770930144, -11130.654648620444, -1532.8155795115924, 114.64209731126992, -5323.29145947593, -2790.9505714119164, -4104.830813983776, -8011.759282560263, -4589.662502963842, -3308.3711038078195, -4839.063267596158, -3891.170488735496, -10915.563811727025, -14469.468828376394, 0.0113125, -0.10665625000000001, 0.98909375, 192.0, 0.0, 0.0, 0.0, 0.0, 0.0, 0.0, 0.0, 0.0, 0.0, 1.645920577429013E9, 0.0, 2022-02-27 11:09:37.429
82.0, -3490.090786229466, -6464.571531363908, -1651.5256943137283, -10958.523864570125, -1355.9238738922922, 299.8039483790336, -5140.476541575974, -2634.354249758035, -3985.4724985924363, -7984.847782236074, -4629.538015072109, -3355.7568020530707, -4887.432442597442, -3928.7214194204116, -10940.486006794692, -14358.157140988964, 0.0113125, -0.10665625000000001, 0.98909375, 192.0, 0.0, 0.0, 0.0, 0.0, 0.0, 0.0, 0.0, 0.0, 0.0, 1.645920577435199E9, 0.0, 2022-02-27 11:09:37.435
84.0, -3537.9011676193677, -6520.897927391283, -1718.7150381463812, -11028.797749137611, -1429.572871872529, 222.8021887305008, -5225.346115272774, -2721.5931083670985, -4024.386885689126, -7885.18135370986, -4493.952333206217, -3189.884506450237, -4742.481379804776, -3785.1114612950637, -10803.04513013901, -14382.922873845444, 0.0113125, -0.10665625000000001, 0.98909375, 192.0, 0.0, 0.0, 0.0, 0.0, 0.0, 0.0, 0.0, 0.0, 0.0, 1.645920577450627E9, 0.0, 2022-02-27 11:09:37.450
86.0, -3612.041903977621, -6584.041605477525, -1791.3135041372186, -11088.499258577736, -1504.2724018421652, 170.99084508309903, -5288.623903825749, -2748.5716639246543, -4083.28373232886, -8072.533675734244, -4677.773079606662, -3418.8557766504023, -4944.071763047191, -3984.6231323031348, -10993.571399876048, -14454.448456102427, 0.01165625, -0.108328125, 0.987546875, 192.0, 0.0, 48.0, 126.0, 72.0, 15.0, 104.0, 0.0, 0.0, 0.0, 1.645920577458684E9, 0.0, 2022-02-27 11:09:37.458
88.0, -3410.160948057288, -6387.055681592904, -1615.8746619075134, -10925.935021154288, -1309.454597169709, 350.6094635259466, -5129.390076326141, -2610.4378831908566, -3937.3715445246157, -7863.298995888114, -4513.487757860155, -3225.2226144340775, -4760.027499202192, -3783.4574322053713, -10821.395912336817, -14313.654817778448, 0.01165625, -0.108328125, 0.987546875, 192.0, 0.0, 0.0, 0.0, 0.0, 0.0, 0.0, 0.0, 0.0, 0.0, 1.645920577465211E9, 0.0, 2022-02-27 11:09:37.465
90.0, -3623.5530523721045, -6595.35158817191, -1825.3552109426512, -11126.407817173937, -1538.2247016697768, 132.43408589769436, -5319.469311174073, -2786.770795198774, -4090.928028932575, -7983.506677568756, -4583.649883705364, -3305.912411917736, -4833.944718115892, -3871.255084425817, -10907.897163378855, -14469.714697565401, 0.01165625, -0.108328125, 0.987546875, 192.0, 0.0, 0.0, 0.0, 0.0, 0.0, 0.0, 0.0, 0.0, 0.0, 1.645920577473264E9, 0.0, 2022-02-27 11:09:37.473
92.0, -3459.1336201588656, -6434.84371123835, -1660.3993368624851, -10960.043783193087, -1354.7168796917058, 311.56096596252513, -5150.087791691755, -2622.8207496190967, -3964.8194867157326, -7966.698165738365, -4626.811102248562, -3353.90160726328, -4883.207962895389, -3918.7748931378, -10938.854329449456, -14365.287347470206, 0.01165625, -0.108328125, 0.987546875, 192.0, 0.0, 0.0, 0.0, 0.0, 0.0, 0.0, 0.0, 0.0, 0.0, 1.645920577481326E9, 0.0, 2022-02-27 11:09:37.481
94.0, -3501.6242863684042, -6468.371327921311, -1711.1377967760322, -11022.718074645767, -1415.3571623989537, 241.8011715175118, -5226.061371095344, -2705.7233698038303, -4000.0458359772965, -7855.319423117569, -4479.0884231434375, -3173.7688986979606, -4716.531004492164, -3745.3477079090726, -10803.156888861286, -14389.695452415403, 0.01165625, -0.108328125, 0.987546875, 192.0, 0.0, 0.0, 0.0, 0.0, 0.0, 0.0, 0.0, 0.0, 0.0, 1.645920577488394E9, 0.0, 2022-02-27 11:09:37.488
96.0, -3585.3539210979848, -6554.9619859411705, -1787.8042802577354, -11086.71111902131, -1506.6863902433386, 165.8722956028337, -5295.485889373528, -2745.151847022992, -4050.1807987905504, -8048.907881844984, -4658.282358441635, -3406.1152823108773, -4925.7209808493835, -3977.4929258218917, -10996.030091766132, -14463.52326435128, 0.016, -0.108, 0.992, 192.0, 0.0, 64.0, 126.0, 80.0, 15.5, 0.0, 0.0, 0.0, 0.0, 1.645920577495894E9, 0.0, 2022-02-27 11:09:37.495
98.0, -3379.9637412981683, -6378.338501255334, -1601.8824698784913, -10916.614343716425, -1311.712123359695, 338.18189360879586, -5134.665088017594, -2617.255165249725, -3905.9226400759985, -7853.575987050055, -4486.240981369136, -3197.461747820586, -4740.1791501258795, -3800.601220202592, -10822.46879607067, -14324.897745239467, 0.016, -0.108, 0.992, 192.0, 0.0, 0.0, 0.0, 0.0, 0.0, 0.0, 0.0, 0.0, 0.0, 1.645920577503042E9, 0.0, 2022-02-27 11:09:37.503
100.0, -3595.076929936043, -6578.006634474592, -1814.492263137372, -11122.988000272275, -1555.7037658338268, 116.07260895640958, -5345.464389975595, -2801.9476296839275, -4064.4859152419467, -7985.0936514250825, -4551.70924087873, -3275.0893563138675, -4815.348066729077, -3886.2531049553286, -10905.81845114451, -14480.91292153751, 0.016, -0.108, 0.992, 192.0, 0.0, 0.0, 0.0, 0.0, 0.0, 0.0, 0.0, 0.0, 0.0, 1.645920577510922E9, 0.0, 2022-02-27 11:09:37.510
102.0, -3432.669154723782, -6417.409350563211, -1662.4780490968287, -10962.994213461187, -1384.1988306282558, 282.5484016595366, -5181.69315835156, -2635.42713349189, -3944.479399261403, -7967.480476794301, -4608.817947962039, -3342.5245693355287, -4874.066099413169, -3938.0868003471855, -10947.012716175643, -14375.65855689747, 0.016, -0.108, 0.992, 192.0, 0.0, 0.0, 0.0, 0.0, 0.0, 0.0, 0.0, 0.0, 0.0, 1.645920577518206E9, 0.0, 2022-02-27 11:09:37.518
104.0, -3475.517448844606, -6465.6220633533085, -1710.3778374645517, -11021.287563000627, -1438.3347556990095, 224.79149398702313, -5252.212912108053, -2711.914803017951, -3991.3733591286373, -7852.123123660461, -4472.785231207041, -3177.7251574665497, -4712.798263168128, -3786.3855107290165, -10810.577668020447, -14400.536048476226, 0.016, -0.108, 0.992, 192.0, 0.0, 0.0, 0.0, 0.0, 0.0, 0.0, 0.0, 0.0, 0.0, 1.64592057752569E9, 0.0, 2022-02-27 11:09:37.525
106.0, -3584.5269065531384, -6552.480942306632, -1798.0190274738106, -11095.584761570068, -1528.568748065084, 151.9471588071774, -5305.119491233765, -2757.4676582178663, -4054.2711680258717, -8059.16733254997, -4662.417431165866, -3395.6323141613384, -4922.077646503169, -3978.5658095557465, -11002.377987191438, -14473.782715056268, 0.014, -0.10400000000000001, 0.992, 192.0, 0.0, 56.0, 126.0, 96.0, 15.5, 0.0, 0.0, 0.0, 0.0, 1.645920577533625E9, 0.0, 2022-02-27 11:09:37.533
108.0, -3388.993846058112, -6373.979911086549, -1612.3207345391197, -10924.34804729796, -1315.4001611948206, 340.90880643234334, -5139.850692731225, -2605.6322581329655, -3922.261765272828, -7872.105583203505, -4507.944525235239, -3213.107968939301, -4752.450257831843, -3807.172633072452, -10835.343400876929, -14333.346704643573, 0.014, -0.10400000000000001, 0.992, 192.0, 0.0, 0.0, 0.0, 0.0, 0.0, 0.0, 0.0, 0.0, 0.0, 1.645920577540883E9, 0.0, 2022-02-27 11:09:37.540
110.0, -3607.9962382312106, -6566.696651780207, -1816.7274375829027, -11130.878166064998, -1552.5521698656287, 127.06966722842066, -5354.606253457815, -2801.0759116501704, -4080.266246827394, -7979.1704391444255, -4562.728650895197, -3286.399339008253, -4813.336409728099, -3877.2453519398396, -10909.908820379833, -14480.15296222603, 0.014, -0.10400000000000001, 0.992, 192.0, 0.0, 0.0, 0.0, 0.0, 0.0, 0.0, 0.0, 0.0, 0.0, 1.645920577548382E9, 0.0, 2022-02-27 11:09:37.548
112.0, -3448.6953554982374, -6432.183853648169, -1657.7841827612142, -10972.583111832513, -1381.673083504806, 292.29376224205043, -5185.939989798068, -2630.4650462228115, -3961.5114285363475, -7975.683567009398, -4613.645924764386, -3368.117316736855, -4880.212829138378, -3930.755428165845, -10957.02629769162, -14375.435039452916, 0.014, -0.10400000000000001, 0.992, 192.0, 0.0, 0.0, 0.0, 0.0, 0.0, 0.0, 0.0, 0.0, 0.0, 1.645920577556305E9, 0.0, 2022-02-27 11:09:37.556
114.0, -3474.288102899564, -6464.146848219258, -1696.1621279909764, -11021.689894400823, -1422.71088632475, 234.40274410280517, -5245.663850982649, -2704.8516517700737, -3994.5696585857463, -7869.445725613324, -4460.335309545435, -3174.685320220628, -4713.133539334958, -3778.204772258374, -10808.52130753056, -14392.735289661323, 0.014, -0.10400000000000001, 0.992, 192.0, 0.0, 0.0, 0.0, 0.0, 0.0, 0.0, 0.0, 0.0, 0.0, 1.645920577570462E9, 0.0, 2022-02-27 11:09:37.570
116.0, -3577.6872727498144, -6549.86578820536, -1787.558411068727, -11098.53519183817, -1528.7699137651819, 151.52247566252657, -5318.619944884771, -2761.6027309420983, -4058.5850547057457, -8050.204283023391, -4647.821742036551, -3394.1123955383773, -4918.702533090417, -3982.1197369241404, -11001.975655791242, -14472.598072600136, 0.016, -0.106, 0.992, 192.0, 0.0, 64.0, 126.0, 88.0, 15.5, 0.0, 0.0, 0.0, 0.0, 1.645920577577933E9, 0.0, 2022-02-27 11:09:37.577
118.0, -3372.252389461087, -6365.106268537792, -1604.3188100241198, -10920.01180887363, -1325.1678735217897, 338.3607075644383, -5141.214149142998, -2601.0501505196276, -3927.7155909199228, -7863.723679032765, -4498.579144308465, -3206.916535725181, -4746.661156017918, -3791.3475979980944, -10840.506653846103, -14332.45263486536, 0.016, -0.106, 0.992, 192.0, 0.0, 0.0, 0.0, 0.0, 0.0, 0.0, 0.0, 0.0, 0.0, 1.645920577585987E9, 0.0, 2022-02-27 11:09:37.585
120.0, -3593.4229008463503, -6545.328384080933, -1816.459216649439, -11121.043398504664, -1556.8437048010476, 119.35831539133972, -5363.479896006572, -2812.631763533564, -4083.1719736065834, -7964.1947703593705, -4555.3972787138555, -3267.109783543323, -4817.337371985599, -3848.9927469483314, -10912.166346569818, -14482.477543649382, 0.016, -0.106, 0.992, 192.0, 0.0, 0.0, 0.0, 0.0, 0.0, 0.0, 0.0, 0.0, 0.0, 1.645920577593223E9, 0.0, 2022-02-27 11:09:37.593
122.0, -3440.805189705514, -6411.7990627049285, -1663.4838775973176, -10966.525789085126, -1385.964618440225, 276.8040033345227, -5193.986617801978, -2657.0636221246273, -3972.195562385984, -7954.71763071032, -4617.57983178852, -3339.1718076672328, -4890.181707165445, -3922.2841170172833, -10966.011698962653, -14385.403917479984, 0.016, -0.106, 0.992, 192.0, 0.0, 0.0, 0.0, 0.0, 0.0, 0.0, 0.0, 0.0, 0.0, 1.645920577600523E9, 0.0, 2022-02-27 11:09:37.600
124.0, -3462.7098992717147, -6437.8611967398165, -1701.079511771144, -11011.810423351577, -1430.8916247953923, 236.66027029279118, -5251.452952796573, -2704.9410587478947, -3998.883545265621, -7853.598338794511, -4460.380013034345, -3158.2344363015222, -4714.608754469008, -3754.176646968919, -10813.170470377263, -14398.479687986337, 0.016, -0.106, 0.992, 192.0, 0.0, 0.0, 0.0, 0.0, 0.0, 0.0, 0.0, 0.0, 0.0, 1.645920577608556E9, 0.0, 2022-02-27 11:09:37.608
126.0, -3568.411298800862, -6532.1855583412125, -1793.3475128826515, -11102.446747117847, -1542.248015671732, 139.76545807903506, -5331.360439224296, -2771.1022223356035, -4068.4645257549914, -8034.178082248936, -4651.219207193757, -3378.130898252833, -4931.867710574593, -3967.680510006012, -11009.307027972583, -14480.734107581868, 0.01, -0.108, 0.994, 192.0, 0.0, 40.0, 126.0, 80.0, 15.5, 8.0, 0.0, 0.0, 0.0, 1.645920577617038E9, 0.0, 2022-02-27 11:09:37.617
128.0, -3345.51970309254, -6333.500901877988, -1590.2372110172762, -10918.737759439678, -1323.3126787319993, 335.7679052076227, -5174.987635014968, -2626.3076217541247, -3921.8594338726325, -7848.859768969985, -4491.359530849401, -3203.630829290251, -4758.999318957248, -3801.852917892089, -10851.526063862571, -14343.516748370737, 0.01, -0.108, 0.994, 192.0, 0.0, 0.0, 0.0, 0.0, 0.0, 0.0, 0.0, 0.0, 0.0, 1.645920577623586E9, 0.0, 2022-02-27 11:09:37.623
130.0, -3552.832132915513, -6522.373142525333, -1798.7789867852912, -11116.52834612469, -1551.5910448540503, 117.05608571244309, -5368.44198327565, -2821.125426426581, -4066.318758287282, -7943.072371849105, -4526.585880110965, -3250.0106990350127, -4807.3908457029875, -3853.4854475838483, -10913.529802981593, -14492.960511798921, 0.01, -0.108, 0.994, 192.0, 0.0, 0.0, 0.0, 0.0, 0.0, 0.0, 0.0, 0.0, 0.0, 1.645920577630118E9, 0.0, 2022-02-27 11:09:37.630
132.0, -3403.611886931883, -6383.658216435697, -1652.3303571141194, -10962.301309383072, -1386.9927986851692, 274.7699945890897, -5215.533699456894, -2655.253130823747, -3959.9468064244757, -7955.522293510711, -4601.039540891593, -3331.393400596786, -4889.153526920501, -3922.3735239951047, -10969.587978075502, -14391.841219883112, 0.01, -0.108, 0.994, 192.0, 0.0, 0.0, 0.0, 0.0, 0.0, 0.0, 0.0, 0.0, 0.0, 1.6459205776381E9, 0.0, 2022-02-27 11:09:37.638
134.0, -3423.39318077483, -6403.260696323001, -1669.3176829001527, -10997.818231322555, -1416.541804855085, 235.63209004784704, -5266.629787281727, -2714.77582630823, -3985.539553825802, -7837.281565342137, -4436.0613150669715, -3138.564901180852, -4710.876013144972, -3747.404068398961, -10812.43286281024, -14398.56909496416, 0.01, -0.108, 0.994, 192.0, 0.0, 0.0, 0.0, 0.0, 0.0, 0.0, 0.0, 0.0, 0.0, 1.645920577646302E9, 0.0, 2022-02-27 11:09:37.646
136.0, -3542.863254888446, -6512.158395309258, -1772.783907983769, -11089.48273533377, -1528.6358032984501, 133.61872835382562, -5348.0571923324105, -2780.1099753510925, -4054.4276302370586, -8028.880718813029, -4621.223166134735, -3365.770383569048, -4925.07278026018, -3965.981777427409, -11006.110728515474, -14482.835171560666, 0.012, -0.10400000000000001, 0.996, 192.0, 0.0, 48.0, 126.0, 96.0, 15.5, 16.0, 0.0, 0.0, 0.0, 1.645920577652782E9, 0.0, 2022-02-27 11:09:37.652
138.0, -3337.0483919439785, -6328.181186697625, -1580.1118707790222, -10908.031273845587, -1304.0901785004353, 333.66684122882384, -5164.728184309982, -2622.5525286856328, -3912.7175703904118, -7843.093018900517, -4477.836725453941, -3195.5394977974297, -4757.345289867555, -3800.3777027580386, -10851.526063862571, -14340.141634957987, 0.012, -0.10400000000000001, 0.996, 192.0, 0.0, 0.0, 0.0, 0.0, 0.0, 0.0, 0.0, 0.0, 0.0, 1.645920577660839E9, 0.0, 2022-02-27 11:09:37.660
140.0, -3552.7203741932362, -6519.668581446241, -1786.7090447794253, -11110.493375121758, -1529.2616521431987, 122.4652078706274, -5348.124247565776, -2816.409208346511, -4064.664729197589, -7952.236587075781, -4522.361400408912, -3235.3703064167867, -4807.5026044252645, -3857.866389497088, -10908.724177923701, -14486.612616373613, 0.012, -0.10400000000000001, 0.996, 192.0, 0.0, 0.0, 0.0, 0.0, 0.0, 0.0, 0.0, 0.0, 0.0, 1.645920577668719E9, 0.0, 2022-02-27 11:09:37.668
142.0, -3412.8878608808354, -6394.163536329692, -1651.5256943137283, -10968.7386117862, -1375.5710572685073, 277.1839829902629, -5226.642516451182, -2649.9781191322945, -3955.007070899853, -7961.28904358018, -4598.3573315569565, -3331.974545952624, -4891.5004600883085, -3935.739867179378, -10973.655995566369, -14395.015167595766, 0.012, -0.10400000000000001, 0.996, 192.0, 0.0, 0.0, 0.0, 0.0, 0.0, 0.0, 0.0, 0.0, 0.0, 1.645920577675988E9, 0.0, 2022-02-27 11:09:37.675
144.0, -3414.4748347371624, -6404.64650447923, -1669.1612206889656, -10991.693853341802, -1402.3260953815097, 251.74769780012343, -5282.030139211433, -2699.509584845255, -3975.54832405428, -7834.375838562947, -4436.821274378452, -3132.015840055447, -4710.585440467053, -3758.758754582257, -10820.367732091872, -14393.808173395179, 0.012, -0.10400000000000001, 0.996, 192.0, 0.0, 0.0, 0.0, 0.0, 0.0, 0.0, 0.0, 0.0, 0.0, 1.645920577682886E9, 0.0, 2022-02-27 11:09:37.682
146.0, -3542.6173856994374, -6515.041770343992, -1783.3786348555846, -11093.550752824636, -1529.3957626099304, 133.77519056501276, -5328.186491511642, -2771.1469258245143, -4046.5821679332457, -8029.9983060357945, -4626.319363870545, -3350.481790361618, -4927.822044828182, -3970.541533296291, -11006.781280849133, -14481.561122126714, 0.012, -0.1, 0.994, 192.0, 0.0, 48.0, 126.0, 112.0, 15.5, 8.0, 0.0, 0.0, 0.0, 1.645920577698494E9, 0.0, 2022-02-27 11:09:37.698
148.0, -3326.9454034501796, -6313.0043522124715, -1583.4199289584076, -10903.627980187892, -1302.5702598774744, 340.5064750321478, -5160.950739497035, -2617.679848394376, -3899.7312068618785, -7844.903510201396, -4482.575295278465, -3184.453032547597, -4767.783554528183, -3803.819871404156, -10856.53285462056, -14337.772350045723, 0.012, -0.1, 0.994, 192.0, 0.0, 0.0, 0.0, 0.0, 0.0, 0.0, 0.0, 0.0, 0.0, 1.645920577705091E9, 0.0, 2022-02-27 11:09:37.705
150.0, -3544.7184496782365, -6508.068026073936, -1785.5691058122047, -11102.491450606758, -1535.7883615241483, 124.81214103843463, -5370.297178065441, -2823.3606008721117, -4050.4937232129246, -7946.536892239677, -4520.707371319219, -3227.0554574794123, -4810.251868993267, -3849.395078348527, -10911.652256447347, -14487.238465218363, 0.012, -0.1, 0.994, 192.0, 0.0, 0.0, 0.0, 0.0, 0.0, 0.0, 0.0, 0.0, 0.0, 1.645920577712998E9, 0.0, 2022-02-27 11:09:37.712
152.0, -3413.4913579811287, -6376.550361698909, -1654.6772902819266, -10962.88245473891, -1397.8557464904484, 271.1937154762406, -5256.616205765749, -2654.9178546569174, -3950.8719981756212, -7954.76233419923, -4606.538070027598, -3326.453665072163, -4903.615105583084, -3937.662117202535, -10985.725937572233, -14403.598237466604, 0.012, -0.1, 0.994, 192.0, 0.0, 0.0, 0.0, 0.0, 0.0, 0.0, 0.0, 0.0, 0.0, 1.645920577721011E9, 0.0, 2022-02-27 11:09:37.721
154.0, -3423.996677875123, -6393.560039229398, -1675.240895180809, -10990.956245774776, -1413.8148920315377, 238.67192729376882, -5262.628825024227, -2706.975067493328, -3970.496829807381, -7830.508986772179, -4443.705611670686, -3126.874938830726, -4720.59902198303, -3747.9628620103435, -10831.253031641607, -14398.144411819509, 0.012, -0.1, 0.994, 192.0, 0.0, 0.0, 0.0, 0.0, 0.0, 0.0, 0.0, 0.0, 0.0, 1.645920577728138E9, 0.0, 2022-02-27 11:09:37.728
156.0, -3552.5862637265045, -6507.978619096115, -1792.3193326377075, -11099.831593016577, -1537.5988528250282, 120.5876613363816, -5351.611119700804, -2792.8951731795282, -4055.3440517597264, -8026.7125996008635, -4633.941308729805, -3353.6110345853613, -4933.5887948976515, -3965.870018705132, -11015.543164675613, -14497.609674645624, 0.012, -0.10400000000000001, 0.988, 192.0, 0.0, 48.0, 126.0, 96.0, 15.0, 112.0, 0.0, 0.0, 0.0, 1.645920577735568E9, 0.0, 2022-02-27 11:09:37.735
158.0, -3327.034810428001, -6310.098625433282, -1589.9913418282679, -10911.093462835965, -1325.9948880666361, 325.0390678690753, -5186.5211351539065, -2622.3066594966244, -3904.1792040084847, -7841.5507485331, -4491.873620971874, -3189.169250627667, -4777.797136044162, -3804.9821621158317, -10868.714555348703, -14353.195053719886, 0.012, -0.10400000000000001, 0.988, 192.0, 0.0, 0.0, 0.0, 0.0, 0.0, 0.0, 0.0, 0.0, 0.0, 1.645920577743632E9, 0.0, 2022-02-27 11:09:37.743
160.0, -3541.0080600986553, -6519.065084345947, -1794.755672783336, -11118.562354870124, -1546.5171988626957, 106.14843441825325, -5350.314718522396, -2801.7241122393743, -4061.04374659583, -7948.280328307192, -4524.216595198703, -3227.9048237687143, -4817.4267789634205, -3855.9888429628427, -10905.527878466592, -14495.57566590019, 0.012, -0.10400000000000001, 0.988, 192.0, 0.0, 0.0, 0.0, 0.0, 0.0, 0.0, 0.0, 0.0, 0.0, 1.645920577750768E9, 0.0, 2022-02-27 11:09:37.750
162.0, -3397.5545641844947, -6387.703882182108, -1658.499438583784, -10973.45482986627, -1394.3018191220547, 265.0469857510312, -5255.811542965358, -2677.090785156582, -3954.224759843917, -7971.928473940907, -4599.072587379526, -3333.0250779420235, -4905.44794862842, -3944.457047516948, -10979.288635169105, -14412.874211415556, 0.012, -0.10400000000000001, 0.988, 192.0, 0.0, 0.0, 0.0, 0.0, 0.0, 0.0, 0.0, 0.0, 0.0, 1.64592057775796E9, 0.0, 2022-02-27 11:09:37.757
164.0, -3394.9394100832237, -6379.724309411563, -1665.048499709189, -10983.490763126703, -1401.901412236859, 239.70010753871293, -5277.693900787103, -2705.2986866591796, -3958.717460479434, -7820.540108745112, -4419.856300336874, -3124.3491917072765, -4711.613620711997, -3750.108629478053, -10822.111168159387, -14404.000568866799, 0.012, -0.10500000000000001, 0.99, 192.0, 0.0, 48.0, 126.0, 88.0, 15.5, 0.0, 0.0, 0.0, 0.0, 1.645920577765222E9, 0.0, 2022-02-27 11:09:37.765
166.0, -3556.4754672617278, -6526.374104782833, -1801.3270856531963, -11097.149383681939, -1552.5298181211733, 112.04929495445431, -5334.444979959128, -2774.767908426274, -4066.0505373538185, -8019.3141721861575, -4629.068628438548, -3357.5672933539504, -4942.127161279579, -3973.2684461198387, -11009.731711117234, -14493.765174599312, 0.012, -0.10500000000000001, 0.99, 192.0, 0.0, 0.0, 0.0, 0.0, 0.0, 0.0, 0.0, 0.0, 0.0, 1.645920577773196E9, 0.0, 2022-02-27 11:09:37.773
168.0, -3338.61301405585, -6325.20840468507, -1591.7124261513266, -10892.787384127067, -1318.7305711186614, 339.6347569983908, -5218.148853558166, -2643.4290580068896, -3918.9984105823532, -7845.6858212573325, -4498.199164652725, -3190.4880035505303, -4784.212086702834, -3815.2192610763627, -10865.071221002487, -14349.8869955405, 0.012, -0.10500000000000001, 0.99, 192.0, 0.0, 0.0, 0.0, 0.0, 0.0, 0.0, 0.0, 0.0, 0.0, 1.645920577781239E9, 0.0, 2022-02-27 11:09:37.781
170.0, -3582.023511174144, -6551.2068928726785, -1803.1152252096208, -11107.945276253853, -1558.2518647017318, 121.50408285904919, -5375.125154867787, -2774.2091148148916, -4081.316778816793, -7937.61854620201, -4531.726781335686, -3217.846538763826, -4819.661953408951, -3844.14241840153, -10914.982666371186, -14487.506686151826, 0.012, -0.10500000000000001, 0.99, 192.0, 0.0, 0.0, 0.0, 0.0, 0.0, 0.0, 0.0, 0.0, 0.0, 1.645920577787876E9, 0.0, 2022-02-27 11:09:37.787
172.0, -3470.510658086617, -6452.255720169034, -1672.9610172463676, -10981.300292170083, -1405.6565053053505, 267.7515468301233, -5230.151740330665, -2665.2667123397246, -3997.3859783871153, -7989.228724149314, -4635.4612273527655, -3357.254368931576, -4934.728733864872, -3954.2471115883723, -10992.520867886647, -14405.721653189858, 0.012, -0.10500000000000001, 0.99, 192.0, 0.0, 0.0, 0.0, 0.0, 0.0, 0.0, 0.0, 0.0, 0.0, 1.645920577795942E9, 0.0, 2022-02-27 11:09:37.795
174.0, -3505.3346759479855, -6490.410147954243, -1681.3205696726525, -10995.024263265643, -1403.9354209822918, 256.083936224453, -5238.46658926804, -2678.811869479641, -4007.4889668809137, -7857.621652796466, -4466.794963693019, -3159.5084857354746, -4735.932318679371, -3763.3185104511394, -10818.04315066852, -14392.623530939047, 0.011, -0.10450000000000001, 0.989, 192.0, 0.0, 40.0, 126.0, 96.0, 15.0, 112.0, 0.0, 0.0, 0.0, 1.64592057780392E9, 0.0, 2022-02-27 11:09:37.803
176.0, -3696.8444224410564, -6668.084164629479, -1811.4524258914503, -11116.930677524886, -1547.4559721298185, 128.09784747336477, -5345.330279508863, -2763.2791117762463, -4119.29239264636, -8073.517152490277, -4673.123916759958, -3395.162927527777, -4952.207798028922, -3980.7339287679115, -11010.290504728617, -14488.937197796966, 0.011, -0.10450000000000001, 0.989, 192.0, 0.0, 0.0, 0.0, 0.0, 0.0, 0.0, 0.0, 0.0, 0.0, 1.645920577817491E9, 0.0, 2022-02-27 11:09:37.817
178.0, -3509.156824249843, -6512.091340075892, -1608.498586237262, -10926.40440778785, -1327.3359927339545, 334.1585796068406, -5177.111050738222, -2602.234792975759, -3981.7621090128555, -7916.1832232693705, -4555.889017091873, -3261.164219518211, -4803.4569386788535, -3831.781903717745, -10871.754392594623, -14344.634335593502, 0.011, -0.10450000000000001, 0.989, 192.0, 0.0, 0.0, 0.0, 0.0, 0.0, 0.0, 0.0, 0.0, 0.0, 1.645920577825532E9, 0.0, 2022-02-27 11:09:37.825
180.0, -3757.0600220036536, -6746.807008601071, -1809.9325072684894, -11125.78196832919, -1541.9797947382683, 126.01913523902122, -5353.354555768318, -2789.02832138876, -4142.20293071305, -8012.765111060752, -4583.471069749721, -3288.36629252032, -4817.7173516413395, -3857.4417063524374, -10907.025445345098, -14486.545561140247, 0.011, -0.10450000000000001, 0.989, 192.0, 0.0, 0.0, 0.0, 0.0, 0.0, 0.0, 0.0, 0.0, 0.0, 1.645920577833579E9, 0.0, 2022-02-27 11:09:37.833
182.0, -3661.4839627127603, -6644.078391084479, -1698.9784477923452, -11013.41974895236, -1402.0131709591356, 269.2044102197183, -5226.396647262174, -2653.0850116115826, -4059.8814558841536, -8051.54538769071, -4694.670998414874, -3420.6886196957375, -4926.503291905319, -3958.516294779336, -10988.98929226271, -14410.639036970024, 0.011, -0.10450000000000001, 0.989, 192.0, 0.0, 0.0, 0.0, 0.0, 0.0, 0.0, 0.0, 0.0, 0.0, 1.645920577840177E9, 0.0, 2022-02-27 11:09:37.840
184.0, -3669.9999773502327, -6662.60798723793, -1696.8997355580016, -11014.313818730572, -1402.1472814258673, 266.90218054082163, -5245.395630049185, -2678.38718633499, -4071.9737496344746, -7911.064673789106, -4535.012487770616, -3250.189512990655, -4733.853606445027, -3754.020184757732, -10818.870165213368, -14397.049176341197, 0.0115, -0.10425000000000001, 0.9864999999999999, 192.0, 0.0, 48.0, 126.0, 96.0, 15.0, 96.0, 0.0, 0.0, 0.0, 1.645920577848146E9, 0.0, 2022-02-27 11:09:37.848
186.0, -3834.9558514303985, -6809.034265164646, -1828.618565633126, -11130.654648620444, -1548.0371174856566, 128.36606840682845, -5347.498398721028, -2763.5473327097097, -4175.35056774027, -8111.984504697861, -4730.344382565544, -3419.615735961883, -4947.111600293112, -4001.386940644615, -11009.75406286169, -14499.733090368878, 0.0115, -0.10425000000000001, 0.9864999999999999, 192.0, 0.0, 0.0, 0.0, 0.0, 0.0, 0.0, 0.0, 0.0, 0.0, 1.645920577856256E9, 0.0, 2022-02-27 11:09:37.856
188.0, -3623.2624796941855, -6601.7441870861285, -1623.2283858333094, -10937.69203873778, -1312.4720826711755, 350.3859460813935, -5160.9283877525795, -2593.294095193636, -4027.873757824154, -7958.785648201186, -4610.784901474107, -3285.482917485585, -4805.580354402108, -3835.8946246975215, -10868.826314070979, -14346.847158294579, 0.0115, -0.10425000000000001, 0.9864999999999999, 192.0, 0.0, 0.0, 0.0, 0.0, 0.0, 0.0, 0.0, 0.0, 0.0, 1.645920577863285E9, 0.0, 2022-02-27 11:09:37.863
190.0, -3816.5380139992258, -6783.665035207872, -1821.5777661297043, -11132.398084687959, -1524.6571927854054, 144.8840075593004, -5346.112590564799, -2774.6114462150867, -4177.004596829963, -8034.759227604774, -4622.832491735518, -3315.2777928445093, -4821.1818720319125, -3860.4144883649933, -10893.167363782808, -14480.24236920385, 0.0115, -0.10425000000000001, 0.9864999999999999, 192.0, 0.0, 0.0, 0.0, 0.0, 0.0, 0.0, 0.0, 0.0, 0.0, 1.645920577869758E9, 0.0, 2022-02-27 11:09:37.869
192.0, -3680.304131544129, -6658.7411354471615, -1705.5722124066608, -11009.597600650502, -1405.6788570498059, 267.8409538079445, -5227.246013551476, -2645.932453385884, -4073.828944424265, -8073.293635045724, -4710.518385233687, -3426.5000732541175, -4935.108713520613, -3975.5036205653696, -10980.56268460306, -14405.274618300751, 0.0115, -0.10425000000000001, 0.9864999999999999, 192.0, 0.0, 0.0, 0.0, 0.0, 0.0, 0.0, 0.0, 0.0, 0.0, 1.645920577877837E9, 0.0, 2022-02-27 11:09:37.877
194.0, -3623.664811094381, -6611.601306390919, -1685.7015115858928, -10998.13115574493, -1389.9208772088143, 278.92741905777683, -5241.238205580497, -2670.452317053356, -4056.4392872380363, -7924.252203017736, -4518.360438151412, -3208.9281927261586, -4738.234548358268, -3777.422461202438, -10806.777871463046, -14385.046289568698, 0.01175, -0.107125, 0.98825, 192.0, 0.0, 48.0, 126.0, 72.0, 15.0, 120.0, 0.0, 0.0, 0.0, 1.64592057788586E9, 0.0, 2022-02-27 11:09:37.885
196.0, -3760.658652860958, -6726.355162424465, -1825.0199347758216, -11126.027837518197, -1552.64157684345, 140.72658309061327, -5354.270977290986, -2770.6998909354083, -4141.733544079488, -8098.774623724774, -4686.400852966411, -3400.2367735191315, -4937.9920885553465, -3974.5871990427017, -10995.068966754552, -14492.871104821099, 0.01175, -0.107125, 0.98825, 192.0, 0.0, 0.0, 0.0, 0.0, 0.0, 0.0, 0.0, 0.0, 0.0, 1.645920577892979E9, 0.0, 2022-02-27 11:09:37.892
198.0, -3518.41044645434, -6507.66569467374, -1613.9971153732677, -10931.679419479302, -1319.646992641329, 366.434498600304, -5176.172277471099, -2594.6351998609543, -3998.2800481653276, -7925.660362918421, -4570.261188776635, -3262.7511933745377, -4813.224651005823, -3831.6701449954685, -10870.145066993842, -14344.366114660039, 0.01175, -0.107125, 0.98825, 192.0, 0.0, 0.0, 0.0, 0.0, 0.0, 0.0, 0.0, 0.0, 0.0, 1.64592057790039E9, 0.0, 2022-02-27 11:09:37.900
200.0, -3702.275896343696, -6676.913103689326, -1806.333876411185, -11126.832500318587, -1541.085724960056, 153.08709777439807, -5368.844314675845, -2786.547277754221, -4129.86476777372, -7989.072261938127, -4565.835543374485, -3260.6054259068283, -4819.617249920041, -3849.7974097487227, -10893.636750416368, -14483.326909938683, 0.01175, -0.107125, 0.98825, 192.0, 0.0, 0.0, 0.0, 0.0, 0.0, 0.0, 0.0, 0.0, 0.0, 1.645920577908421E9, 0.0, 2022-02-27 11:09:37.908
202.0, -3578.9836739282223, -6557.264215620067, -1694.5080989012838, -11009.08351052803, -1415.066589721035, 271.8642678098998, -5249.441295795596, -2658.583540747588, -4042.51415044238, -8031.004134536283, -4670.3523004475, -3384.5905524004165, -4937.098018777135, -3974.1848676425066, -10987.447021895292, -14418.752720207302, 0.01175, -0.107125, 0.98825, 192.0, 0.0, 0.0, 0.0, 0.0, 0.0, 0.0, 0.0, 0.0, 0.0, 1.645920577916529E9, 0.0, 2022-02-27 11:09:37.916
204.0, -3519.3715714659184, -6517.031075600515, -1663.6850432974152, -10993.392585920405, -1387.3057231075434, 292.36081747541635, -5240.433542780107, -2667.4348315518896, -4012.540461127813, -7879.36990015148, -4479.2001818657145, -3167.3539480392874, -4721.426036527877, -3767.587693642103, -10798.217153336664, -14386.745022147301, 0.011875, -0.1085625, 0.9901249999999999, 192.0, 0.0, 48.0, 126.0, 72.0, 15.5, 0.0, 0.0, 0.0, 0.0, 1.645920577923033E9, 0.0, 2022-02-27 11:09:37.923
206.0, -3679.208896065819, -6650.828617909982, -1812.7488270698582, -11126.966610785319, -1544.0361552281565, 140.10073424586466, -5359.993023871544, -2771.862181647084, -4106.596601795745, -8066.923387875961, -4657.075364241047, -3369.324310937442, -4917.093207489635, -3957.175190112018, -10980.920312514343, -14497.54261941226, 0.011875, -0.1085625, 0.9901249999999999, 192.0, 0.0, 0.0, 0.0, 0.0, 0.0, 0.0, 0.0, 0.0, 0.0, 1.645920577930226E9, 0.0, 2022-02-27 11:09:37.930
208.0, -3454.126829400877, -6436.028353694482, -1606.4645774918292, -10922.224631574707, -1319.4681786856866, 367.4850305897034, -5180.553219384339, -2590.5001271367228, -3960.0809168912074, -7902.70512136282, -4548.512941421622, -3235.3479546723315, -4796.9972845312695, -3833.3241740851613, -10863.461895401704, -14352.79272231969, 0.011875, -0.1085625, 0.9901249999999999, 192.0, 0.0, 0.0, 0.0, 0.0, 0.0, 0.0, 0.0, 0.0, 0.0, 1.645920577945307E9, 0.0, 2022-02-27 11:09:37.945
210.0, -3650.3304422295623, -6624.677076897273, -1797.4378821179728, -11113.712026323323, -1542.762105794204, 148.7061558611579, -5371.3030065659295, -2784.3791585420563, -4107.177747151583, -7965.29000583768, -4546.523636165099, -3232.4869313820523, -4798.606610132052, -3843.3824590900495, -10879.018709542599, -14486.389098929061, 0.011875, -0.1085625, 0.9901249999999999, 192.0, 0.0, 0.0, 0.0, 0.0, 0.0, 0.0, 0.0, 0.0, 0.0, 1.645920577952739E9, 0.0, 2022-02-27 11:09:37.952
212.0, -3550.485199747706, -6533.10197986388, -1698.4196541809624, -11009.41878669486, -1423.7837700586047, 270.5902183759473, -5258.694918000093, -2661.109287871038, -4026.13032175664, -8029.484215913322, -4657.701213085797, -3367.2455987030985, -4925.989201782847, -3965.065355904741, -10984.563646860559, -14428.743949978823, 0.011875, -0.1085625, 0.9901249999999999, 192.0, 0.0, 0.0, 0.0, 0.0, 0.0, 0.0, 0.0, 0.0, 0.0, 1.645920577960818E9, 0.0, 2022-02-27 11:09:37.960
214.0, -3495.2540391986417, -6490.343092720877, -1666.0543282096778, -10984.384832904916, -1400.6497145473618, 288.0469307955421, -5260.3042436008745, -2668.57477051911, -4004.8961645240984, -7874.787792538142, -4474.88629518584, -3154.166418810656, -4726.477530774776, -3764.167876740441, -10807.873106941355, -14396.333920518628, 0.012937500000000001, -0.10828125, 0.9900625, 192.0, 0.0, 56.0, 126.0, 80.0, 15.0, 120.0, 0.0, 0.0, 0.0, 1.645920577968698E9, 0.0, 2022-02-27 11:09:37.968
216.0, -3646.374183460973, -6622.240736751644, -1808.4125886455286, -11118.495299636757, -1552.149838465433, 146.09100175988695, -5388.7373672410695, -2775.192591570925, -4096.806537724321, -8062.184818051436, -4647.687631569819, -3359.8918747773023, -4922.92701279247, -3962.8301814592105, -10993.549048131592, -14504.158735771029, 0.012937500000000001, -0.10828125, 0.9900625, 192.0, 0.0, 0.0, 0.0, 0.0, 0.0, 0.0, 0.0, 0.0, 0.0, 1.645920577975346E9, 0.0, 2022-02-27 11:09:37.975
218.0, -3405.0647503214777, -6400.6455422217305, -1590.0360453171786, -10912.859250647933, -1327.35834447841, 361.0030246976644, -5200.088644038277, -2604.6264296324766, -3931.9624223664314, -7889.718757834287, -4528.485778389666, -3225.9825737455576, -4795.231496719301, -3830.7313717283455, -10871.083840260964, -14349.395257162483, 0.012937500000000001, -0.10828125, 0.9900625, 192.0, 0.0, 0.0, 0.0, 0.0, 0.0, 0.0, 0.0, 0.0, 0.0, 1.645920577983364E9, 0.0, 2022-02-27 11:09:37.983
220.0, -3601.7601015281803, -6583.460460121687, -1781.8587162326237, -11101.8208982731, -1522.4443700843299, 155.0987547753757, -5360.7976866719355, -2782.8815916635504, -4072.6890054570445, -7950.694316708365, -4520.886185274861, -3210.1575386712, -4786.357854170544, -3829.0326391497424, -10878.459915931215, -14482.611654116114, 0.012937500000000001, -0.10828125, 0.9900625, 192.0, 0.0, 0.0, 0.0, 0.0, 0.0, 0.0, 0.0, 0.0, 0.0, 1.645920577991405E9, 0.0, 2022-02-27 11:09:37.991
222.0, -3494.2035072092426, -6472.193476223169, -1684.852145296591, -10998.645245867401, -1425.3707439149314, 267.0362910075535, -5277.448031598095, -2699.7554540342635, -3998.235344676417, -8012.407483149467, -4630.923823228339, -3347.844284515892, -4917.920222034481, -3958.873922690621, -10988.050518995586, -14423.692455731923, 0.012937500000000001, -0.10828125, 0.9900625, 192.0, 0.0, 0.0, 0.0, 0.0, 0.0, 0.0, 0.0, 0.0, 0.0, 1.645920577998477E9, 0.0, 2022-02-27 11:09:37.998
224.0, -3443.308585084508, -6432.317964114901, -1653.0679646811445, -10975.690004311802, -1382.6565602608396, 290.147994774341, -5238.421885779129, -2669.9829304197947, -3965.4006320715707, -7845.842283468519, -4436.485998211622, -3125.0867992743015, -4709.937239877849, -3753.751963824268, -10808.566011019471, -14389.047251826198, 0.01246875, -0.106140625, 0.99103125, 192.0, 0.0, 48.0, 126.0, 96.0, 15.5, 0.0, 0.0, 0.0, 0.0, 1.645920578005012E9, 0.0, 2022-02-27 11:09:38.005
226.0, -3617.607488346993, -6590.501259625109, -1808.814920045724, -11119.501128137246, -1552.373355909986, 139.81016156794567, -5353.801590657424, -2747.6328906575313, -4086.815307952799, -8052.238291768825, -4626.386419103911, -3340.8928919902914, -4917.987277267847, -3962.9195884370315, -10979.266283424651, -14504.091680537664, 0.01246875, -0.106140625, 0.99103125, 192.0, 0.0, 0.0, 0.0, 0.0, 0.0, 0.0, 0.0, 0.0, 0.0, 1.64592057801301E9, 0.0, 2022-02-27 11:09:38.013
228.0, -3393.3077327379865, -6384.440527491633, -1593.1429377964662, -10908.768881412612, -1322.6197746538849, 362.3888328538934, -5166.672786077594, -2584.6663218338877, -3927.7379426643784, -7891.328083435069, -4521.199109697236, -3219.612326575795, -4791.007017017248, -3845.148246902019, -10861.807866312012, -14345.21548094934, 0.01246875, -0.106140625, 0.99103125, 192.0, 0.0, 0.0, 0.0, 0.0, 0.0, 0.0, 0.0, 0.0, 0.0, 1.645920578021122E9, 0.0, 2022-02-27 11:09:38.021
230.0, -3588.214944388264, -6554.604358029886, -1782.4398615884618, -11093.237828402262, -1525.1042276745115, 163.6818246462136, -5332.612136913793, -2771.705719435897, -4070.453831011514, -7939.563147969622, -4515.141786949848, -3201.1274339112565, -4781.999264001759, -3830.485502539337, -10860.422058155782, -14476.286110435261, 0.01246875, -0.106140625, 0.99103125, 192.0, 0.0, 0.0, 0.0, 0.0, 0.0, 0.0, 0.0, 0.0, 0.0, 1.645920578029636E9, 0.0, 2022-02-27 11:09:38.029
232.0, -3487.252114683642, -6460.905845273238, -1691.982351777834, -11004.233181981228, -1431.159845728856, 260.30841592650603, -5257.599682521783, -2663.612683250032, -3996.31309465326, -8005.031407479216, -4635.148302930392, -3347.1066769488666, -4918.277849945766, -3965.333576838205, -10977.45579212377, -14427.067569144676, 0.01246875, -0.106140625, 0.99103125, 192.0, 0.0, 0.0, 0.0, 0.0, 0.0, 0.0, 0.0, 0.0, 0.0, 1.645920578035817E9, 0.0, 2022-02-27 11:09:38.035
234.0, -3437.0724483814774, -6420.471539553588, -1652.084487925111, -10971.666690309847, -1386.2328393736886, 303.42493098079336, -5253.576368519827, -2666.5631135181325, -3962.3160913367383, -7842.444818311313, -4441.716306414164, -3134.228662756522, -4708.976114866271, -3764.726670351824, -10800.80995569348, -14390.9471501049, 0.012, -0.10200000000000001, 0.992, 192.0, 0.0, 48.0, 126.0, 104.0, 15.5, 0.0, 0.0, 0.0, 0.0, 1.645920578043687E9, 0.0, 2022-02-27 11:09:38.043
236.0, -3615.372313901462, -6582.476983365654, -1816.7944928162688, -11117.95885776983, -1566.6561206169274, 135.1386469767865, -5382.501230538039, -2773.2703415477686, -4091.1068428882177, -8040.727143374342, -4626.609936548464, -3342.5245693355287, -4918.657829601506, -3962.4725535479256, -10981.389699147905, -14507.712663139424, 0.012, -0.10200000000000001, 0.992, 192.0, 0.0, 0.0, 0.0, 0.0, 0.0, 0.0, 0.0, 0.0, 0.0, 1.645920578050729E9, 0.0, 2022-02-27 11:09:38.050
238.0, -3383.9423518112126, -6366.872056349762, -1599.1108535660333, -10909.886468635377, -1321.2339664976557, 355.7280130062119, -5198.971056815512, -2615.511729182211, -3933.035306100286, -7875.011309982695, -4525.758865566118, -3221.132245198756, -4805.37918870201, -3844.790618990734, -10875.129506007375, -14357.12896074402, 0.012, -0.10200000000000001, 0.992, 192.0, 0.0, 0.0, 0.0, 0.0, 0.0, 0.0, 0.0, 0.0, 0.0, 1.645920578065344E9, 0.0, 2022-02-27 11:09:38.065
240.0, -3573.507496536672, -6546.356564325877, -1781.3222743656963, -11097.19408717085, -1521.5950037950283, 156.37280420932822, -5347.587805698849, -2796.5608592701983, -4078.053424126318, -7928.633144930976, -4509.039760713549, -3199.2722391214656, -4786.201391959356, -3835.9169764419767, -10867.954596037222, -14481.359956426617, 0.012, -0.10200000000000001, 0.992, 192.0, 0.0, 0.0, 0.0, 0.0, 0.0, 0.0, 0.0, 0.0, 0.0, 1.645920578073421E9, 0.0, 2022-02-27 11:09:38.073
242.0, -3483.407614637329, -6456.547255104453, -1696.6315146245379, -11006.580115149036, -1434.0432207635906, 254.67577632376867, -5284.734700290525, -2681.516430558733, -4006.9525250139864, -8003.355026645068, -4629.694477283297, -3347.419601371241, -4924.268117459788, -3977.2247048884283, -10983.490763126703, -14435.158900637496, 0.012, -0.10200000000000001, 0.992, 192.0, 0.0, 0.0, 0.0, 0.0, 0.0, 0.0, 0.0, 0.0, 0.0, 1.645920578080397E9, 0.0, 2022-02-27 11:09:38.080
244.0, -3427.7964744325254, -6414.771844717485, -1652.3303571141194, -10974.684175811313, -1388.7585864971384, 287.62224765089127, -5238.779513690414, -2647.675889453398, -3978.8116787447548, -7835.515777530168, -4445.3372890159235, -3130.6076801547624, -4718.185033581857, -3770.7169378658464, -10799.915885915267, -14379.279539499228, 0.012, -0.10400000000000001, 0.99, 192.0, 0.0, 48.0, 126.0, 96.0, 15.0, 120.0, 0.0, 0.0, 0.0, 1.645920578088072E9, 0.0, 2022-02-27 11:09:38.088
246.0, -3603.6152963179707, -6574.855038506394, -1812.681771836492, -11129.91704105342, -1558.9447687798463, 123.15811194874192, -5363.032861117466, -2792.068158634682, -4110.351694864237, -8044.862216098573, -4625.022962692137, -3338.478903589118, -4917.652001101017, -3976.352986854671, -10983.826039293534, -14508.316160239716, 0.012, -0.10400000000000001, 0.99, 192.0, 0.0, 0.0, 0.0, 0.0, 0.0, 0.0, 0.0, 0.0, 0.0, 1.645920578095914E9, 0.0, 2022-02-27 11:09:38.095
248.0, -3375.0463575180006, -6353.170436998658, -1597.0321413316897, -10914.535631482082, -1318.5964606519296, 353.5375420495918, -5195.439481191574, -2593.9646475272953, -3940.545492237269, -7884.242580442737, -4518.651010829331, -3227.9271755131695, -4793.599819374063, -3849.328023115161, -10874.347194951439, -14355.430228165416, 0.012, -0.10400000000000001, 0.99, 192.0, 0.0, 0.0, 0.0, 0.0, 0.0, 0.0, 0.0, 0.0, 0.0, 1.64592057810393E9, 0.0, 2022-02-27 11:09:38.103
250.0, -3561.146981852887, -6516.494633733587, -1776.4719458188947, -11088.298092877638, -1517.7058002598048, 162.6759961457248, -5350.58293945586, -2766.900094378006, -4075.7511944474218, -7913.746883123742, -4497.305094874513, -3196.9029542092035, -4771.51629585222, -3822.1483018575077, -10861.42788665627, -14470.273491176784, 0.012, -0.10400000000000001, 0.99, 192.0, 0.0, 0.0, 0.0, 0.0, 0.0, 0.0, 0.0, 0.0, 0.0, 1.64592057811049E9, 0.0, 2022-02-27 11:09:38.110
252.0, -3500.663161356826, -6465.3761941643, -1701.817119338169, -11007.831812838533, -1432.9479852852805, 252.30649141150613, -5265.42279308114, -2671.9498839318617, -4013.4345309060254, -7994.101404440571, -4626.29701212609, -3343.1057146913668, -4915.707399333406, -3960.818524458233, -10985.524771872137, -14431.38145582455, 0.012, -0.10400000000000001, 0.99, 192.0, 0.0, 0.0, 0.0, 0.0, 0.0, 0.0, 0.0, 0.0, 0.0, 1.645920578117529E9, 0.0, 2022-02-27 11:09:38.117
254.0, -3429.696372711226, -6416.9623156741045, -1641.2662436087423, -10965.005870462164, -1375.3028363350436, 302.73202690267885, -5237.728981701014, -2655.968386646317, -3984.0196352028415, -7842.2213008667595, -4444.934957615728, -3127.7690086089383, -4701.890611873939, -3760.6810046054134, -10796.27255156905, -14372.730478373824, 0.012, -0.10400000000000001, 0.99, 192.0, 0.0, 48.0, 126.0, 96.0, 15.0, 120.0, 0.0, 0.0, 0.0, 1.645920578125502E9, 0.0, 2022-02-27 11:09:38.125
0.0, -3601.625991061448, -6577.850172263405, -1810.200728201953, -11126.25135496275, -1557.4919053902515, 128.12019921782007, -5366.855009419323, -2773.0691758476705, -4096.270095857393, -8040.771846863252, -4607.856822950462, -3330.4993308185735, -4884.2808466292445, -3953.241283087884, -10967.419858863337, -14503.376424715094, 0.012, -0.10400000000000001, 0.99, 192.0, 0.0, 0.0, 0.0, 0.0, 0.0, 0.0, 0.0, 0.0, 0.0, 1.645920578133536E9, 0.0, 2022-02-27 11:09:38.133
2.0, -3378.9132093087687, -6367.855533105795, -1601.6813041783935, -10918.111910594931, -1319.1552542633121, 349.0448414140751, -5187.035225276378, -2590.2989614366247, -3938.3103177917387, -7891.931580535363, -4519.254507929624, -3233.6939255826387, -4788.011883260237, -3850.8032382492115, -10864.57948262447, -14348.724704828825, 0.012, -0.10400000000000001, 0.99, 192.0, 0.0, 0.0, 0.0, 0.0, 0.0, 0.0, 0.0, 0.0, 0.0, 1.645920578140347E9, 0.0, 2022-02-27 11:09:38.140
4.0, -3555.1343625944096, -6535.560671753964, -1776.1143179076098, -11092.924903979887, -1511.5143670456848, 156.14928676477513, -5354.9638813691, -2767.7271089228525, -4083.864877684698, -7935.651592689943, -4496.880411729862, -3196.6347332757396, -4758.172304412402, -3822.1483018575077, -10852.62129934088, -14467.72539230888, 0.012, -0.10400000000000001, 0.99, 192.0, 0.0, 0.0, 0.0, 0.0, 0.0, 0.0, 0.0, 0.0, 0.0, 1.645920578148428E9, 0.0, 2022-02-27 11:09:38.148
6.0, -3489.3755304068964, -6469.04188025497, -1703.918183316968, -11012.928010574344, -1440.994613289191, 240.03538370554256, -5287.059281713878, -2683.192811392881, -4021.03412402083, -8022.689285598909, -4622.966602202249, -3352.9851857406125, -4900.754082292805, -3967.300530350272, -10982.753155559678, -14431.917897691477, 0.012, -0.10400000000000001, 0.99, 192.0, 0.0, 0.0, 0.0, 0.0, 0.0, 0.0, 0.0, 0.0, 0.0, 1.645920578156325E9, 0.0, 2022-02-27 11:09:38.156
8.0, -3415.033628348545, -6404.244173079035, -1641.7132784978485, -10962.45777159426, -1377.2027346137447, 300.3850937348716, -5226.106074584255, -2649.486380754278, -3982.4997165798804, -7839.069704898561, -4438.475303468144, -3130.138293521201, -4695.408605981899, -3750.1533329669637, -10797.926580658745, -14373.043402796198, 0.012, -0.10400000000000001, 0.99, 192.0, 0.0, 48.0, 126.0, 96.0, 15.0, 120.0, 0.0, 0.0, 0.0, 1.645920578162973E9, 0.0, 2022-02-27 11:09:38.162
10.0, -3601.536584083627, -6566.137858168824, -1815.3863329155843, -11122.25039270525, -1561.6269781144833, 128.96956550712176, -5373.985215900567, -2778.2771323057573, -4108.742369263455, -8037.709657872875, -4608.996761917682, -3322.6538685147607, -4880.838677983127, -3941.9536521379537, -10965.072925695531, -14500.53775316927, 0.012, -0.10400000000000001, 0.99, 192.0, 0.0, 0.0, 0.0, 0.0, 0.0, 0.0, 0.0, 0.0, 0.0, 1.645920578170816E9, 0.0, 2022-02-27 11:09:38.170
12.0, -3376.610979629872, -6360.568864413365, -1604.0282373462007, -10918.40248327285, -1331.2922515025439, 348.7095652472455, -5194.6795218800935, -2590.2766096921696, -3942.423038771515, -7896.334874193058, -4522.137882964359, -3227.9942307465353, -4785.329673925599, -3845.103543413108, -10873.609587384413, -14349.574071118126, 0.012, -0.10400000000000001, 0.99, 192.0, 0.0, 0.0, 0.0, 0.0, 0.0, 0.0, 0.0, 0.0, 0.0, 1.645920578177815E9, 0.0, 2022-02-27 11:09:38.177
14.0, -3557.0342608731107, -6524.407151270766, -1773.9685504399004, -11092.85784874652, -1521.7514660062154, 161.35724322286168, -5348.593634199337, -2773.4938589923217, -4077.159354348106, -7927.8061303861305, -4487.716196503186, -3191.6055907732953, -4750.3938973419545, -3810.27952555174, -10856.666965087292, -14467.43481963096, 0.012, -0.10400000000000001, 0.99, 192.0, 0.0, 0.0, 0.0, 0.0, 0.0, 0.0, 0.0, 0.0, 0.0, 1.645920578192362E9, 0.0, 2022-02-27 11:09:38.192
16.0, -3492.2365536971756, -6455.407316137233, -1709.5731746641607, -11021.08639730053, -1452.639872150406, 244.39397387432743, -5274.989339708011, -2683.550439304166, -4027.247908979405, -8024.63388736652, -4626.67699178183, -3362.194104456199, -4906.096149217624, -3958.739812223889, -10988.31873992905, -14436.947040193922, 0.012, -0.10400000000000001, 0.99, 192.0, 0.0, 0.0, 0.0, 0.0, 0.0, 0.0, 0.0, 0.0, 0.0, 1.64592057820051E9, 0.0, 2022-02-27 11:09:38.200
18.0, -3405.19886078821, -6386.6757019371635, -1644.5743017881277, -10962.144847171885, -1381.807193971538, 308.2976112720503, -5254.872769698235, -2663.2774070832024, -3978.8563822336655, -7829.659620482877, -4434.340230743913, -3133.111075533757, -4695.363902492989, -3748.0299172437094, -10802.128708616341, -14375.815019108657, 0.012, -0.108, 0.992, 192.0, 0.0, 48.0, 126.0, 80.0, 15.5, 0.0, 0.0, 0.0, 0.0, 1.645920578208387E9, 0.0, 2022-02-27 11:09:38.208
20.0, -3588.7513862551914, -6556.772477242051, -1823.1200364971205, -11128.464177663825, -1579.4860219342736, 120.74412354756875, -5407.982219217089, -2796.1361761255475, -4106.507194817924, -8029.305401957679, -4596.323322811523, -3325.425484827219, -4878.335282604133, -3933.6388032005793, -10978.372213646438, -14512.831212619689, 0.012, -0.108, 0.992, 192.0, 0.0, 0.0, 0.0, 0.0, 0.0, 0.0, 0.0, 0.0, 0.0, 1.645920578215589E9, 0.0, 2022-02-27 11:09:38.215
22.0, -3358.5731218544393, -6345.63789911722, -1604.1623478129325, -10921.531727496593, -1345.709126676217, 344.32862333400533, -5210.750426143459, -2614.8635285930072, -3937.036268357786, -7882.342682164036, -4513.666571815797, -3234.7444575720383, -4792.392825173477, -3841.6390230225356, -10890.082823047975, -14363.454504424872, 0.012, -0.108, 0.992, 192.0, 0.0, 0.0, 0.0, 0.0, 0.0, 0.0, 0.0, 0.0, 0.0, 1.64592057822303E9, 0.0, 2022-02-27 11:09:38.223
24.0, -3519.5950889104715, -6493.248819500068, -1769.20762887092, -11084.788868998156, -1526.7806085086595, 160.3737664668282, -5378.522620024994, -2787.486051021344, -4054.941720359531, -7909.701217377332, -4467.331405559946, -3183.715424980572, -4744.448333316843, -3798.567211457159, -10860.377354666873, -14473.872122034089, 0.012, -0.108, 0.992, 192.0, 0.0, 0.0, 0.0, 0.0, 0.0, 0.0, 0.0, 0.0, 0.0, 1.645920578231109E9, 0.0, 2022-02-27 11:09:38.231
26.0, -3471.225913909187, -6438.598804306842, -1718.111541046088, -11018.605353665991, -1467.9061136133807, 235.07329643646437, -5305.8570988007905, -2700.604820323565, -4014.3286006842377, -8002.259791166758, -4615.456416065266, -3343.7986187694814, -4908.420730640975, -3949.486190019392, -10997.550010389092, -14441.439740829437, 0.012, -0.108, 0.992, 192.0, 0.0, 0.0, 0.0, 0.0, 0.0, 0.0, 0.0, 0.0, 0.0, 1.645920578239116E9, 0.0, 2022-02-27 11:09:38.239
28.0, -3377.840325574914, -6357.417268445167, -1640.5286360417172, -10958.79208550359, -1381.4942695491636, 301.9720675911984, -5257.4879237995065, -2675.2132386223366, -3967.1887716279953, -7812.247611552193, -4425.39953296179, -3118.4706829155307, -4701.175356051369, -3730.8414257575782, -10806.308484829484, -14369.690641127901, 0.014, -0.11, 0.99, 192.0, 0.0, 56.0, 126.0, 72.0, 15.0, 120.0, 0.0, 0.0, 0.0, 1.645920578245256E9, 0.0, 2022-02-27 11:09:38.245
30.0, -3569.573589512538, -6533.169035097246, -1820.4154754180283, -11129.291192208671, -1584.4257574588964, 117.90545200174475, -5410.284448895985, -2823.5617665722093, -4095.867764457198, -8005.277276668225, -4582.264075549135, -3308.0581793854453, -4880.615160538574, -3917.7020094039453, -10979.579207847024, -14509.724320140402, 0.014, -0.11, 0.99, 192.0, 0.0, 0.0, 0.0, 0.0, 0.0, 0.0, 0.0, 0.0, 0.0, 1.645920578252674E9, 0.0, 2022-02-27 11:09:38.252
32.0, -3351.219397928643, -6326.907137263673, -1604.6764379354047, -10922.023465874609, -1349.3748127668873, 338.2936523310724, -5216.874804124213, -2637.684659681876, -3938.7797044252998, -7881.873295530474, -4511.4313973702665, -3235.102085483323, -4809.313095726144, -3841.594319533625, -10898.867058618911, -14364.885016070011, 0.014, -0.11, 0.99, 192.0, 0.0, 0.0, 0.0, 0.0, 0.0, 0.0, 0.0, 0.0, 0.0, 1.645920578260702E9, 0.0, 2022-02-27 11:09:38.260
34.0, -3519.058647043544, -6480.217752482624, -1771.7780794832802, -11085.772345754189, -1533.3520213785198, 167.88395260381134, -5386.435137562173, -2803.3334378401564, -4065.4023367646146, -7890.366958423491, -4470.1030218724045, -3175.937017910125, -4767.1800574278905, -3787.4136909739605, -10868.62514837088, -14472.95570051142, 0.014, -0.11, 0.99, 192.0, 0.0, 0.0, 0.0, 0.0, 0.0, 0.0, 0.0, 0.0, 0.0, 1.645920578268812E9, 0.0, 2022-02-27 11:09:38.268
36.0, -3474.288102899564, -6434.195510649146, -1721.978392836856, -11027.255478770194, -1485.0499016106012, 225.3502875984058, -5326.532462421949, -2731.0031927827827, -4025.973859545453, -7999.890506254495, -4617.937459699805, -3340.9822989681124, -4934.371105953587, -3955.7670302113333, -11015.297295486605, -14450.313383378194, 0.014, -0.11, 0.99, 192.0, 0.0, 0.0, 0.0, 0.0, 0.0, 0.0, 0.0, 0.0, 0.0, 1.645920578275346E9, 0.0, 2022-02-27 11:09:38.275
38.0, -3373.995825528601, -6354.779762599441, -1635.5218452837285, -10961.429591349315, -1389.5632492975294, 305.7048089152347, -5264.014633180455, -2665.445526295367, -3968.038137917297, -7820.2718878116475, -4426.852396351385, -3121.4434649280865, -4721.6272022279745, -3743.201940441363, -10823.139348404331, -14379.525408688238, 0.016, -0.10200000000000001, 0.984, 192.0, 0.0, 64.0, 126.0, 104.0, 15.0, 96.0, 0.0, 0.0, 0.0, 1.645920578283361E9, 0.0, 2022-02-27 11:09:38.283
40.0, -3563.248045831686, -6523.021343114537, -1814.4475596484615, -11131.056980020641, -1582.7046731358378, 123.31457415992907, -5403.266001137019, -2807.8037867312178, -4096.426558068581, -8008.026541236227, -4575.893828379372, -3305.0183421395236, -4891.992198466325, -3919.6242594271016, -10980.540332858604, -14510.149003285052, 0.016, -0.10200000000000001, 0.984, 192.0, 0.0, 0.0, 0.0, 0.0, 0.0, 0.0, 0.0, 0.0, 0.0, 1.645920578291393E9, 0.0, 2022-02-27 11:09:38.291
42.0, -3342.6586798022604, -6322.950878495083, -1604.9670106133237, -10924.124529853409, -1347.9219493772923, 345.5579692790472, -5224.429693750107, -2628.609851433021, -3940.679602704001, -7877.2688361726805, -4515.298249161035, -3231.8163790483927, -4821.137168543001, -3840.4543805664043, -10902.264523776117, -14362.023992779732, 0.016, -0.10200000000000001, 0.984, 192.0, 0.0, 0.0, 0.0, 0.0, 0.0, 0.0, 0.0, 0.0, 0.0, 1.645920578298039E9, 0.0, 2022-02-27 11:09:38.298
44.0, -3505.4017311813514, -6477.379080936799, -1762.9938439123446, -11083.380709097471, -1517.4599310707965, 170.16383053825265, -5386.2116201176195, -2781.987521885338, -4059.456772739503, -7901.296961462136, -4466.727908459653, -3167.7115759505723, -4768.856438262038, -3787.1901735294073, -10869.474514660182, -14467.166598697497, 0.016, -0.10200000000000001, 0.984, 192.0, 0.0, 0.0, 0.0, 0.0, 0.0, 0.0, 0.0, 0.0, 0.0, 1.645920578313116E9, 0.0, 2022-02-27 11:09:38.313
46.0, -3467.470820840695, -6436.542443816954, -1715.7646078782807, -11031.211737538784, -1469.314273514065, 228.1219039108639, -5308.941639535623, -2703.5552505916658, -4020.385923431626, -8011.602820349076, -4621.156110901369, -3351.6664328177494, -4937.254480988322, -3948.9050446635542, -11005.7978040931, -14446.826511243167, 0.016, -0.10200000000000001, 0.988, 192.0, 0.0, 64.0, 126.0, 104.0, 15.5, 0.0, 0.0, 0.0, 0.0, 1.645920578321018E9, 0.0, 2022-02-27 11:09:38.321
48.0, -3357.321424164942, -6333.4338466446225, -1626.916423668435, -10946.252756864162, -1366.6303594863844, 317.90886138783236, -5273.737642018515, -2672.9780641768057, -3956.4375825449924, -7820.428350022835, -4425.421884706246, -3121.0634852723465, -4723.571803995586, -3734.2835944036956, -10812.52226978806, -14373.691603385401, 0.016, -0.10200000000000001, 0.988, 192.0, 0.0, 0.0, 0.0, 0.0, 0.0, 0.0, 0.0, 0.0, 0.0, 1.645920578327778E9, 0.0, 2022-02-27 11:09:38.327
50.0, -3567.5842842560155, -6522.373142525333, -1820.1919579734754, -11126.407817173937, -1579.888353334469, 133.03758299798764, -5420.49919611206, -2793.990408657838, -4097.14181389115, -7998.102366698071, -4576.47497373521, -3290.5344117324844, -4894.2050211674, -3906.0567505427302, -10984.585998605013, -14509.836078862678, 0.016, -0.10200000000000001, 0.988, 192.0, 0.0, 0.0, 0.0, 0.0, 0.0, 0.0, 0.0, 0.0, 0.0, 1.645920578336317E9, 0.0, 2022-02-27 11:09:38.336
52.0, -3353.1416479517998, -6326.951840752583, -1612.4324932613963, -10923.655143219847, -1349.3971645113427, 341.26643434362825, -5207.8894028531795, -2618.104531539027, -3952.347213309671, -7899.3970631834345, -4530.139807479359, -3238.9465855296357, -4841.320793786143, -3836.8557497090997, -10909.908820379833, -14364.639146881003, 0.016, -0.10200000000000001, 0.988, 192.0, 0.0, 0.0, 0.0, 0.0, 0.0, 0.0, 0.0, 0.0, 0.0, 1.645920578343761E9, 0.0, 2022-02-27 11:09:38.343
54.0, -3507.7263126047033, -6470.003005266548, -1766.3466055806407, -11079.29033986215, -1521.6173555394837, 166.60990316985885, -5380.042538647955, -2771.906885135995, -4072.733708945955, -7909.343589466047, -4474.238094596636, -3168.426831773142, -4780.3899384009765, -3776.774260613234, -10868.088706503953, -14472.039278988754, 0.016, -0.10200000000000001, 0.988, 192.0, 0.0, 0.0, 0.0, 0.0, 0.0, 0.0, 0.0, 0.0, 0.0, 1.645920578350838E9, 0.0, 2022-02-27 11:09:38.350
56.0, -3471.225913909187, -6432.027391436982, -1725.5993754386159, -11034.877423629454, -1481.7641951756711, 216.409589816283, -5328.186491511642, -2714.641715841498, -4043.2741097538606, -8018.755378574775, -4633.2260529072355, -3354.192179941199, -4956.767553897805, -3943.585329483191, -11023.410978723881, -14457.86827300409, 0.014, -0.10400000000000001, 0.989, 192.0, 0.0, 48.0, 126.0, 88.0, 15.0, 120.0, 0.0, 0.0, 0.0, 1.645920578358373E9, 0.0, 2022-02-27 11:09:38.358
58.0, -3350.548845594984, -6327.376523897234, -1620.70263870986, -10948.152655142863, -1368.2396850871664, 309.23638453917323, -5266.540380303905, -2659.81288669263, -3957.175190112018, -7821.411826778869, -4426.941803329206, -3126.137331263701, -4732.199577355334, -3724.9629169658324, -10827.117958917375, -14381.447658711393, 0.014, -0.10400000000000001, 0.989, 192.0, 0.0, 0.0, 0.0, 0.0, 0.0, 0.0, 0.0, 0.0, 0.0, 1.645920578365506E9, 0.0, 2022-02-27 11:09:38.365
60.0, -3552.8991881488787, -6512.627781942819, -1812.7488270698582, -11126.92190729641, -1574.7251003652932, 112.76455077702413, -5430.937460772689, -2826.534548584765, -4090.5704010212903, -8006.05958772416, -4569.6576916763415, -3291.204964066144, -4895.6131810680845, -3893.360959692116, -10988.251684695684, -14524.8788028811, 0.014, -0.10400000000000001, 0.989, 192.0, 0.0, 0.0, 0.0, 0.0, 0.0, 0.0, 0.0, 0.0, 0.0, 1.64592057837339E9, 0.0, 2022-02-27 11:09:38.373
62.0, -3333.4050575977635, -6309.472776588533, -1603.178871056899, -10925.197413587262, -1350.738269178661, 341.57935876600254, -5246.669679483138, -2635.941223614362, -3931.8283118996997, -7891.506897390712, -4519.142749207348, -3236.1526174727223, -4842.617194964551, -3831.3572205730943, -10923.11870135292, -14384.107516301576, 0.014, -0.10400000000000001, 0.989, 192.0, 0.0, 0.0, 0.0, 0.0, 0.0, 0.0, 0.0, 0.0, 0.0, 1.645920578380584E9, 0.0, 2022-02-27 11:09:38.380
64.0, -3482.424137881296, -6448.254757911534, -1751.750916451325, -11072.450706058826, -1522.958460206802, 178.1434033087973, -5419.31455365593, -2776.421937515967, -4050.650185424112, -7885.918961276885, -4458.055431610994, -3162.1906950701114, -4774.153801697946, -3761.686833105902, -10875.48713391866, -14478.990671514353, 0.014, -0.10400000000000001, 0.989, 192.0, 0.0, 0.0, 0.0, 0.0, 0.0, 0.0, 0.0, 0.0, 0.0, 1.645920578387995E9, 0.0, 2022-02-27 11:09:38.387
66.0, -3466.3308818734745, -6427.199414634635, -1718.0891893016326, -11037.604336453001, -1480.8477736530035, 211.29104033601766, -5321.8832995752455, -2732.25489047228, -4029.41602819157, -8008.764148803252, -4621.446683579288, -3354.460400874663, -4955.292338763755, -3943.071239360719, -11030.138853804929, -14471.43578188846, 0.012, -0.10800000000000001, 0.9895, 192.0, 0.0, 40.0, 126.0, 64.0, 15.0, 120.0, 0.0, 0.0, 0.0, 1.645920578396393E9, 0.0, 2022-02-27 11:09:38.396
68.0, -3341.1834646682105, -6315.619506313742, -1612.2983827946643, -10941.02244866162, -1361.1094786059236, 320.21109106672895, -5265.847476225791, -2690.2112591518476, -3950.380259797604, -7818.260230810671, -4428.349963229891, -3128.752485364972, -4734.054772145125, -3732.40604786945, -10824.323990860461, -14392.064737327664, 0.012, -0.10800000000000001, 0.9895, 192.0, 0.0, 0.0, 0.0, 0.0, 0.0, 0.0, 0.0, 0.0, 0.0, 1.645920578403202E9, 0.0, 2022-02-27 11:09:38.403
70.0, -3548.853522402468, -6496.646284657274, -1805.3727513996068, -11116.953029269342, -1581.2071062573323, 126.80144629495696, -5440.12402774382, -2791.8446411901286, -4087.441156797547, -7992.894410239985, -4574.0609853340375, -3284.007702351535, -4894.428538611954, -3897.563087649714, -10984.228370693729, -14532.679561696, 0.012, -0.10800000000000001, 0.9895, 192.0, 0.0, 0.0, 0.0, 0.0, 0.0, 0.0, 0.0, 0.0, 0.0, 1.645920578410649E9, 0.0, 2022-02-27 11:09:38.410
72.0, -3337.2719093885316, -6310.568012066843, -1594.7522633972483, -10912.501622736649, -1344.7480016646389, 347.43551581329297, -5236.454932267062, -2602.3465516980355, -3941.193692826473, -7884.644911842932, -4534.051362759038, -3233.1798354601665, -4851.870817169049, -3835.42523806396, -10925.890317665377, -14378.251359254285, 0.012, -0.10800000000000001, 0.9895, 192.0, 0.0, 0.0, 0.0, 0.0, 0.0, 0.0, 0.0, 0.0, 0.0, 1.645920578418511E9, 0.0, 2022-02-27 11:09:38.418
74.0, -3475.0704139554996, -6442.51035958652, -1733.1319133200543, -11057.340926807037, -1505.479396042752, 201.9480111536993, -5396.49342256706, -2764.9778443548494, -4052.773601147366, -7883.639083342444, -4461.542303746021, -3151.8641891317593, -4770.398708629455, -3759.7422313382904, -10861.941976778744, -14466.205473685917, 0.012, -0.10800000000000001, 0.9895, 192.0, 0.0, 0.0, 0.0, 0.0, 0.0, 0.0, 0.0, 0.0, 0.0, 1.645920578425655E9, 0.0, 2022-02-27 11:09:38.425
76.0, -3468.051966196533, -6431.490949570054, -1712.143625276521, -11034.09511257352, -1483.9099626433806, 220.96934568516562, -5320.721008863569, -2709.031427983216, -4028.611365391179, -8001.611590577554, -4617.602183532976, -3340.714078034649, -4945.971661325892, -3934.264652045328, -11022.740426390223, -14468.48535162036, 0.011, -0.11300000000000002, 0.98975, 192.0, 0.0, 40.0, 126.0, 40.0, 15.0, 120.0, 0.0, 0.0, 0.0, 1.645920578440246E9, 0.0, 2022-02-27 11:09:38.440
78.0, -3355.7568020530707, -6336.92071877965, -1608.3868275149857, -10943.235271362695, -1383.9753131837026, 327.2295388256954, -5233.370391532229, -2644.1443138294594, -3971.0109199298527, -7830.553690261089, -4445.06906808246, -3137.3132034913547, -4753.433734587877, -3737.9045770054554, -10825.799205994512, -14382.56524593416, 0.011, -0.11300000000000002, 0.98975, 192.0, 0.0, 0.0, 0.0, 0.0, 0.0, 0.0, 0.0, 0.0, 0.0, 1.645920578448214E9, 0.0, 2022-02-27 11:09:38.448
80.0, -3549.8146474140462, -6512.426616242721, -1794.979190227889, -11122.026875260697, -1585.0739580481004, 119.09009445787603, -5418.7334083000915, -2842.3595836591226, -4107.021284940396, -8008.786500547708, -4583.4487180052665, -3294.0436356119676, -4908.152509707512, -3895.10439575963, -10981.903789270376, -14534.154776830052, 0.011, -0.11300000000000002, 0.98975, 192.0, 0.0, 0.0, 0.0, 0.0, 0.0, 0.0, 0.0, 0.0, 0.0, 1.645920578456373E9, 0.0, 2022-02-27 11:09:38.456
82.0, -3336.42254309923, -6311.707951034064, -1591.3324464955863, -10918.804814673045, -1358.3378622934656, 346.00500416815333, -5229.950574630568, -2613.5000721812335, -3935.672811946012, -7899.285304461158, -4533.2690517031015, -3246.1438472442446, -4852.451962524887, -3838.8003514767115, -10927.901974666354, -14389.740155904312, 0.011, -0.11300000000000002, 0.98975, 192.0, 0.0, 0.0, 0.0, 0.0, 0.0, 0.0, 0.0, 0.0, 0.0, 1.64592057846286E9, 0.0, 2022-02-27 11:09:38.462
84.0, -3482.6029518369382, -6448.053592211437, -1729.2874132737415, -11057.18446459585, -1504.0935878865228, 191.5320982375262, -5368.754907698025, -2767.972978111861, -4053.578263947757, -7887.7741560666755, -4465.140934603326, -3152.467686232053, -4769.124659195502, -3753.304928935162, -10863.350136679428, -14474.00623250082, 0.011, -0.11300000000000002, 0.98975, 192.0, 0.0, 0.0, 0.0, 0.0, 0.0, 0.0, 0.0, 0.0, 0.0, 1.645920578470769E9, 0.0, 2022-02-27 11:09:38.470
86.0, -3490.604876351938, -6442.353897375334, -1718.9832590798449, -11034.005705595697, -1490.0790441130453, 215.5602235269813, -5328.164139767187, -2704.6951895588863, -4052.6618424250896, -8029.417160679956, -4637.562291331565, -3355.2203601861434, -4955.806428886227, -3939.651422459057, -11021.399321722904, -14473.112162722608, 0.0115, -0.11050000000000001, 0.992875, 192.0, 0.0, 48.0, 126.0, 80.0, 15.5, 16.0, 0.0, 0.0, 0.0, 1.645920578478819E9, 0.0, 2022-02-27 11:09:38.478
88.0, -3366.8209155584477, -6337.099532735292, -1608.2750687927091, -10932.953468913254, -1363.6799292182839, 325.17317833580717, -5225.390818761685, -2640.4115725054235, -3978.968140955942, -7830.084303627527, -4451.059335596483, -3135.7038778905726, -4746.616452529008, -3730.8414257575782, -10827.833214739945, -14379.32424298814, 0.0115, -0.11050000000000001, 0.992875, 192.0, 0.0, 0.0, 0.0, 0.0, 0.0, 0.0, 0.0, 0.0, 0.0, 1.645920578485947E9, 0.0, 2022-02-27 11:09:38.485
90.0, -3576.1002988934874, -6531.537357752009, -1804.4339781324838, -11117.690636836367, -1572.8699055755028, 133.41756265372786, -5392.581867287382, -2824.567595072698, -4130.848244529753, -8016.296686684691, -4591.897677409373, -3298.4692810141187, -4900.284695659244, -3882.1850874644624, -10968.604501319469, -14524.454119736449, 0.0115, -0.11050000000000001, 0.992875, 192.0, 0.0, 0.0, 0.0, 0.0, 0.0, 0.0, 0.0, 0.0, 0.0, 1.645920578492527E9, 0.0, 2022-02-27 11:09:38.492
92.0, -3366.9103225362687, -6340.742867081508, -1598.3061907656422, -10919.274201306605, -1343.6304144418734, 353.62694902741305, -5230.822292664325, -2612.7848163586636, -3967.7475652393778, -7915.155043024426, -4552.491551934666, -3260.8512950958366, -4851.446134024398, -3830.7313717283455, -10917.955448383744, -14382.118211045054, 0.0115, -0.11050000000000001, 0.992875, 192.0, 0.0, 0.0, 0.0, 0.0, 0.0, 0.0, 0.0, 0.0, 0.0, 1.645920578500416E9, 0.0, 2022-02-27 11:09:38.500
94.0, -3509.8497283279576, -6480.441269927177, -1726.6722591724706, -11059.017307641187, -1490.3919685354197, 198.48349076312672, -5333.774427625469, -2762.2509315313023, -4081.875572428176, -7901.073444017583, -4482.418833067279, -3171.9360556526253, -4763.849647504049, -3749.8851120335, -10852.755409807613, -14466.026659730276, 0.0115, -0.11050000000000001, 0.992875, 192.0, 0.0, 0.0, 0.0, 0.0, 0.0, 0.0, 0.0, 0.0, 0.0, 1.645920578508528E9, 0.0, 2022-02-27 11:09:38.508
96.0, -3522.567870923027, -6482.631740883797, -1723.0959800596215, -11044.421618511871, -1483.0829480985342, 220.2540898625958, -5295.61999984026, -2706.975067493328, -4079.1039561157177, -8045.979803321338, -4658.617634608464, -3380.47783142064, -4953.347736996143, -3943.87590216111, -11013.218583252261, -14476.420220901993, 0.014750000000000001, -0.11125000000000002, 0.9904375, 192.0, 0.0, 72.0, 126.0, 64.0, 15.0, 112.0, 0.0, 0.0, 0.0, 1.645920578515578E9, 0.0, 2022-02-27 11:09:38.515
98.0, -3386.445747190207, -6366.0673935493705, -1605.0340658466896, -10938.40729456035, -1345.843237142949, 342.3616698219383, -5218.327667513808, -2629.3921624889567, -3998.0565307207744, -7860.214455153282, -4473.344024818423, -3161.8107154143713, -4746.616452529008, -3730.081466446098, -10821.887650714832, -14381.425306966938, 0.014750000000000001, -0.11125000000000002, 0.9904375, 192.0, 0.0, 0.0, 0.0, 0.0, 0.0, 0.0, 0.0, 0.0, 0.0, 1.645920578523014E9, 0.0, 2022-02-27 11:09:38.523
100.0, -3601.223659661253, -6557.443029575709, -1808.9937340013664, -11128.173604985906, -1569.4947921627513, 138.3125946894401, -5392.045425420454, -2796.4491005479217, -4140.81712255682, -8031.629983381032, -4607.096863638981, -3309.7569119640484, -4890.7405007768275, -3878.4970496293367, -10967.464562352248, -14530.198518061463, 0.014750000000000001, -0.11125000000000002, 0.9904375, 192.0, 0.0, 0.0, 0.0, 0.0, 0.0, 0.0, 0.0, 0.0, 0.0, 1.645920578531038E9, 0.0, 2022-02-27 11:09:38.531
102.0, -3388.7926803580144, -6359.428925446145, -1604.4529204908515, -10931.008867145643, -1348.7936674110495, 354.0963356609745, -5198.099338781755, -2616.0481710491385, -3991.775690528833, -7935.182206056382, -4585.706244195252, -3277.972731348602, -4858.308119572177, -3846.9363864584434, -10928.281954322096, -14389.091955315109, 0.014750000000000001, -0.11125000000000002, 0.9904375, 192.0, 0.0, 0.0, 0.0, 0.0, 0.0, 0.0, 0.0, 0.0, 0.0, 1.645920578538243E9, 0.0, 2022-02-27 11:09:38.538
104.0, -3507.9721817937116, -6474.585112879886, -1726.2252242833645, -11056.7597814512, -1484.736977188227, 223.38333408633878, -5328.074732789366, -2745.6212336565536, -4084.9154096740976, -7903.867412074496, -4492.097138416426, -3173.6124364867733, -4749.812751986116, -3755.4283446584163, -10847.279232416062, -14467.121895208586, 0.014750000000000001, -0.11125000000000002, 0.9904375, 192.0, 0.0, 0.0, 0.0, 0.0, 0.0, 0.0, 0.0, 0.0, 0.0, 1.645920578545781E9, 0.0, 2022-02-27 11:09:38.545
106.0, -3517.225803998209, -6476.708528603141, -1724.5264917047612, -11047.461455757792, -1477.4279567513415, 230.6923545232242, -5300.537383620427, -2717.748608320786, -4077.0475956258297, -8050.964242334872, -4661.6351201099305, -3381.148383754299, -4942.037754301758, -3940.299623048261, -11013.50915593018, -14475.906130779522, 0.015375, -0.110625, 0.9882187499999999, 192.0, 0.0, 64.0, 126.0, 72.0, 15.0, 104.0, 0.0, 0.0, 0.0, 1.645920578560703E9, 0.0, 2022-02-27 11:09:38.560
108.0, -3380.1425552538108, -6356.366736455767, -1599.1555570549438, -10939.681343994302, -1343.8539318864266, 355.4597920727482, -5220.473434981517, -2653.934377900884, -3982.544420068791, -7853.0842486720385, -4468.247827082614, -3160.8719421472483, -4731.8419494440495, -3746.465295131838, -10819.786586736034, -14382.878170356533, 0.015375, -0.110625, 0.9882187499999999, 192.0, 0.0, 0.0, 0.0, 0.0, 0.0, 0.0, 0.0, 0.0, 0.0, 1.645920578567924E9, 0.0, 2022-02-27 11:09:38.567
110.0, -3596.730959025736, -6556.124276652847, -1809.3737136571067, -11134.72266611131, -1561.3587571810197, 137.59733886687027, -5392.380701587284, -2812.631763533564, -4141.711192335033, -8028.053704268183, -4606.918049683339, -3306.7617782070374, -4882.448003583909, -3892.5339451472696, -10967.576321074524, -14539.362733288139, 0.015375, -0.110625, 0.9882187499999999, 192.0, 0.0, 0.0, 0.0, 0.0, 0.0, 0.0, 0.0, 0.0, 0.0, 1.645920578575327E9, 0.0, 2022-02-27 11:09:38.575
112.0, -3382.422433188252, -6361.194713258114, -1610.9796298718013, -10932.864061935434, -1333.7956468815385, 359.5278095636141, -5186.364672942719, -2615.8246536045854, -3990.725158539434, -7949.330860296591, -4587.695549451774, -3289.7521006765487, -4857.548160260697, -3859.5651220756918, -10930.338314811983, -14392.08708907212, 0.015375, -0.110625, 0.9882187499999999, 192.0, 0.0, 0.0, 0.0, 0.0, 0.0, 0.0, 0.0, 0.0, 0.0, 1.645920578583303E9, 0.0, 2022-02-27 11:09:38.583
114.0, -3504.0159230251224, -6470.4947436445655, -1732.729581919859, -11054.725772705768, -1459.85948560947, 231.3852586013387, -5321.928003064157, -2749.801009869696, -4087.3293980752705, -7913.545717423644, -4494.064091928493, -3176.428756288142, -4750.796228742151, -3749.2816149332066, -10839.880805001356, -14460.259909660806, 0.015375, -0.110625, 0.9882187499999999, 192.0, 0.0, 0.0, 0.0, 0.0, 0.0, 0.0, 0.0, 0.0, 0.0, 1.645920578591401E9, 0.0, 2022-02-27 11:09:38.591
116.0, -3519.12570227691, -6476.28384545849, -1741.7373349353475, -11051.842397671033, -1477.9196951293584, 216.56605202747014, -5317.81528208438, -2731.182006738425, -4088.9163719315975, -8054.607576681087, -4665.390213178422, -3376.834497074425, -4944.138818280557, -3948.815637685733, -11011.676312884845, -14477.113124980107, 0.012, -0.112, 0.988, 192.0, 0.0, 48.0, 126.0, 64.0, 15.0, 112.0, 0.0, 0.0, 0.0, 1.645920578597937E9, 0.0, 2022-02-27 11:09:38.597
118.0, -3383.6964826222043, -6351.672870120153, -1619.8085689316474, -10942.184739373295, -1347.1396383213566, 344.887416945388, -5208.582306931295, -2635.158912558426, -3998.481213865425, -7863.276644143659, -4481.368301077879, -3169.455012018086, -4734.725324478784, -3743.246643930274, -10824.726322260658, -14375.74796387529, 0.012, -0.112, 0.988, 192.0, 0.0, 0.0, 0.0, 0.0, 0.0, 0.0, 0.0, 0.0, 0.0, 1.645920578605985E9, 0.0, 2022-02-27 11:09:38.605
120.0, -3599.860203249479, -6553.665584762763, -1825.846949320668, -11135.01323878923, -1576.3567777105307, 130.9588707636441, -5396.873402222801, -2798.9748476713717, -4157.670337876122, -8038.9837073068275, -4609.935535184805, -3316.931821934202, -4881.620989039063, -3904.6709423865013, -10963.128323927918, -14529.527965727802, 0.012, -0.112, 0.988, 192.0, 0.0, 0.0, 0.0, 0.0, 0.0, 0.0, 0.0, 0.0, 0.0, 1.645920578612974E9, 0.0, 2022-02-27 11:09:38.612
122.0, -3392.9724565711567, -6363.005204558994, -1622.311964310642, -10933.06522763553, -1343.9209871197925, 370.2789986466168, -5201.876783594702, -2608.9626680568063, -4001.431644133526, -7957.511598767233, -4585.370968028423, -3300.704455459649, -4857.369346305054, -3874.6972530719345, -10933.244041591173, -14387.259112269774, 0.012, -0.112, 0.988, 192.0, 0.0, 0.0, 0.0, 0.0, 0.0, 0.0, 0.0, 0.0, 0.0, 1.645920578620162E9, 0.0, 2022-02-27 11:09:38.620
124.0, -3499.970257278712, -6461.911673773727, -1733.3330790201521, -11048.579042980558, -1471.9070758708806, 226.64668877681362, -5324.319639720874, -2734.78063759573, -4089.408110309614, -7914.551545924133, -4483.692882501231, -3179.2003726006, -4741.788475726661, -3771.7451181107904, -10839.299659645518, -14458.181197426464, 0.012, -0.112, 0.988, 192.0, 0.0, 0.0, 0.0, 0.0, 0.0, 0.0, 0.0, 0.0, 0.0, 1.645920578627595E9, 0.0, 2022-02-27 11:09:38.627
126.0, -3525.607708168949, -6482.341168205878, -1748.040526871744, -11053.004688382709, -1484.0440731101123, 218.13067413934164, -5314.440168671628, -2714.932288519417, -4097.298276102338, -8062.967129107372, -4664.093812000014, -3384.6576076337824, -4937.612108899607, -3960.6397105025903, -11010.201097750796, -14474.587377856658, 0.01, -0.11, 0.984, 192.0, 0.0, 40.0, 126.0, 72.0, 15.0, 96.0, 0.0, 0.0, 0.0, 1.645920578635684E9, 0.0, 2022-02-27 11:09:38.635
128.0, -3373.5264388950395, -6342.508654893477, -1609.7055804378488, -10925.800910687556, -1328.163007278801, 356.42091708432645, -5197.74171087047, -2619.512691439711, -3998.5035656098803, -7867.568179079078, -4477.523801031566, -3168.158610839678, -4729.249147087235, -3759.0269755157206, -10812.924601188255, -14366.874321326533, 0.01, -0.11, 0.984, 192.0, 0.0, 0.0, 0.0, 0.0, 0.0, 0.0, 0.0, 0.0, 0.0, 1.645920578643686E9, 0.0, 2022-02-27 11:09:38.643
130.0, -3596.8427177480125, -6546.736543981618, -1822.0918562521765, -11124.999657273253, -1561.8504955590363, 147.29799596047354, -5378.343806069352, -2790.347074311623, -4148.573177882812, -8024.477425155334, -4598.334979812501, -3303.900754916758, -4863.225503352345, -3894.2773812147834, -10942.788236473589, -14510.30546549624, 0.01, -0.11, 0.984, 192.0, 0.0, 0.0, 0.0, 0.0, 0.0, 0.0, 0.0, 0.0, 0.0, 1.645920578650176E9, 0.0, 2022-02-27 11:09:38.650
132.0, -3388.5244594245505, -6352.254015475991, -1629.8445021920804, -10929.108968866942, -1344.7032981757282, 355.370385094927, -5194.903039324647, -2611.3990082024347, -3997.9224202540427, -7949.867302163519, -4586.712072695741, -3293.0601588559343, -4848.406296778477, -3875.390157150049, -10917.843689661466, -14377.156123775974, 0.01, -0.11, 0.984, 192.0, 0.0, 0.0, 0.0, 0.0, 0.0, 0.0, 0.0, 0.0, 0.0, 1.645920578658194E9, 0.0, 2022-02-27 11:09:38.658
134.0, -3505.4017311813514, -6467.544313376465, -1735.4117912544957, -11041.448836499314, -1465.2686077676544, 240.4824185946487, -5316.652991372704, -2732.1431317500037, -4080.6909299720446, -7898.9276765498735, -4477.099117886915, -3164.0235381154466, -4733.473626789288, -3764.45844941836, -10828.86139498489, -14447.608822299102, 0.01, -0.11, 0.984, 192.0, 0.0, 0.0, 0.0, 0.0, 0.0, 0.0, 0.0, 0.0, 0.0, 1.645920578666348E9, 0.0, 2022-02-27 11:09:38.666
136.0, -3562.868066175946, -6507.57628769592, -1756.1318583645652, -11051.730638948757, -1481.4959742422075, 237.084953437442, -5311.6685523591705, -2713.904108274473, -4099.108767403218, -8048.885530100529, -4660.070497998059, -3379.3155407089644, -4933.5887948976515, -3954.7835534552996, -11003.517926158658, -14468.932386509465, 0.008, -0.108, 0.986, 192.0, 0.0, 32.0, 126.0, 80.0, 15.0, 104.0, 0.0, 0.0, 0.0, 1.645920578673483E9, 0.0, 2022-02-27 11:09:38.673
138.0, -3433.384410546352, -6402.5230887559765, -1613.1701008284213, -10929.06426537803, -1320.161082763801, 372.04478645858603, -5200.759196371937, -2614.595307659544, -4004.2032604459837, -7865.623577311466, -4485.279856357558, -3176.6969772216057, -4729.807940698617, -3756.233007458807, -10809.66124649778, -14358.380658433516, 0.008, -0.108, 0.986, 192.0, 0.0, 0.0, 0.0, 0.0, 0.0, 0.0, 0.0, 0.0, 0.0, 1.645920578687976E9, 0.0, 2022-02-27 11:09:38.687
140.0, -3687.30022755864, -6639.161007304312, -1823.1647399860312, -11125.178471228895, -1548.3947453969415, 160.55258042247064, -5379.148468869743, -2789.78828070024, -4166.1640007691385, -8045.979803321338, -4606.359256071956, -3315.769531222526, -4858.5763405056405, -3890.7011021019343, -10931.254736334651, -14507.891477095065, 0.008, -0.108, 0.986, 192.0, 0.0, 0.0, 0.0, 0.0, 0.0, 0.0, 0.0, 0.0, 0.0, 1.64592057869603E9, 0.0, 2022-02-27 11:09:38.696
142.0, -3521.405580211351, -6488.152621764258, -1626.9834789018012, -10932.238213090684, -1330.6887544022507, 374.0564434595637, -5193.003141045945, -2608.6050401455213, -4030.51126366988, -7977.136430398993, -4612.729503241719, -3323.6820487597047, -4851.870817169049, -3878.452346140426, -10917.664875705825, -14374.22804525233, 0.008, -0.108, 0.986, 192.0, 0.0, 0.0, 0.0, 0.0, 0.0, 0.0, 0.0, 0.0, 0.0, 1.645920578703011E9, 0.0, 2022-02-27 11:09:38.703
144.0, -3668.792983149646, -6628.990963577147, -1738.0492971002218, -11043.28167954465, -1444.5038371686742, 262.0071485051094, -5316.787101839435, -2723.1353787345147, -4126.869634016709, -7927.8061303861305, -4516.75111255063, -3203.9214019681694, -4726.589289497053, -3760.502190649771, -10816.813804723479, -14436.790577982734, 0.008, -0.108, 0.986, 192.0, 0.0, 0.0, 0.0, 0.0, 0.0, 0.0, 0.0, 0.0, 0.0, 1.645920578710551E9, 0.0, 2022-02-27 11:09:38.710
146.0, -3730.8414257575782, -6678.567132779019, -1770.30286434923, -11058.391458796437, -1469.448383980797, 253.42407863427147, -5323.67143913167, -2719.3132304326573, -4158.9443873100745, -8095.466565545388, -4710.876013144972, -3431.2386430786423, -4932.672373374984, -3953.196579598973, -10998.622894122946, -14462.942118995443, 0.014, -0.106, 0.986, 192.0, 0.0, 56.0, 126.0, 88.0, 15.0, 104.0, 0.0, 0.0, 0.0, 1.64592057871862E9, 0.0, 2022-02-27 11:09:38.718
148.0, -3585.9127147093673, -6551.653927761785, -1632.571415015628, -10930.807701445545, -1310.1698529922787, 387.0428069880971, -5182.989559529968, -2608.1133017675047, -4061.8260576517655, -7899.598228883533, -4532.844368558451, -3224.753227800516, -4733.093647133547, -3749.0580974886534, -10804.833269695435, -14350.848120552078, 0.014, -0.106, 0.986, 192.0, 0.0, 0.0, 0.0, 0.0, 0.0, 0.0, 0.0, 0.0, 0.0, 1.645920578725745E9, 0.0, 2022-02-27 11:09:38.725
150.0, -3803.819871404156, -6748.461037690764, -1839.6603273940477, -11131.01227653173, -1542.024498227179, 172.30959800596216, -5404.428291848694, -2794.348036569123, -4222.065713651862, -8057.580358693643, -4641.719715800252, -3354.438049130207, -4858.553988761186, -3874.585494349658, -10924.884489164888, -14502.616465403613, 0.014, -0.106, 0.986, 192.0, 0.0, 0.0, 0.0, 0.0, 0.0, 0.0, 0.0, 0.0, 0.0, 1.645920578733273E9, 0.0, 2022-02-27 11:09:38.733
152.0, -3597.4909183372165, -6552.682108006729, -1654.431421092918, -10943.816416718533, -1328.5876904234517, 375.4198998713374, -5203.374350473207, -2615.623487904488, -4069.537409488846, -7985.406575847456, -4634.611861063464, -3359.0872119769115, -4852.4072590359765, -3868.997558235831, -10925.44328277627, -14374.51861793025, 0.014, -0.106, 0.986, 192.0, 0.0, 0.0, 0.0, 0.0, 0.0, 0.0, 0.0, 0.0, 0.0, 1.645920578740278E9, 0.0, 2022-02-27 11:09:38.740
154.0, -3695.056282884632, -6648.727553931183, -1758.5234950212832, -11051.37301103747, -1439.3852876884089, 253.46878212318208, -5278.789136265414, -2698.1237766890263, -4157.983262298496, -7937.462083990823, -4529.4469034012445, -3228.1506929577226, -4727.729228464274, -3760.882170305511, -10811.18116512074, -14432.879022703055, 0.014, -0.106, 0.986, 192.0, 0.0, 0.0, 0.0, 0.0, 0.0, 0.0, 0.0, 0.0, 0.0, 1.645920578748306E9, 0.0, 2022-02-27 11:09:38.748
156.0, -3708.5120330467266, -6651.9909086216585, -1789.078329691688, -11068.00270891222, -1478.254971296188, 229.01597368907616, -5308.360494179785, -2711.3783611510235, -4170.164963026638, -8099.93691443645, -4699.744844406229, -3437.2736140815755, -4921.474149402875, -3960.9526349249645, -10989.145754473897, -14470.206435943419, 0.012, -0.106, 0.98, 192.0, 0.0, 48.0, 126.0, 88.0, 15.0, 80.0, 0.0, 0.0, 0.0, 1.645920578755445E9, 0.0, 2022-02-27 11:09:38.755
158.0, -3520.802083111058, -6488.174973508713, -1639.27693835222, -10930.137149111886, -1311.7791785930608, 385.433481387315, -5182.050786262845, -2583.325217166569, -4046.425705722059, -7891.261028201703, -4503.071844943982, -3214.739646284538, -4718.006219626215, -3751.427382400916, -10805.436766795727, -14347.495358883782, 0.012, -0.106, 0.98, 192.0, 0.0, 0.0, 0.0, 0.0, 0.0, 0.0, 0.0, 0.0, 0.0, 1.6459205787631E9, 0.0, 2022-02-27 11:09:38.763
160.0, -3722.459521586838, -6670.453449541742, -1846.231740263908, -11131.883994565487, -1537.0847627025562, 160.7760978670237, -5363.658709962215, -2803.6016587736203, -4200.11630059675, -8037.1061607725815, -4601.978314158716, -3331.7510285080707, -4833.140055315502, -3867.745860546334, -10921.151747840851, -14499.86720083561, 0.012, -0.106, 0.98, 192.0, 0.0, 0.0, 0.0, 0.0, 0.0, 0.0, 0.0, 0.0, 0.0, 1.64592057877087E9, 0.0, 2022-02-27 11:09:38.770
162.0, -3528.312269248041, -6482.519982161521, -1662.1874764189097, -10945.112817896941, -1338.8471411284377, 359.9524927082649, -5171.366652413208, -2606.839252333552, -4043.0729440537625, -7975.884732709495, -4604.5264130266205, -3340.0882291899, -4839.934985629915, -3875.0325292387643, -10921.06234086303, -14374.004527807776, 0.012, -0.106, 0.98, 192.0, 0.0, 0.0, 0.0, 0.0, 0.0, 0.0, 0.0, 0.0, 0.0, 1.645920578778874E9, 0.0, 2022-02-27 11:09:38.778
164.0, -3599.56963057156, -6550.558692283475, -1751.4156402844956, -11039.146606820417, -1455.3667849739534, 248.21612217618494, -5312.875546559757, -2708.5620413496545, -4128.970697995508, -7905.789662097653, -4493.12531866137, -3194.936000697136, -4720.040228371648, -3751.9414725233883, -10816.85850821239, -14426.195851110919, 0.012, -0.106, 0.98, 192.0, 0.0, 0.0, 0.0, 0.0, 0.0, 0.0, 0.0, 0.0, 0.0, 1.64592057878549E9, 0.0, 2022-02-27 11:09:38.785
166.0, -3635.0418490221323, -6572.686919294229, -1793.459271604928, -11068.740316479245, -1498.2150790947771, 219.22590961765167, -5311.534441892439, -2715.4016751529784, -4141.48767489048, -8060.1731610504585, -4670.575817892053, -3411.345590513419, -4918.121387734579, -3953.7330214659005, -11005.104900014985, -14470.541712110247, 0.016, -0.11, 0.986, 192.0, 0.0, 64.0, 126.0, 72.0, 15.0, 104.0, 0.0, 0.0, 0.0, 1.645920578793472E9, 0.0, 2022-02-27 11:09:38.793
168.0, -3445.4096490633074, -6408.9156876701945, -1625.888243423491, -10926.605573487946, -1325.1455217773346, 377.65507431686814, -5192.086719523278, -2604.2464499767366, -4017.100216996696, -7854.291242872625, -4481.9047429448065, -3204.0555124349016, -4720.822539427583, -3743.7607340527456, -10813.215173866174, -14350.22227170733, 0.016, -0.11, 0.986, 192.0, 0.0, 0.0, 0.0, 0.0, 0.0, 0.0, 0.0, 0.0, 0.0, 1.645920578808425E9, 0.0, 2022-02-27 11:09:38.808
170.0, -3667.4742302267828, -6605.901611554816, -1845.583539674704, -11137.87426207951, -1556.0166902562012, 154.56231290844835, -5340.614061428793, -2782.993350385827, -4168.801506614865, -7989.943979971884, -4579.894790636872, -3311.32153407592, -4828.177968046423, -3847.8081044922, -10920.145919340363, -14503.845811348656, 0.016, -0.11, 0.986, 192.0, 0.0, 0.0, 0.0, 0.0, 0.0, 0.0, 0.0, 0.0, 0.0, 1.645920578815128E9, 0.0, 2022-02-27 11:09:38.815
172.0, -3465.6826812842705, -6415.040065650948, -1654.6549385374713, -10937.624983504413, -1360.997719883647, 348.46369605823713, -5179.88266705068, -2634.3095462691244, -4026.800874090299, -7959.590311001577, -4599.787843202096, -3340.6246710568275, -4857.5705120051525, -3869.578703591669, -10924.34804729796, -14376.932606331422, 0.016, -0.11, 0.986, 192.0, 0.0, 0.0, 0.0, 0.0, 0.0, 0.0, 0.0, 0.0, 0.0, 1.645920578824322E9, 0.0, 2022-02-27 11:09:38.824
174.0, -3531.6203274274267, -6491.348921221366, -1733.5118929757946, -11020.460548455781, -1454.8750465959367, 248.57375008746985, -5296.938752763123, -2725.3034979466797, -4083.842525940243, -7886.455403143812, -4472.964045162684, -3181.435547046131, -4714.8769754024715, -3736.362306638039, -10817.484357057137, -14424.519470276771, 0.016, -0.11, 0.986, 192.0, 0.0, 0.0, 0.0, 0.0, 0.0, 0.0, 0.0, 0.0, 0.0, 1.645920578831042E9, 0.0, 2022-02-27 11:09:38.831
176.0, -3574.245104103697, -6519.825043657428, -1780.8528877321348, -11055.865711672988, -1516.3870473369418, 204.22788908814064, -5328.119436278276, -2738.1557510084813, -4101.589811037757, -8025.930288544928, -4660.651643353897, -3372.587665627917, -4916.489710389342, -3936.4104195130376, -11007.317722716061, -14465.378459141071, 0.014, -0.11, 0.988, 192.0, 0.0, 56.0, 126.0, 72.0, 15.0, 112.0, 0.0, 0.0, 0.0, 1.645920578838238E9, 0.0, 2022-02-27 11:09:38.838
178.0, -3383.3388547109193, -6346.129637495236, -1617.9980776307677, -10910.020579102109, -1336.768428894094, 364.73576602170067, -5190.656207878138, -2637.684659681876, -3980.041024689797, -7826.664486725866, -4464.917417158773, -3166.4151747721644, -4715.145196335936, -3742.26316717424, -10824.413397838283, -14346.131902472009, 0.014, -0.11, 0.988, 192.0, 0.0, 0.0, 0.0, 0.0, 0.0, 0.0, 0.0, 0.0, 0.0, 1.645920578845701E9, 0.0, 2022-02-27 11:09:38.845
180.0, -3599.368464871462, -6543.093209635403, -1831.6807546235032, -11118.33883742557, -1563.9962630267457, 140.16778947923058, -5392.335998098373, -2817.996182202838, -4138.179616711094, -7969.402726817457, -4557.945377581761, -3274.0164725800128, -4820.220747020334, -3850.7361830158457, -10929.39954154486, -14505.298674738251, 0.014, -0.11, 0.988, 192.0, 0.0, 0.0, 0.0, 0.0, 0.0, 0.0, 0.0, 0.0, 0.0, 1.645920578853721E9, 0.0, 2022-02-27 11:09:38.853
182.0, -3402.0696165644667, -6360.054774290893, -1645.2001506328763, -10937.245003848673, -1352.6381674573622, 342.048745399564, -5212.851490122258, -2631.2473572787476, -3981.560943312758, -7919.2901157486585, -4564.963825340727, -3304.168975850222, -4840.851407152582, -3865.711851800901, -10932.707599724246, -14383.883998857022, 0.014, -0.11, 0.988, 192.0, 0.0, 0.0, 0.0, 0.0, 0.0, 0.0, 0.0, 0.0, 0.0, 1.645920578860792E9, 0.0, 2022-02-27 11:09:38.860
184.0, -3473.5951988214492, -6432.005039692526, -1720.3914189805294, -11022.829833368043, -1439.2064737327664, 261.49305838263734, -5305.275953444952, -2729.170349737448, -4039.0943335407183, -7835.404018807891, -4436.016611578061, -3143.9963750834913, -4696.325027504567, -3722.2136523978297, -10809.214211608674, -14428.498080789816, 0.014, -0.11, 0.988, 192.0, 0.0, 0.0, 0.0, 0.0, 0.0, 0.0, 0.0, 0.0, 0.0, 1.645920578867377E9, 0.0, 2022-02-27 11:09:38.867
186.0, -3538.5940716974824, -6478.9437030486715, -1779.2435621313527, -11058.547921007625, -1511.6931810013273, 205.47958677763782, -5350.471180733583, -2746.0012133122937, -4080.4674125274914, -8010.194660448392, -4624.844148736495, -3362.6858428342157, -4914.075721988168, -3927.9838118533867, -11004.054368025585, -14475.570854612692, 0.012, -0.112, 0.986, 192.0, 0.0, 48.0, 126.0, 64.0, 15.0, 104.0, 0.0, 0.0, 0.0, 1.6459205788754E9, 0.0, 2022-02-27 11:09:38.875
188.0, -3350.861770017358, -6314.188994668602, -1605.3469902690638, -10899.15763129683, -1335.2485102711332, 365.33926312199395, -5222.529795471406, -2628.542796199655, -3950.939053408987, -7804.536259715112, -4447.371297761357, -3152.62414844324, -4718.453254515321, -3731.7131437913354, -10831.409493852794, -14352.79272231969, 0.012, -0.112, 0.986, 192.0, 0.0, 0.0, 0.0, 0.0, 0.0, 0.0, 0.0, 0.0, 0.0, 1.645920578883354E9, 0.0, 2022-02-27 11:09:38.883
190.0, -3565.483220277217, -6516.606392455864, -1808.6137543456264, -11106.045377975151, -1565.8067543276256, 141.508894146549, -5410.2173936626195, -2808.899022209528, -4106.082511673273, -7942.111246837527, -4535.347763937445, -3251.5082659135182, -4817.650296407974, -3832.072476395664, -10931.344143312472, -14503.10820378163, 0.012, -0.112, 0.986, 192.0, 0.0, 0.0, 0.0, 0.0, 0.0, 0.0, 0.0, 0.0, 0.0, 1.645920578890452E9, 0.0, 2022-02-27 11:09:38.890
192.0, -3385.350511711897, -6342.77687582694, -1636.8182464621361, -10933.378152057905, -1374.2076008567335, 320.68047770029045, -5238.488941012495, -2640.8139039056186, -3972.2849693638054, -7904.806185341619, -4569.881209120895, -3296.3235135464092, -4847.311061300166, -3859.9003982425215, -10945.716314997235, -14388.17553379244, 0.012, -0.112, 0.986, 192.0, 0.0, 0.0, 0.0, 0.0, 0.0, 0.0, 0.0, 0.0, 0.0, 1.645920578899009E9, 0.0, 2022-02-27 11:09:38.899
194.0, -3452.115172399899, -6404.065359123392, -1709.7296368753478, -11014.425577452848, -1455.6573576518724, 236.30264238150627, -5320.810415841391, -2738.669841130953, -4027.3596677016817, -7827.223280337248, -4435.502521455589, -3132.6416889001953, -4703.969324108282, -3716.8715854730112, -10828.347304862416, -14432.47669130286, 0.01, -0.11, 0.988, 192.0, 0.0, 32.0, 126.0, 80.0, 15.0, 120.0, 0.0, 0.0, 0.0, 1.645920578905943E9, 0.0, 2022-02-27 11:09:38.905
196.0, -3530.0333535710997, -6470.6735576002075, -1770.9734166828891, -11060.827798942066, -1522.9137567178914, 177.76342365305706, -5364.753945440525, -2758.2723210182576, -4070.163258333595, -8002.036273722205, -4624.82179699204, -3364.6527963462827, -4921.988239525347, -3932.007125855342, -11023.7015514018, -14487.126706496085, 0.01, -0.11, 0.988, 192.0, 0.0, 0.0, 0.0, 0.0, 0.0, 0.0, 0.0, 0.0, 0.0, 1.645920578913977E9, 0.0, 2022-02-27 11:09:38.913
198.0, -3351.509970606562, -6306.879974231717, -1604.5199757242176, -10907.628942445392, -1343.093972574946, 350.0283181701086, -5226.173129817621, -2634.801284647141, -3949.5979487416685, -7812.649942952388, -4463.0622223689825, -3162.4812677480304, -4737.742809980251, -3740.631489829003, -10850.475531873171, -14362.783952091213, 0.01, -0.11, 0.988, 192.0, 0.0, 0.0, 0.0, 0.0, 0.0, 0.0, 0.0, 0.0, 0.0, 1.645920578920025E9, 0.0, 2022-02-27 11:09:38.920
200.0, -3572.9710546697447, -6517.411055256254, -1817.3756381721066, -11114.539040868169, -1572.6910916198603, 128.12019921782007, -5415.492405354072, -2814.84458623464, -4117.057218200829, -7950.359040541535, -4551.731592623186, -3256.8950363272475, -4837.208072806367, -3842.6895550119348, -10947.415047575838, -14518.06152082223, 0.01, -0.11, 0.988, 192.0, 0.0, 0.0, 0.0, 0.0, 0.0, 0.0, 0.0, 0.0, 0.0, 1.645920578935617E9, 0.0, 2022-02-27 11:09:38.935
202.0, -3399.655628163294, -6352.991623043016, -1641.4227058199294, -10940.17308237232, -1378.4767840476973, 318.6688206993128, -5251.005917907467, -2642.4455812508563, -3982.253847390872, -7920.698275649343, -4587.203811073758, -3297.8657839138255, -4873.328491846143, -3867.9023227575212, -10964.111800683952, -14401.85480139909, 0.01, -0.11, 0.988, 192.0, 0.0, 0.0, 0.0, 0.0, 0.0, 0.0, 0.0, 0.0, 0.0, 1.645920578943642E9, 0.0, 2022-02-27 11:09:38.943
204.0, -3456.1608381463097, -6409.943867915138, -1701.2583257267866, -11015.967847820264, -1450.248235493688, 233.15104641330797, -5336.300174748919, -2740.323870220646, -4037.708525384489, -7832.431236795335, -4451.886350141329, -3137.827293613827, -4725.471702274287, -3718.570318051615, -10834.516386332081, -14439.092807661631, 0.01, -0.109, 0.988, 192.0, 0.0, 40.0, 126.0, 80.0, 15.0, 112.0, 0.0, 0.0, 0.0, 1.645920578950274E9, 0.0, 2022-02-27 11:09:38.950
206.0, -3539.376382753418, -6484.28576997349, -1764.11143113511, -11071.511932791702, -1534.9836987237572, 177.5622579529593, -5377.0027014020325, -2765.8495623886065, -4079.126307860173, -8007.333637158113, -4634.924785485839, -3368.6090551148723, -4935.488693176352, -3928.6767159315013, -11026.070836314064, -14499.040186290764, 0.01, -0.109, 0.988, 192.0, 0.0, 0.0, 0.0, 0.0, 0.0, 0.0, 0.0, 0.0, 0.0, 1.645920578958233E9, 0.0, 2022-02-27 11:09:38.958
208.0, -3348.8277612719253, -6319.240488915502, -1589.633713916983, -10908.165384312319, -1335.0249928265803, 352.21878912672867, -5226.262536795442, -2634.5330637136776, -3949.35207955266, -7811.4653004962565, -4468.136068360337, -3170.7961166854047, -4748.963385696815, -3732.562510080637, -10853.649479585825, -14362.51573115775, 0.01, -0.109, 0.988, 192.0, 0.0, 0.0, 0.0, 0.0, 0.0, 0.0, 0.0, 0.0, 0.0, 1.6459205789663E9, 0.0, 2022-02-27 11:09:38.966
210.0, -3583.8563542194793, -6527.469340261143, -1803.5846118431823, -11113.756729812232, -1568.5560188956285, 134.95983302114405, -5419.694533311669, -2823.8746909945835, -4110.932840220075, -7950.202578330348, -4545.763676853619, -3252.6258531362837, -4839.2420815518, -3824.7411042143235, -10943.8834719519, -14514.529945198292, 0.01, -0.109, 0.988, 192.0, 0.0, 0.0, 0.0, 0.0, 0.0, 0.0, 0.0, 0.0, 0.0, 1.645920578973238E9, 0.0, 2022-02-27 11:09:38.973
212.0, -3417.9840586166456, -6371.342405240823, -1638.8075517186585, -10940.061323650041, -1380.3319788374877, 326.73780044767864, -5254.51514178695, -2650.6039679770433, -3993.0497399627857, -7922.106435550027, -4591.33888379799, -3299.072778114412, -4884.01262569578, -3853.4854475838483, -10968.090411196998, -14398.613798453069, 0.01, -0.109, 0.988, 192.0, 0.0, 0.0, 0.0, 0.0, 0.0, 0.0, 0.0, 0.0, 0.0, 1.64592057898089E9, 0.0, 2022-02-27 11:09:38.980
214.0, -3485.6204373384044, -6444.074981698392, -1695.3127617016748, -11005.306065715084, -1441.5310551561183, 263.9964537616317, -5329.125264778765, -2740.7262016208415, -4044.2128830209836, -7820.674219211844, -4451.171094318759, -3122.8963283176818, -4725.024667385182, -3693.0669776281093, -10833.734075276147, -14425.502947032805, 0.012, -0.1105, 0.991, 192.0, 0.0, 56.0, 126.0, 64.0, 15.5, 8.0, 0.0, 0.0, 0.0, 1.645920578987974E9, 0.0, 2022-02-27 11:09:38.987
216.0, -3612.600697589004, -6556.526608053042, -1777.5448295527494, -11075.423488071381, -1520.924451461369, 189.20751681417428, -5356.573206969882, -2720.676686844431, -4103.221488382994, -8018.77773031923, -4648.693460070308, -3364.451630646185, -4939.109675778112, -3909.3424569776607, -11022.606315923491, -14485.115049495107, 0.012, -0.1105, 0.991, 192.0, 0.0, 0.0, 0.0, 0.0, 0.0, 0.0, 0.0, 0.0, 0.0, 1.645920578995888E9, 0.0, 2022-02-27 11:09:38.995
218.0, -3460.9441114597457, -6423.466673310599, -1600.7872344001812, -10912.9263058813, -1327.9841933231585, 371.240123658195, -5223.625030949715, -2606.079293022072, -3991.8203940177436, -7836.476902541745, -4500.188469909247, -3188.9233814386585, -4762.03915620317, -3731.7801990247012, -10840.305488146007, -14351.69748684138, 0.012, -0.1105, 0.991, 192.0, 0.0, 0.0, 0.0, 0.0, 0.0, 0.0, 0.0, 0.0, 0.0, 1.645920579002518E9, 0.0, 2022-02-27 11:09:39.002
220.0, -3713.250602871252, -6659.0317081250805, -1816.101588738154, -11116.416587402415, -1570.8135450856144, 150.9413303066886, -5424.008419991544, -2804.406321574011, -4154.742259352477, -7974.454221064356, -4576.385566757389, -3274.93289410268, -4838.549177473686, -3816.828586677145, -10933.735779969189, -14507.48914569487, 0.012, -0.1105, 0.991, 192.0, 0.0, 0.0, 0.0, 0.0, 0.0, 0.0, 0.0, 0.0, 0.0, 1.6459205790105E9, 0.0, 2022-02-27 11:09:39.010
222.0, -3597.4909183372165, -6546.401267814787, -1666.0096247207673, -10957.40627734736, -1386.2104876292335, 323.4520940127485, -5210.146929043166, -2621.3008309961356, -4052.8853598696423, -7970.475610551312, -4641.451494866788, -3345.944386237191, -4901.06700671518, -3868.7069855579125, -10958.54621631458, -14395.573961207148, 0.012, -0.1105, 0.991, 192.0, 0.0, 0.0, 0.0, 0.0, 0.0, 0.0, 0.0, 0.0, 0.0, 1.645920579018536E9, 0.0, 2022-02-27 11:09:39.018
224.0, -3653.079706797565, -6610.282553468055, -1713.3282677326522, -11018.672408899356, -1437.418334176342, 258.98966300364293, -5291.686092816126, -2713.032390240716, -4115.179671666583, -7876.1512489499155, -4513.219536926691, -3182.3072650798877, -4745.8117897286165, -3716.0222191837097, -10815.271534356063, -14416.383435295038, 0.014, -0.11025, 0.9915, 192.0, 0.0, 64.0, 126.0, 72.0, 15.5, 0.0, 0.0, 0.0, 0.0, 1.645920579025813E9, 0.0, 2022-02-27 11:09:39.025
226.0, -3755.920083036433, -6704.4057493693535, -1798.7566350408358, -11088.611017300012, -1530.2898323881427, 192.22500231564075, -5356.930834881167, -2746.3364894791234, -4162.6994803785665, -8065.671690186464, -4698.537850205642, -3406.0258753330563, -4950.240844516855, -3923.8263873846995, -11013.598562908002, -14485.606787873125, 0.014, -0.11025, 0.9915, 192.0, 0.0, 0.0, 0.0, 0.0, 0.0, 0.0, 0.0, 0.0, 0.0, 1.645920579033186E9, 0.0, 2022-02-27 11:09:39.033
228.0, -3561.594016741993, -6521.948459380682, -1622.2225573328208, -10917.709579194734, -1332.7898183810496, 384.8299842870217, -5209.208155776043, -2587.616752101988, -4034.936909072031, -7875.36893789398, -4547.261243732124, -3226.2731464234766, -4776.299569165655, -3740.720896806824, -10846.09458995993, -14344.366114660039, 0.014, -0.11025, 0.9915, 192.0, 0.0, 0.0, 0.0, 0.0, 0.0, 0.0, 0.0, 0.0, 0.0, 1.645920579041206E9, 0.0, 2022-02-27 11:09:39.041
230.0, -3776.1260600240303, -6707.8702697599265, -1825.8916528095785, -11118.562354870124, -1566.1643822389105, 156.0375280424986, -5400.49438482456, -2777.003082871805, -4198.529326740423, -7995.889543996996, -4616.261078865657, -3299.4974612590627, -4859.783334706228, -3816.828586677145, -10927.20907058824, -14493.385194943572, 0.014, -0.11025, 0.9915, 192.0, 0.0, 0.0, 0.0, 0.0, 0.0, 0.0, 0.0, 0.0, 0.0, 1.645920579055308E9, 0.0, 2022-02-27 11:09:39.055
232.0, -3590.830098489535, -6544.344907324899, -1662.0086624632672, -10957.518036069636, -1385.3164178510212, 335.34322206297185, -5227.268365295931, -2620.8537961070297, -4059.389717506137, -7970.967348929328, -4657.030660752137, -3352.828723529425, -4899.792957281227, -3861.912055243499, -10961.74251577169, -14391.103612316087, 0.014, -0.11025, 0.9915, 192.0, 0.0, 0.0, 0.0, 0.0, 0.0, 0.0, 0.0, 0.0, 0.0, 1.645920579062889E9, 0.0, 2022-02-27 11:09:39.062
234.0, -3622.636630849437, -6576.866695507371, -1710.62370665356, -11014.246763497205, -1443.4756569237302, 282.41429119280474, -5303.0407789994215, -2684.869192227029, -4101.47805231548, -7879.056975729106, -4517.153443950826, -3189.683340750139, -4740.581481526075, -3706.3215620901065, -10815.964438434177, -14411.823679426156, 0.012, -0.108125, 0.98875, 192.0, 0.0, 40.0, 126.0, 88.0, 15.0, 104.0, 0.0, 0.0, 0.0, 1.645920579070839E9, 0.0, 2022-02-27 11:09:39.070
236.0, -3702.499413788249, -6646.98411786367, -1797.6613995625257, -11091.67320629039, -1545.3996116399303, 201.81390068696746, -5379.997835159044, -2741.4191056989557, -4148.215549971527, -8050.740724890319, -4697.755539149706, -3406.316448010975, -4950.710231150417, -3906.2802679872834, -11010.044635539609, -14488.691328607956, 0.012, -0.108125, 0.98875, 192.0, 0.0, 0.0, 0.0, 0.0, 0.0, 0.0, 0.0, 0.0, 0.0, 1.645920579077992E9, 0.0, 2022-02-27 11:09:39.077
238.0, -3494.963466520723, -6456.390792893266, -1618.8474439200693, -10916.659047205336, -1346.0220510985914, 392.7648535686557, -5211.197461032565, -2598.390292929446, -4019.7824263313328, -7865.5565220781, -4550.703412378241, -3218.1371114417448, -4782.647464590963, -3749.3263184221173, -10846.876901015867, -14352.457446152861, 0.012, -0.108125, 0.98875, 192.0, 0.0, 0.0, 0.0, 0.0, 0.0, 0.0, 0.0, 0.0, 0.0, 1.645920579085513E9, 0.0, 2022-02-27 11:09:39.085
240.0, -3698.856079442034, -6645.777123663083, -1828.2832894662965, -11119.411721159426, -1573.2275334867877, 154.94229256418856, -5378.723785725091, -2795.666789491986, -4168.153306025661, -7980.310378111646, -4607.968581672738, -3278.1068418153336, -4851.915520657959, -3811.3747610300497, -10923.699846708758, -14498.526096168292, 0.012, -0.108125, 0.98875, 192.0, 0.0, 0.0, 0.0, 0.0, 0.0, 0.0, 0.0, 0.0, 0.0, 1.645920579093445E9, 0.0, 2022-02-27 11:09:39.093
242.0, -3531.7097344052477, -6490.387796209789, -1669.407089877974, -10963.374193116928, -1393.9888946996803, 324.9049574023435, -5235.449103766573, -2624.1171507975046, -4050.449019724014, -7983.909008968951, -4665.904303300894, -3356.5391131090064, -4915.595640611129, -3881.0898519861526, -10969.766792031145, -14403.240609555318, 0.012, -0.108125, 0.98875, 192.0, 0.0, 0.0, 0.0, 0.0, 0.0, 0.0, 0.0, 0.0, 0.0, 1.645920579101455E9, 0.0, 2022-02-27 11:09:39.101
244.0, -3552.8768364044236, -6510.8843458753045, -1705.594564151116, -11005.08254827053, -1435.9878225312023, 280.9614278032098, -5285.673473557648, -2697.967314477839, -4071.8843426566536, -7869.244559913226, -4506.357551378912, -3172.8971806642035, -4742.503731549231, -3715.150501149953, -10820.703008258703, -14412.293066059718, 0.011, -0.1050625, 0.987375, 192.0, 0.0, 40.0, 126.0, 104.0, 15.0, 104.0, 0.0, 0.0, 0.0, 1.645920579107678E9, 0.0, 2022-02-27 11:09:39.107
246.0, -3653.146762030931, -6595.910381783293, -1800.6341815750816, -11091.092060934552, -1539.7446202927376, 193.6778657052357, -5355.969709869589, -2728.3880386815117, -4143.409924913636, -8060.955472106394, -4694.916867603883, -3390.4690611921624, -4955.940539352959, -3931.2695182883167, -11011.229277995739, -14488.959549541421, 0.011, -0.1050625, 0.987375, 192.0, 0.0, 0.0, 0.0, 0.0, 0.0, 0.0, 0.0, 0.0, 0.0, 1.645920579115151E9, 0.0, 2022-02-27 11:09:39.115
248.0, -3440.514617027595, -6402.098405611326, -1612.343086283575, -10912.814547159023, -1336.1872835382562, 382.3712923969379, -5188.242219476965, -2590.3213131810803, -3999.509394110369, -7866.897626745418, -4535.70539184873, -3202.557945556396, -4784.2791419362, -3756.925911536922, -10846.407514382305, -14348.568242617637, 0.011, -0.1050625, 0.987375, 192.0, 0.0, 0.0, 0.0, 0.0, 0.0, 0.0, 0.0, 0.0, 0.0, 1.645920579123165E9, 0.0, 2022-02-27 11:09:39.123
250.0, -3653.3255759865733, -6596.268009694578, -1821.7118765964362, -11113.823785045599, -1569.9418270518574, 167.03458631450968, -5390.369044586307, -2771.638664202531, -4163.861771090242, -7978.879866466506, -4592.210601831746, -3262.527675929985, -4851.7590584467725, -3821.8577291795887, -10919.453015262248, -14500.716567124911, 0.011, -0.1050625, 0.987375, 192.0, 0.0, 0.0, 0.0, 0.0, 0.0, 0.0, 0.0, 0.0, 0.0, 1.645920579131213E9, 0.0, 2022-02-27 11:09:39.131
