%OpenBCI Raw EEG Data
%Number of channels = 16
%Sample Rate = 125 Hz
%Board = OpenBCI_GUI$BoardCytonSerialDaisy
Sample Index, EXG Channel 0, EXG Channel 1, EXG Channel 2, EXG Channel 3, EXG Channel 4, EXG Channel 5, EXG Channel 6, EXG Channel 7, EXG Channel 8, EXG Channel 9, EXG Channel 10, EXG Channel 11, EXG Channel 12, EXG Channel 13, EXG Channel 14, EXG Channel 15, Accel Channel 0, Accel Channel 1, Accel Channel 2, Other, Other, Other, Other, Other, Other, Other, Analog Channel 0, Analog Channel 1, Analog Channel 2, Timestamp, Other, Timestamp (Formatted)
252.0, -3617.562784858082, -6292.910133947151, -1509.4356548113412, -10806.308484829484, -1303.4643296556867, 355.2139228837398, -5150.534826580862, -2497.583925436011, -2615.131749526471, -7500.932514778676, -4213.102664125284, -2712.1830239514143, -4715.12284459148, -3759.0716790046313, -10605.880392298746, -13709.554220384864, 0.0, 0.0, 0.0, 192.0, 0.0, 0.0, 0.0, 0.0, 0.0, 0.0, 0.0, 0.0, 0.0, 1.645920539071346E9, 0.0, 2022-02-27 11:08:59.071
254.0, -3287.6063332088393, -6062.86598001313, -1338.3330510059657, -10624.633505896749, -1029.6107565892646, 586.4427192738914, -5158.8720272626915, -2555.1173156639716, -4402.511346639556, -7860.728545275753, -4205.346608799292, -3051.4154495496095, -4651.867407782961, -3781.1999060153853, -11067.399211811926, -14372.79753360719, 0.004, -0.056, 0.488, 192.0, 0.0, 32.0, 126.0, 64.0, 15.0, 64.0, 0.0, 0.0, 0.0, 1.645920539071349E9, 0.0, 2022-02-27 11:08:59.071
0.0, -1827.009240032344, -3208.6599717926947, -833.0718675937495, -5434.849016052368, -701.353037518625, 187.57583946893686, -2545.9978039262064, -1281.6490270673069, -1588.4267197163965, -3903.4415964414593, -2121.0687900863636, -1368.6867199762726, -2359.628958657856, -1893.9974181648993, -5348.325413265874, -7019.252421766809, 0.006, -0.112, 0.978, 192.0, 0.0, 24.0, 126.0, 64.0, 15.0, 72.0, 0.0, 0.0, 0.0, 1.645920539176612E9, 0.0, 2022-02-27 11:08:59.176
2.0, -3292.3896065222752, -6168.522676053367, -1470.476564225741, -10671.39335529725, -1089.8934113852276, 633.8060657746871, -5088.866363628669, -2585.2474671897253, -3604.7775870296464, -7514.589430640868, -4320.100464832838, -3067.754574746439, -4745.744734495251, -3747.2476061877737, -10895.626055672892, -14102.319073953518, 0.006, -0.112, 0.978, 192.0, 0.0, 0.0, 0.0, 0.0, 0.0, 0.0, 0.0, 0.0, 0.0, 1.645920539182708E9, 0.0, 2022-02-27 11:08:59.182
4.0, -3592.9311624683337, -6342.151026982192, -1618.467464264329, -10887.8700003469, -1359.321339049499, 417.55293816959124, -5109.698189461015, -2675.414404322434, -4960.343833010654, -8264.021070482859, -4388.832079032908, -3120.4599881720533, -4753.2102171433235, -3834.70998224139, -11112.281514678183, -14930.607668233833, 0.006, -0.112, 0.978, 192.0, 0.0, 0.0, 0.0, 0.0, 0.0, 0.0, 0.0, 0.0, 0.0, 1.64592053919084E9, 0.0, 2022-02-27 11:08:59.190
6.0, -3504.954696292245, -6322.101512205782, -1590.3936732284635, -10788.091813098408, -1262.3818233468323, 477.8132412210991, -5084.731290904438, -2552.971548196262, -2527.2446903282034, -7308.461643274027, -4319.698133432643, -2871.528610173298, -4797.556078142653, -3752.746135323779, -10629.595593165826, -13698.691272579585, 0.009000000000000001, -0.11, 0.982, 192.0, 0.0, 48.0, 126.0, 80.0, 15.0, 104.0, 0.0, 0.0, 0.0, 1.645920539198645E9, 0.0, 2022-02-27 11:08:59.198
8.0, -3342.5916245688945, -6177.686891280043, -1495.2646488266766, -10735.475806650617, -1151.0477842149478, 592.9470769103857, -5116.336657564242, -2653.196770333859, -5097.874116644159, -8103.088510404648, -4363.060517675939, -3227.144864457234, -4715.726341691773, -3801.3611795140723, -11191.004358649774, -14864.267690690482, 0.009000000000000001, -0.11, 0.982, 192.0, 0.0, 0.0, 0.0, 0.0, 0.0, 0.0, 0.0, 0.0, 0.0, 1.64592053920522E9, 0.0, 2022-02-27 11:08:59.205
10.0, -3697.9396579193663, -6437.2129961506125, -1697.2573634692865, -10925.555041498548, -1453.8245146065374, 335.6114429964355, -5116.627230242161, -2621.6584589074205, -3403.38836948733, -7786.677215895322, -4372.872933491818, -2897.85896514165, -4816.465653951843, -3817.0521041216975, -10777.050051337488, -14228.718188848281, 0.009000000000000001, -0.11, 0.982, 192.0, 0.0, 0.0, 0.0, 0.0, 0.0, 0.0, 0.0, 0.0, 0.0, 1.645920539213239E9, 0.0, 2022-02-27 11:08:59.213
12.0, -3309.220470097121, -6193.154298443115, -1493.5212127591626, -10689.431213072683, -1112.7592459630068, 613.5106818092682, -5109.34056154973, -2586.4768131347673, -3568.1654296118536, -7518.925669065198, -4333.9808981395845, -3074.2142288940227, -4762.352080625544, -3769.621702387536, -10895.49194520616, -14091.277312192597, 0.009000000000000001, -0.11, 0.982, 192.0, 0.0, 0.0, 0.0, 0.0, 0.0, 0.0, 0.0, 0.0, 0.0, 1.645920539221342E9, 0.0, 2022-02-27 11:08:59.221
14.0, -3598.4967468377054, -6353.25984397648, -1632.727877226815, -10896.96716034021, -1379.706129992739, 409.05927527657457, -5132.184044383054, -2693.4299103534117, -5009.450615578963, -8284.562323637287, -4403.830099562419, -3139.3695639812427, -4766.889484749971, -3860.459191853904, -11133.850948077554, -14960.111970914839, 0.009000000000000001, -0.11, 0.982, 192.0, 0.0, 0.0, 0.0, 0.0, 0.0, 0.0, 0.0, 0.0, 0.0, 1.6459205392279E9, 0.0, 2022-02-27 11:08:59.227
16.0, -3531.2626995161418, -6351.091724764315, -1617.6851532083933, -10804.073310383954, -1296.6693993412732, 466.4585550378031, -5115.621401741672, -2552.725679007254, -2543.919091691863, -7319.369294568217, -4339.993517398062, -2887.823031881217, -4817.694999896884, -3775.857839090567, -10644.68302067316, -13712.929333797614, 0.0105, -0.111, 0.984, 192.0, 0.0, 48.0, 126.0, 64.0, 15.0, 104.0, 0.0, 0.0, 0.0, 1.645920539243002E9, 0.0, 2022-02-27 11:08:59.243
18.0, -3350.6606043172605, -6198.049330478827, -1505.7476169762156, -10742.963641043145, -1157.9991767405484, 596.0316176452181, -5118.974163409968, -2651.8333139220854, -5089.805136895792, -8097.768795224285, -4376.5386195824885, -3244.199245476633, -4731.50667327722, -3813.654638964491, -11196.838163952609, -14854.27646091896, 0.0105, -0.111, 0.984, 192.0, 0.0, 0.0, 0.0, 0.0, 0.0, 0.0, 0.0, 0.0, 0.0, 1.645920539250939E9, 0.0, 2022-02-27 11:08:59.250
20.0, -3702.58882076607, -6448.567682333909, -1689.9706947768564, -10928.997210144666, -1456.3279099855317, 340.99821341016457, -5130.440608315541, -2625.23473802027, -3462.933416716268, -7814.303972042081, -4374.951645726162, -2915.5168432613427, -4820.153691786968, -3821.701266968402, -10790.394042777305, -14259.362430496507, 0.0105, -0.111, 0.984, 192.0, 0.0, 0.0, 0.0, 0.0, 0.0, 0.0, 0.0, 0.0, 0.0, 1.645920539257384E9, 0.0, 2022-02-27 11:08:59.257
22.0, -3303.610182238839, -6193.3778158876685, -1483.3511690319979, -10682.725689736091, -1112.334562818356, 619.970335956852, -5121.276393088865, -2577.6925775638315, -3511.727274862203, -7500.306665933927, -4319.452264243635, -3066.1005456567464, -4757.926435223393, -3760.3233766941285, -10878.929302564777, -14062.35415486743, 0.0105, -0.111, 0.984, 192.0, 0.0, 0.0, 0.0, 0.0, 0.0, 0.0, 0.0, 0.0, 0.0, 1.645920539265656E9, 0.0, 2022-02-27 11:08:59.265
24.0, -3586.180935642831, -6352.790457342918, -1623.3624963000414, -10888.697014891746, -1368.2396850871664, 422.1350457829292, -5133.189872883543, -2669.6923577418756, -5040.787761305304, -8283.645902114618, -4387.893305765785, -3142.1858837826117, -4762.262673647723, -3846.0199649357755, -11139.483587680292, -14966.035183195494, 0.0105, -0.111, 0.984, 192.0, 0.0, 0.0, 0.0, 0.0, 0.0, 0.0, 0.0, 0.0, 0.0, 1.645920539273569E9, 0.0, 2022-02-27 11:08:59.273
26.0, -3536.6271181854154, -6358.199579501103, -1616.120531096522, -10806.66611274077, -1305.0736552564688, 453.7627641871887, -5113.609744740695, -2564.8626762464855, -2540.275757345648, -7332.936803452588, -4327.945927136651, -2876.4906974423766, -4820.958354587359, -3773.846182089589, -10642.850177627824, -13713.845755320282, 0.009250000000000001, -0.1125, 0.986, 192.0, 0.0, 32.0, 126.0, 56.0, 15.0, 112.0, 0.0, 0.0, 0.0, 1.645920539280543E9, 0.0, 2022-02-27 11:08:59.280
28.0, -3343.932729236213, -6193.8472025212295, -1500.0479221401122, -10735.36404792834, -1159.8096680414283, 590.2425158312936, -5144.96924221149, -2638.422267248901, -5050.935453288013, -8071.3266815336565, -4360.601825785855, -3236.845521550837, -4729.830292443072, -3816.0462756212087, -11192.591332506101, -14835.255126387494, 0.009250000000000001, -0.1125, 0.986, 192.0, 0.0, 0.0, 0.0, 0.0, 0.0, 0.0, 0.0, 0.0, 0.0, 1.645920539288157E9, 0.0, 2022-02-27 11:08:59.288
30.0, -3713.943506949366, -6462.314005173923, -1698.24084022532, -10932.327620068505, -1477.740881173716, 320.8145881670223, -5139.7389340089485, -2619.646801906443, -3528.8040076260577, -7840.231995610237, -4375.555142826455, -2925.239852099401, -4829.317907013644, -3827.5127205267813, -10808.18603136373, -14284.150515097443, 0.009250000000000001, -0.1125, 0.986, 192.0, 0.0, 0.0, 0.0, 0.0, 0.0, 0.0, 0.0, 0.0, 0.0, 1.645920539295247E9, 0.0, 2022-02-27 11:08:59.295
32.0, -3322.877385959314, -6215.729560342975, -1497.1645471053778, -10688.827715972391, -1125.74560949154, 602.6924374928997, -5122.237518100443, -2580.8665252764854, -3476.0985942004436, -7494.048177486441, -4328.638831214766, -3066.1228974012015, -4780.2781796787, -3769.8452198320892, -10874.615415884902, -14043.802206969525, 0.009250000000000001, -0.1125, 0.986, 192.0, 0.0, 0.0, 0.0, 0.0, 0.0, 0.0, 0.0, 0.0, 0.0, 1.645920539303364E9, 0.0, 2022-02-27 11:08:59.303
34.0, -3590.539525811616, -6352.365774198267, -1625.9776504013123, -10886.774764868589, -1374.6993392347504, 416.7706271136555, -5128.674820503571, -2677.5825235345987, -5084.194849037511, -8306.668198903584, -4402.287829195003, -3161.140163080712, -4777.104231966046, -3856.7264505298676, -11146.412628461436, -14979.781506035508, 0.009250000000000001, -0.1125, 0.986, 192.0, 0.0, 0.0, 0.0, 0.0, 0.0, 0.0, 0.0, 0.0, 0.0, 1.645920539310246E9, 0.0, 2022-02-27 11:08:59.310
36.0, -3563.0692318760434, -6382.965312357583, -1622.7366474552928, -10813.639857010825, -1315.578975150463, 439.0776680800519, -5114.414407541086, -2563.074536690061, -2550.64696677291, -7344.425600102616, -4338.965337153118, -2881.0057498223487, -4837.141017573002, -3781.9375135824102, -10639.855043870813, -13719.14311875619, 0.012625, -0.11325, 0.987, 192.0, 0.0, 64.0, 126.0, 56.0, 15.0, 112.0, 0.0, 0.0, 0.0, 1.645920539319287E9, 0.0, 2022-02-27 11:08:59.319
38.0, -3364.138706223811, -6215.908374298618, -1505.3452855760202, -10737.398056673772, -1160.3684616528108, 585.4145390289473, -5146.377402112174, -2665.66904373992, -5035.892729269592, -8086.659978229997, -4380.1819539287035, -3245.4509431661304, -4751.556188053631, -3826.4174850484715, -11190.378509805025, -14819.161870379672, 0.012625, -0.11325, 0.987, 192.0, 0.0, 0.0, 0.0, 0.0, 0.0, 0.0, 0.0, 0.0, 0.0, 1.645920539325878E9, 0.0, 2022-02-27 11:08:59.325
40.0, -3728.047457700665, -6469.958301777638, -1703.7170176168702, -10941.044800406075, -1476.511535228674, 305.72716065969, -5145.460980589507, -2635.382430002979, -3589.533697311127, -7869.289263402136, -4392.497765123578, -2934.9405091930043, -4843.980651376325, -3848.4786568258596, -10825.776854250056, -14316.761710257735, 0.012625, -0.11325, 0.987, 192.0, 0.0, 0.0, 0.0, 0.0, 0.0, 0.0, 0.0, 0.0, 0.0, 1.645920539332724E9, 0.0, 2022-02-27 11:08:59.332
42.0, -3339.395325111786, -6224.513795913911, -1498.9079831728916, -10698.707187021637, -1121.878757700772, 590.2872193202043, -5124.048009401323, -2596.915077795396, -3432.1327128568546, -7486.113308204807, -4339.837055186875, -3064.848847967249, -4790.180002472402, -3810.681856951935, -10873.29666296204, -14032.671038230783, 0.012625, -0.11325, 0.987, 192.0, 0.0, 0.0, 0.0, 0.0, 0.0, 0.0, 0.0, 0.0, 0.0, 1.645920539340503E9, 0.0, 2022-02-27 11:08:59.340
44.0, -3593.0652729350654, -6356.657309133686, -1614.310039795642, -10891.602741670937, -1359.0531181160354, 413.239051489717, -5138.107256663711, -2696.514451088244, -5128.25013735892, -8303.203678513013, -4410.714436854653, -3166.526933494441, -4782.960389013337, -3880.7322240748676, -11160.427172234915, -14995.561837620955, 0.012625, -0.11325, 0.987, 192.0, 0.0, 0.0, 0.0, 0.0, 0.0, 0.0, 0.0, 0.0, 0.0, 1.645920539348424E9, 0.0, 2022-02-27 11:08:59.348
46.0, -3566.1314208664207, -6378.316149510879, -1623.183682344399, -10817.9537436907, -1321.7927601090385, 436.6413279344235, -5135.536806051351, -2571.7693652831754, -2568.953045481807, -7363.737507312001, -4346.274357590003, -2872.75795611834, -4838.392715262498, -3803.7081126818794, -10647.164064307699, -13729.782549116917, 0.0123125, -0.110625, 0.9875, 192.0, 0.0, 48.0, 126.0, 80.0, 15.0, 112.0, 0.0, 0.0, 0.0, 1.645920539362504E9, 0.0, 2022-02-27 11:08:59.362
48.0, -3344.5585780809615, -6198.339903156746, -1491.2636865691766, -10732.994763016077, -1147.8291330133836, 589.5272600087238, -5147.8973207351355, -2647.6311859644875, -5000.845193963671, -8067.482181487344, -4375.443384104179, -3234.0292017494685, -4744.60479552803, -3839.6050142771023, -11186.891637669998, -14799.78290793692, 0.0123125, -0.110625, 0.9875, 192.0, 0.0, 0.0, 0.0, 0.0, 0.0, 0.0, 0.0, 0.0, 0.0, 1.645920539370041E9, 0.0, 2022-02-27 11:08:59.370
50.0, -3722.9065564759444, -6464.772697064006, -1690.1048052435883, -10939.837806205489, -1466.2967880125987, 324.1897015797736, -5137.481407818962, -2628.006354332728, -3651.8056573636127, -7894.122051491982, -4390.0390732334945, -2939.209692383968, -4828.647354679984, -3859.3192528866834, -10832.281211886551, -14349.059980995653, 0.0123125, -0.110625, 0.9875, 192.0, 0.0, 0.0, 0.0, 0.0, 0.0, 0.0, 0.0, 0.0, 0.0, 1.645920539378145E9, 0.0, 2022-02-27 11:08:59.378
52.0, -3336.9813367106126, -6220.982220289972, -1488.7826429346376, -10697.969579454611, -1129.7242200045848, 582.4417570163914, -5108.960581893991, -2597.719740595787, -3381.2154389876655, -7472.925778976176, -4336.685459218676, -3056.5116472854197, -4780.2111244453345, -3803.6410574485135, -10851.548415607025, -14009.022892597068, 0.0123125, -0.110625, 0.9875, 192.0, 0.0, 0.0, 0.0, 0.0, 0.0, 0.0, 0.0, 0.0, 0.0, 1.645920539386094E9, 0.0, 2022-02-27 11:08:59.386
54.0, -3582.0011594296884, -6349.705916608085, -1602.4636152343292, -10882.43852644426, -1357.287330304066, 413.73078986773373, -5138.867215975191, -2690.3677213630344, -5148.500817835429, -8318.201699042524, -4401.863146050352, -3172.5619044973737, -4775.89723776546, -3891.48341315787, -11165.121038570529, -15007.274151715535, 0.0123125, -0.110625, 0.9875, 192.0, 0.0, 0.0, 0.0, 0.0, 0.0, 0.0, 0.0, 0.0, 0.0, 1.645920539392622E9, 0.0, 2022-02-27 11:08:59.392
56.0, -3577.2625896051636, -6388.776765915963, -1616.6122694745386, -10823.318162359974, -1332.8121701255047, 419.0952085370074, -5125.567928024284, -2583.4816793777563, -2572.819897272575, -7381.596551131792, -4343.011002899529, -2880.670473655519, -4840.739648430306, -3821.097769868108, -10647.365230007796, -13746.05461908038, 0.01215625, -0.1093125, 0.98675, 192.0, 0.0, 48.0, 126.0, 80.0, 15.0, 104.0, 0.0, 0.0, 0.0, 1.645920539400729E9, 0.0, 2022-02-27 11:08:59.400
58.0, -3349.0289269720233, -6207.437063150056, -1482.9488376318025, -10728.524414125015, -1149.5502173364423, 590.8013094426763, -5126.126721635666, -2656.8624564245292, -4961.684937677973, -8050.338393490124, -4372.537657324989, -3247.64141412275, -4747.868150218505, -3848.5680638036806, -11180.901370155976, -14783.801410651377, 0.01215625, -0.1093125, 0.98675, 192.0, 0.0, 0.0, 0.0, 0.0, 0.0, 0.0, 0.0, 0.0, 0.0, 1.645920539408678E9, 0.0, 2022-02-27 11:08:59.408
60.0, -3728.4274373564053, -6469.153638977246, -1687.757872075781, -10940.195434116773, -1476.0197968506573, 315.9642596202206, -5146.4891608344515, -2637.8187701486077, -3717.9668209513216, -7921.011200071717, -4390.709625567153, -2962.947244995504, -4835.375229761032, -3875.6360263390575, -10849.894386517333, -14383.727536645834, 0.01215625, -0.1093125, 0.98675, 192.0, 0.0, 0.0, 0.0, 0.0, 0.0, 0.0, 0.0, 0.0, 0.0, 1.645920539415681E9, 0.0, 2022-02-27 11:08:59.415
62.0, -3350.7500112950815, -6234.683839641076, -1494.1694133483666, -10702.931666723689, -1144.9681097231044, 576.5632482246457, -5133.323983350276, -2600.9607435418066, -3339.842360000892, -7472.501095831525, -4335.187892340171, -3065.5194003009083, -4788.99536001627, -3815.7109994543794, -10849.447351628227, -14001.512706460084, 0.01215625, -0.1093125, 0.98675, 192.0, 0.0, 0.0, 0.0, 0.0, 0.0, 0.0, 0.0, 0.0, 0.0, 1.645920539422381E9, 0.0, 2022-02-27 11:08:59.422
64.0, -3576.7484994826914, -6346.73313459553, -1595.020484330712, -10872.693165861747, -1346.6255481988846, 429.3770109864487, -5135.290936862342, -2682.1646311479367, -5183.280132207887, -8330.472806748487, -4402.354884428369, -3188.7892709719267, -4775.584313343085, -3893.785642836767, -11177.660367209955, -15018.047692542994, 0.01215625, -0.1093125, 0.98675, 192.0, 0.0, 0.0, 0.0, 0.0, 0.0, 0.0, 0.0, 0.0, 0.0, 1.645920539430315E9, 0.0, 2022-02-27 11:08:59.430
66.0, -3589.868973477957, -6394.051777607415, -1621.954336399357, -10826.559165305993, -1333.2145015257004, 430.24872902020564, -5128.026619914368, -2586.208592201304, -2599.1279004964713, -7392.235981492518, -4341.446380787656, -2882.503316700854, -4830.815473892149, -3814.012266875776, -10643.520729961483, -13753.900081384192, 0.014078125, -0.10765625000000001, 0.987375, 192.0, 0.0, 64.0, 126.0, 88.0, 15.0, 112.0, 0.0, 0.0, 0.0, 1.645920539438478E9, 0.0, 2022-02-27 11:08:59.438
68.0, -3345.2067786701655, -6198.876345023674, -1488.2462010677102, -10720.723655310114, -1141.9282724771824, 597.1715566124388, -5138.688402019549, -2641.0597730946274, -4924.826911071171, -8026.220861222847, -4365.161581654737, -3236.3761349172755, -4740.492074548254, -3844.4106393349934, -11170.97719561782, -14759.505064428457, 0.014078125, -0.10765625000000001, 0.987375, 192.0, 0.0, 0.0, 0.0, 0.0, 0.0, 0.0, 0.0, 0.0, 0.0, 1.645920539444989E9, 0.0, 2022-02-27 11:08:59.444
70.0, -3727.7345332782907, -6464.839752297373, -1693.7034361008928, -10935.792140459078, -1472.57762820454, 320.0769805999971, -5152.658242304116, -2623.379543230479, -3781.959865326866, -7938.0208776022055, -4383.2888464079915, -2964.981253740937, -4827.90974711296, -3874.0267007382754, -10859.639747099847, -14411.264885814773, 0.014078125, -0.10765625000000001, 0.987375, 192.0, 0.0, 0.0, 0.0, 0.0, 0.0, 0.0, 0.0, 0.0, 0.0, 1.645920539453028E9, 0.0, 2022-02-27 11:08:59.453
72.0, -3353.7004415631823, -6232.359258217723, -1509.927393189358, -10693.789803241469, -1141.1459614212467, 594.4669955333467, -5113.587392996239, -2571.1435164384266, -3288.7909756649706, -7451.579863021358, -4324.257889301525, -3042.184179089568, -4787.453089648854, -3803.842223148611, -10838.740866034135, -13965.9957845206, 0.014078125, -0.10765625000000001, 0.987375, 192.0, 0.0, 0.0, 0.0, 0.0, 0.0, 0.0, 0.0, 0.0, 0.0, 1.645920539461052E9, 0.0, 2022-02-27 11:08:59.461
74.0, -3567.18195285582, -6339.11118973627, -1603.0894640790777, -10866.322918691983, -1337.2154637832002, 437.13306631244023, -5138.509588063906, -2670.7428897312748, -5206.9506295860565, -8324.571946212285, -4394.420015146735, -3181.5696575128627, -4766.665967305418, -3877.5359246177586, -11180.968425389341, -15018.941762321207, 0.014078125, -0.10765625000000001, 0.987375, 192.0, 0.0, 0.0, 0.0, 0.0, 0.0, 0.0, 0.0, 0.0, 0.0, 1.645920539468105E9, 0.0, 2022-02-27 11:08:59.468
76.0, -3598.988485215722, -6393.314170040389, -1631.856159193058, -10829.24137464063, -1343.1833795527673, 412.2555747336835, -5110.189927839033, -2560.168809910871, -2614.3941419594457, -7400.595533918802, -4337.981860397084, -2876.736566631385, -4830.949584358881, -3812.917031397466, -10640.972631093578, -13767.378183290743, 0.014, -0.108, 0.996, 192.0, 0.0, 56.0, 126.0, 80.0, 15.5, 16.0, 0.0, 0.0, 0.0, 1.645920539475662E9, 0.0, 2022-02-27 11:08:59.475
78.0, -3340.445857101185, -6193.713092054498, -1480.6242562084503, -10713.861669762335, -1135.55802530742, 603.5418037822013, -5107.977105137958, -2615.8246536045854, -4878.827020982149, -8008.741797058797, -4358.120782151315, -3233.6715738381836, -4739.5309495366755, -3834.017078163276, -11157.20852103335, -14730.358389658737, 0.014, -0.108, 0.996, 192.0, 0.0, 0.0, 0.0, 0.0, 0.0, 0.0, 0.0, 0.0, 0.0, 1.64592053949094E9, 0.0, 2022-02-27 11:08:59.490
80.0, -3721.6772105309024, -6457.016641738015, -1686.5061743862839, -10927.879622921899, -1460.8429623655036, 327.6318702258909, -5126.461997802496, -2621.814921118608, -3832.0501246512085, -7959.769124957219, -4381.72422429612, -2965.6518060745966, -4814.386941717499, -3855.9888429628427, -10862.031383756565, -14432.052008158209, 0.014, -0.108, 0.996, 192.0, 0.0, 0.0, 0.0, 0.0, 0.0, 0.0, 0.0, 0.0, 0.0, 1.645920539497685E9, 0.0, 2022-02-27 11:08:59.497
82.0, -3347.6878223047047, -6228.961793060517, -1505.412340809386, -10688.8724194613, -1142.2859003884673, 583.6263994725227, -5102.210355068488, -2556.525475564656, -3235.817341305893, -7430.0998365998075, -4323.833206156874, -3026.3814957596655, -4779.607627345041, -3781.356368226572, -10820.971229192166, -13943.33111564292, 0.014, -0.108, 0.996, 192.0, 0.0, 0.0, 0.0, 0.0, 0.0, 0.0, 0.0, 0.0, 0.0, 1.645920539505197E9, 0.0, 2022-02-27 11:08:59.505
84.0, -3551.2228073147307, -6320.738055794008, -1599.2673157772203, -10852.19661619623, -1333.1027428034238, 438.18359830183965, -5115.174366852566, -2666.4737065403115, -5212.493862210973, -8306.3105709923, -4389.457927877656, -3181.9719889130583, -4756.719441022807, -3867.5446948462363, -11184.187076590906, -15019.724073377141, 0.014, -0.108, 0.996, 192.0, 0.0, 0.0, 0.0, 0.0, 0.0, 0.0, 0.0, 0.0, 0.0, 1.64592053951352E9, 0.0, 2022-02-27 11:08:59.513
86.0, -3610.0973022100097, -6407.641638236241, -1647.9047117119685, -10830.38131360785, -1358.9860628826693, 401.3255716950383, -5116.6719337310715, -2548.1882748828266, -2638.8693021380072, -7408.351589244794, -4342.742781966064, -2873.6296741520973, -4839.5550059741745, -3805.5186039827595, -10650.9638608651, -13775.87184618376, 0.012, -0.11, 0.988, 192.0, 0.0, 48.0, 126.0, 72.0, 15.0, 112.0, 0.0, 0.0, 0.0, 1.645920539521289E9, 0.0, 2022-02-27 11:08:59.521
88.0, -3334.5673483094392, -6183.744214027431, -1486.8156894225706, -10703.333998123884, -1141.883568988272, 603.3629898265589, -5137.593166541239, -2628.587499688566, -4857.81638119416, -7986.881790981507, -4363.440497331679, -3229.335335413854, -4749.410420585921, -3826.261022837284, -11161.343593757581, -14706.24085739146, 0.012, -0.11, 0.988, 192.0, 0.0, 0.0, 0.0, 0.0, 0.0, 0.0, 0.0, 0.0, 0.0, 1.645920539527881E9, 0.0, 2022-02-27 11:08:59.527
90.0, -3720.626678541503, -6452.859217269328, -1690.4847848993284, -10929.7795212006, -1476.6232939509505, 323.98853587967585, -5113.319172062776, -2623.5360054416665, -3899.0606545282194, -7961.847837191563, -4378.05853820545, -2965.405936885588, -4812.040008549691, -3847.8081044922, -10885.813639857011, -14460.394020127538, 0.012, -0.11, 0.988, 192.0, 0.0, 0.0, 0.0, 0.0, 0.0, 0.0, 0.0, 0.0, 0.0, 1.645920539535906E9, 0.0, 2022-02-27 11:08:59.535
92.0, -3375.247523218098, -6245.613842679721, -1517.7058002598048, -10702.194059156664, -1169.6667873462186, 570.9976638552743, -5087.458203727985, -2548.009460927184, -3217.9582974861023, -7425.003638863998, -4331.052819615939, -3034.048144107836, -4788.861249549538, -3792.2193160318516, -10817.037322168031, -13929.540089313996, 0.012, -0.11, 0.988, 192.0, 0.0, 0.0, 0.0, 0.0, 0.0, 0.0, 0.0, 0.0, 0.0, 1.645920539542901E9, 0.0, 2022-02-27 11:08:59.542
94.0, -3551.088696847999, -6322.660305817164, -1594.148766296955, -10851.459008629205, -1342.8257516414824, 451.52758974165795, -5125.657335002105, -2662.159819860437, -5264.640482025205, -8316.413559486098, -4402.846622806385, -3200.523936810963, -4768.319996395111, -3867.745860546334, -11198.6933587424, -15030.609372926876, 0.012, -0.11, 0.988, 192.0, 0.0, 0.0, 0.0, 0.0, 0.0, 0.0, 0.0, 0.0, 0.0, 1.645920539550938E9, 0.0, 2022-02-27 11:08:59.550
96.0, -3606.6774853083475, -6399.259734065501, -1645.8483512220803, -10831.543604319526, -1375.7275194796944, 405.90767930837626, -5127.378419325164, -2559.654719788399, -2649.352270287546, -7418.320467271861, -4341.245215087559, -2874.747261374863, -4828.848520380083, -3797.270810278751, -10656.77531442348, -13788.232360867545, 0.01, -0.11, 0.992, 192.0, 0.0, 40.0, 126.0, 72.0, 15.5, 0.0, 0.0, 0.0, 0.0, 1.645920539557509E9, 0.0, 2022-02-27 11:08:59.557
98.0, -3319.926955691213, -6176.502248823911, -1481.607732964484, -10694.795631741958, -1137.6143857973082, 612.035466675218, -5120.628192499661, -2635.717706169809, -4796.237325219789, -7956.975156900306, -4352.778715226497, -3217.555966085907, -4729.249147087235, -3813.721694197857, -11150.570052930123, -14684.894941436642, 0.01, -0.11, 0.992, 192.0, 0.0, 0.0, 0.0, 0.0, 0.0, 0.0, 0.0, 0.0, 0.0, 1.645920539565861E9, 0.0, 2022-02-27 11:08:59.565
100.0, -3724.314716376629, -6457.240159182568, -1692.563497133672, -10926.337352554483, -1475.1033753279896, 326.0001928806535, -5102.836203913236, -2621.479644951778, -3947.5639399962356, -7981.67383452342, -4381.835983018396, -2968.2893119203227, -4804.351008457066, -3849.685651026446, -10892.988549827165, -14484.131572739074, 0.01, -0.11, 0.992, 192.0, 0.0, 0.0, 0.0, 0.0, 0.0, 0.0, 0.0, 0.0, 0.0, 1.645920539573534E9, 0.0, 2022-02-27 11:08:59.573
102.0, -3370.8889330493134, -6240.472941455, -1517.1470066484221, -10694.907390464234, -1155.7416505505623, 589.8625361755534, -5090.989779351924, -2560.973472711262, -3171.4443172746087, -7415.258278281484, -4332.326869049892, -3022.3134782688, -4780.792269801173, -3789.402996230483, -10797.658359725281, -13905.757833213549, 0.01, -0.11, 0.992, 192.0, 0.0, 0.0, 0.0, 0.0, 0.0, 0.0, 0.0, 0.0, 0.0, 1.645920539580218E9, 0.0, 2022-02-27 11:08:59.580
104.0, -3531.3968099828735, -6307.170546909636, -1586.1021382930444, -10840.730171290657, -1309.2757832140665, 469.4089853059036, -5112.425102284563, -2655.0743168681047, -5268.417926838151, -8306.712902392495, -4391.58134360091, -3195.807718730893, -4743.487208305265, -3863.6107878221023, -11189.350329560082, -15026.317837991457, 0.01, -0.11, 0.992, 192.0, 0.0, 0.0, 0.0, 0.0, 0.0, 0.0, 0.0, 0.0, 0.0, 1.645920539588186E9, 0.0, 2022-02-27 11:08:59.588
106.0, -3615.3946656459175, -6407.775748702973, -1648.37409834553, -10836.013953210588, -1364.484592018675, 410.7803595996332, -5086.698244416505, -2547.584777782533, -2668.641825752476, -7437.297098314417, -4340.641717987266, -2869.9416363169717, -4812.308229483156, -3805.8762318940444, -10642.783122394458, -13793.641483025729, 0.012, -0.106, 0.988, 192.0, 0.0, 48.0, 126.0, 88.0, 15.0, 112.0, 0.0, 0.0, 0.0, 1.645920539596203E9, 0.0, 2022-02-27 11:08:59.596
108.0, -3317.0882841453895, -6182.760737271397, -1481.67478819785, -10694.616817786315, -1127.3549350923224, 622.6748970359441, -5096.644770699117, -2618.260993750214, -4761.413307358421, -7955.38818304398, -4351.214093114626, -3213.130320683756, -4718.3414957930445, -3820.13664485653, -11132.15221549895, -14662.006755114407, 0.012, -0.106, 0.988, 192.0, 0.0, 0.0, 0.0, 0.0, 0.0, 0.0, 0.0, 0.0, 0.0, 1.645920539609734E9, 0.0, 2022-02-27 11:08:59.609
110.0, -3703.8405184555672, -6436.430685094677, -1685.9026772859904, -10922.314038552528, -1462.027604821635, 340.5288267766031, -5110.480500516952, -2634.197787546848, -4001.9904377449084, -8002.706826055864, -4373.498782336567, -2974.145468967613, -4783.586237858086, -3848.5010085703148, -10896.006035328632, -14511.713625396924, 0.012, -0.106, 0.988, 192.0, 0.0, 0.0, 0.0, 0.0, 0.0, 0.0, 0.0, 0.0, 0.0, 1.645920539617764E9, 0.0, 2022-02-27 11:08:59.617
112.0, -3365.9491975246906, -6240.405886221634, -1526.0430009416343, -10696.293198620462, -1166.8728192893052, 590.8907164204975, -5090.498040973907, -2550.199931883804, -3119.923546305126, -7393.979417560032, -4313.037313584961, -3007.40486471711, -4755.6689090334075, -3779.948208325888, -10788.024757865043, -13891.36330978433, 0.012, -0.106, 0.988, 192.0, 0.0, 0.0, 0.0, 0.0, 0.0, 0.0, 0.0, 0.0, 0.0, 1.645920539625893E9, 0.0, 2022-02-27 11:08:59.625
114.0, -3515.8399958419795, -6296.57582003782, -1588.627885416494, -10836.706857288702, -1320.8763385863708, 483.848212224032, -5118.907108176602, -2681.1364509029927, -5280.040833954911, -8318.02288508688, -4384.361730141846, -3198.3781693432534, -4730.880824432472, -3859.8109912647, -11199.07333839814, -15034.297410762003, 0.012, -0.106, 0.988, 192.0, 0.0, 0.0, 0.0, 0.0, 0.0, 0.0, 0.0, 0.0, 0.0, 1.645920539632841E9, 0.0, 2022-02-27 11:08:59.632
116.0, -3611.4607586217835, -6401.3607980443, -1656.7560025162702, -10841.71364804669, -1382.2095253717334, 412.9037753228874, -5113.877965674158, -2575.1221269514713, -2676.2637706117357, -7446.684830985646, -4333.578566739388, -2860.084517012181, -4806.295610224678, -3803.3281330261393, -10643.565433450394, -13820.418872883187, 0.012, -0.10400000000000001, 0.986, 192.0, 0.0, 48.0, 126.0, 96.0, 15.0, 104.0, 0.0, 0.0, 0.0, 1.64592053964046E9, 0.0, 2022-02-27 11:08:59.640
118.0, -3308.3711038078195, -6177.329263368758, -1489.1179191014671, -10697.567248054416, -1130.5735862938866, 630.0286209617402, -5103.596163224717, -2631.3367642565686, -4714.564050980098, -7929.929546109384, -4350.252968103047, -3206.268335135977, -4719.235565571256, -3806.3456185276054, -11123.904421794943, -14647.56752819628, 0.012, -0.10400000000000001, 0.986, 192.0, 0.0, 0.0, 0.0, 0.0, 0.0, 0.0, 0.0, 0.0, 0.0, 1.645920539648521E9, 0.0, 2022-02-27 11:08:59.648
120.0, -3698.0290648971877, -6435.93894671666, -1694.2175262233648, -10921.509375752137, -1468.0849275690232, 351.3917745818823, -5116.180195353055, -2639.8527788940405, -4060.8872843846425, -8027.11493100106, -4374.079927692405, -2980.7168818374735, -4779.875848278505, -3846.3775928470604, -10905.751395911146, -14545.777683946812, 0.012, -0.10400000000000001, 0.986, 192.0, 0.0, 0.0, 0.0, 0.0, 0.0, 0.0, 0.0, 0.0, 0.0, 1.645920539656523E9, 0.0, 2022-02-27 11:08:59.656
122.0, -3354.460400874663, -6231.37578146169, -1523.2713846291763, -10692.985140441078, -1165.8222872999058, 588.1638035969501, -5098.678779444549, -2570.9870542272397, -3070.593246292263, -7385.55280990038, -4307.717598404598, -2987.310646451789, -4756.071240433603, -3769.7334611098127, -10772.914978613255, -13882.89199863577, 0.012, -0.10400000000000001, 0.986, 192.0, 0.0, 0.0, 0.0, 0.0, 0.0, 0.0, 0.0, 0.0, 0.0, 1.645920539662556E9, 0.0, 2022-02-27 11:08:59.662
124.0, -3495.9692950212116, -6289.512668789944, -1577.1614405109217, -10831.09656943042, -1298.9939807646253, 493.7053315288224, -5120.002343654913, -2661.6233779935096, -5295.217668440065, -8305.304742491811, -4379.3549393838575, -3192.320846595865, -4721.291926061145, -3846.131723658052, -11195.385300563014, -15042.366390510368, 0.012, -0.10400000000000001, 0.986, 192.0, 0.0, 0.0, 0.0, 0.0, 0.0, 0.0, 0.0, 0.0, 0.0, 1.645920539669958E9, 0.0, 2022-02-27 11:08:59.669
126.0, -3599.256706149186, -6394.45410900761, -1643.5461215431835, -10844.932299248256, -1368.12792636489, 416.25653699118345, -5110.078169116756, -2558.6041877989996, -2693.67577954242, -7457.413668324193, -4325.598993968844, -2852.261406452824, -4801.735854355795, -3795.303856766684, -10641.173796793675, -13832.108835233312, 0.012, -0.10400000000000001, 0.99, 192.0, 0.0, 48.0, 126.0, 96.0, 15.0, 120.0, 0.0, 0.0, 0.0, 1.645920539678185E9, 0.0, 2022-02-27 11:08:59.678
128.0, -3288.1874785646773, -6168.567379542277, -1478.3890817629197, -10690.012358428521, -1119.0847896438588, 639.8633885220753, -5125.5902797687395, -2616.5622611716108, -4659.511704386676, -7905.052054530627, -4333.556214994934, -3191.650294262206, -4709.691370688841, -3801.294124280706, -11108.884049520975, -14621.907725561587, 0.012, -0.10400000000000001, 0.99, 192.0, 0.0, 0.0, 0.0, 0.0, 0.0, 0.0, 0.0, 0.0, 0.0, 1.64592053968511E9, 0.0, 2022-02-27 11:08:59.685
130.0, -3679.410061765917, -6431.423894336688, -1692.2729244557531, -10923.878660664399, -1460.641796665406, 349.2907106030835, -5102.0538928573005, -2638.8916538824624, -4109.390569852659, -8046.851521355095, -4367.754384011553, -2977.274713191356, -4775.94194125437, -3833.726505485357, -10912.166346569818, -14569.247015624884, 0.012, -0.10400000000000001, 0.99, 192.0, 0.0, 0.0, 0.0, 0.0, 0.0, 0.0, 0.0, 0.0, 0.0, 1.645920539692722E9, 0.0, 2022-02-27 11:08:59.692
132.0, -3350.2806246615205, -6240.428237966089, -1535.3636783794975, -10699.221277144108, -1169.8903047907716, 582.2405913162937, -5099.9975323674125, -2562.8286675010527, -3029.376629516677, -7381.976530787531, -4305.70594140362, -2984.248457461412, -4758.75344976824, -3765.620740130036, -10759.950966829178, -13870.106800807334, 0.012, -0.10400000000000001, 0.99, 192.0, 0.0, 0.0, 0.0, 0.0, 0.0, 0.0, 0.0, 0.0, 0.0, 1.645920539700653E9, 0.0, 2022-02-27 11:08:59.700
134.0, -3471.225913909187, -6276.9062849171505, -1571.9087805639244, -10823.295810615518, -1289.3156754154772, 493.7276832732777, -5143.561082310806, -2688.5348783176996, -5289.741491048514, -8308.724559393473, -4368.447288089667, -3196.5676780423737, -4720.956649894315, -3831.0889996396304, -11200.07916689863, -15050.83770165893, 0.012, -0.10400000000000001, 0.99, 192.0, 0.0, 0.0, 0.0, 0.0, 0.0, 0.0, 0.0, 0.0, 0.0, 1.645920539708779E9, 0.0, 2022-02-27 11:08:59.708
136.0, -3601.7824532726354, -6403.55126900092, -1655.4148978489516, -10847.167473693786, -1379.7284817371944, 407.49465316470304, -5105.0490266143115, -2567.6342925589433, -2701.7000558018754, -7467.091973673341, -4322.76032242302, -2854.89891229855, -4797.824299076116, -3779.724690881335, -10648.259299786008, -13850.861948831314, 0.018000000000000002, -0.10200000000000001, 0.996, 192.0, 0.0, 72.0, 126.0, 104.0, 15.5, 16.0, 0.0, 0.0, 0.0, 1.645920539716711E9, 0.0, 2022-02-27 11:08:59.716
138.0, -3277.1233650593003, -6162.755925983897, -1469.7613084031711, -10684.513829292517, -1113.6756674856745, 633.0014029742961, -5105.25019231441, -2626.7546566432306, -4606.001628160671, -7882.968531008784, -4328.258851559026, -3191.136204139734, -4709.400798010922, -3794.27567652174, -11096.747052281744, -14596.627902582635, 0.018000000000000002, -0.10200000000000001, 0.996, 192.0, 0.0, 0.0, 0.0, 0.0, 0.0, 0.0, 0.0, 0.0, 0.0, 1.645920539724723E9, 0.0, 2022-02-27 11:08:59.724
140.0, -3665.9766633482773, -6420.091559897847, -1674.6150463360605, -10921.129396096398, -1452.6845756393166, 358.6560915298571, -5114.749683707915, -2640.590386461066, -4150.406020928147, -8052.059477813182, -4354.030412915995, -2985.075472006258, -4770.264598162723, -3831.178406617452, -10921.039989118575, -14593.900989759088, 0.018000000000000002, -0.10200000000000001, 0.996, 192.0, 0.0, 0.0, 0.0, 0.0, 0.0, 0.0, 0.0, 0.0, 0.0, 1.645920539738387E9, 0.0, 2022-02-27 11:08:59.738
142.0, -3349.7665345390483, -6234.192101263059, -1527.093532931034, -10698.30485562144, -1166.0011012555483, 583.4475855168803, -5101.696264946016, -2557.5536558096, -2981.8121173157833, -7357.881350264711, -4294.172441264683, -2976.3582916686883, -4757.501752078742, -3757.305891192662, -10750.56323415795, -13846.995097040546, 0.018000000000000002, -0.10200000000000001, 0.996, 192.0, 0.0, 0.0, 0.0, 0.0, 0.0, 0.0, 0.0, 0.0, 0.0, 1.645920539745127E9, 0.0, 2022-02-27 11:08:59.745
144.0, -3454.5291608010725, -6265.9315783895945, -1567.3043212061311, -10814.265705855574, -1281.2466956671115, 503.89772700044244, -5132.362858338697, -2668.2171426078253, -5290.568505593361, -8292.385434196643, -4357.785505984486, -3191.1138523952786, -4709.803129411117, -3832.8324357071447, -11205.153012889983, -15041.49467247661, 0.019000000000000003, -0.10400000000000001, 0.994, 192.0, 0.0, 80.0, 126.0, 88.0, 15.5, 0.0, 0.0, 0.0, 0.0, 1.645920539752983E9, 0.0, 2022-02-27 11:08:59.752
146.0, -3594.2275636467416, -6391.50367873951, -1649.2681681237423, -10845.088761459441, -1381.673083504806, 405.59475488600197, -5125.7690937243815, -2577.044376974628, -2723.358896179068, -7475.7644505220005, -4314.177252552182, -2837.1069237121255, -4797.243153720278, -3782.339844982606, -10653.48960798855, -13856.74045762306, 0.019000000000000003, -0.10400000000000001, 0.994, 192.0, 0.0, 0.0, 0.0, 0.0, 0.0, 0.0, 0.0, 0.0, 0.0, 1.64592053976096E9, 0.0, 2022-02-27 11:08:59.760
148.0, -3269.07673705539, -6159.179646871048, -1465.8497531234925, -10680.535218779472, -1108.1547866052135, 640.2210164333602, -5098.678779444549, -2611.42135994689, -4545.763676853619, -7829.011419893673, -4311.3832844952685, -3172.8748289197483, -4701.6670944293855, -3783.0551008051757, -11090.823840001089, -14570.096381914185, 0.019000000000000003, -0.10400000000000001, 0.994, 192.0, 0.0, 0.0, 0.0, 0.0, 0.0, 0.0, 0.0, 0.0, 0.0, 1.645920539768094E9, 0.0, 2022-02-27 11:08:59.768
150.0, -3660.6569481679144, -6417.677571496674, -1663.1933049193985, -10914.110948337431, -1446.2472732361882, 365.62983579991294, -5131.424085071574, -2623.357191486024, -4203.893745409697, -8078.747460692819, -4354.499799549556, -2989.21054473049, -4772.209199930335, -3841.4825608113483, -10939.994268416676, -14609.077824244241, 0.019000000000000003, -0.10400000000000001, 0.994, 192.0, 0.0, 0.0, 0.0, 0.0, 0.0, 0.0, 0.0, 0.0, 0.0, 1.645920539775656E9, 0.0, 2022-02-27 11:08:59.775
152.0, -3322.1174266478333, -6215.573098131788, -1504.4065123088972, -10695.220314886608, -1161.2178279421125, 598.8702891910422, -5125.478521046462, -2540.8569027014855, -2918.6460874850854, -7330.411056329139, -4274.234685210548, -2950.653785545085, -4747.666984518407, -3735.758809537746, -10743.433027676705, -13819.793024038438, 0.019000000000000003, -0.10400000000000001, 0.994, 192.0, 0.0, 0.0, 0.0, 0.0, 0.0, 0.0, 0.0, 0.0, 0.0, 1.645920539783797E9, 0.0, 2022-02-27 11:08:59.783
154.0, -3456.384355590863, -6279.834363440796, -1550.048774486634, -10816.590287278925, -1269.5567333169859, 516.168834706406, -5108.357084793697, -2660.8857704264847, -5288.221572425553, -8282.841239314228, -4342.653374988243, -3202.401483345209, -4705.802167153617, -3846.198778891418, -11203.700149500388, -15029.625896170843, 0.0165, -0.10600000000000001, 0.994, 192.0, 0.0, 56.0, 126.0, 80.0, 15.5, 8.0, 0.0, 0.0, 0.0, 1.645920539790803E9, 0.0, 2022-02-27 11:08:59.790
156.0, -3603.4588341067833, -6416.582336018364, -1643.9037494544684, -10850.944918506733, -1388.8479934749596, 399.60448737197964, -5090.788613651826, -2557.7548215096976, -2750.5162656922657, -7503.122985735296, -4309.706903661121, -2853.3342901866786, -4803.300476467666, -3807.820833661656, -10648.616927697292, -13862.261338503522, 0.0165, -0.10600000000000001, 0.994, 192.0, 0.0, 0.0, 0.0, 0.0, 0.0, 0.0, 0.0, 0.0, 0.0, 1.645920539797258E9, 0.0, 2022-02-27 11:08:59.797
158.0, -3260.1360392732668, -6162.532408539344, -1457.2890349971099, -10674.92493092119, -1110.0546848839147, 636.7341442983322, -5099.662256200583, -2606.615734888999, -4487.336216847446, -7840.723733988254, -4306.667066415199, -3174.1935818426114, -4706.070388087081, -3799.617743446558, -11071.131953135962, -14525.68346568149, 0.0165, -0.10600000000000001, 0.994, 192.0, 0.0, 0.0, 0.0, 0.0, 0.0, 0.0, 0.0, 0.0, 0.0, 1.645920539805355E9, 0.0, 2022-02-27 11:08:59.805
160.0, -3649.7045933848135, -6412.98370516106, -1658.7006042838818, -10909.372378512906, -1453.6233489064396, 355.7950682395778, -5129.010096670401, -2634.108380569027, -4252.575844833355, -8077.316949047679, -4347.414296557224, -2997.59244890123, -4771.359833641032, -3847.852807981111, -10943.436437062794, -14626.713350619479, 0.0165, -0.10600000000000001, 0.994, 192.0, 0.0, 0.0, 0.0, 0.0, 0.0, 0.0, 0.0, 0.0, 0.0, 1.645920539813421E9, 0.0, 2022-02-27 11:08:59.813
162.0, -3352.8510752738807, -6245.5020839574445, -1511.5814222790507, -10694.72857650859, -1185.0671392759252, 565.7673556527324, -5118.102445376211, -2569.0201007151727, -2893.1427470615804, -7338.144759910675, -4272.603007865311, -2949.5809018112304, -4762.463839347821, -3768.1241355090306, -10731.072512992921, -13803.811526752894, 0.0165, -0.10600000000000001, 0.994, 192.0, 0.0, 0.0, 0.0, 0.0, 0.0, 0.0, 0.0, 0.0, 0.0, 1.645920539820454E9, 0.0, 2022-02-27 11:08:59.820
164.0, -3423.057904608, -6249.368935748213, -1532.927338233869, -10797.345435302906, -1273.8259165079496, 512.4360933823697, -5138.084904919256, -2672.0839943985934, -5286.612246824771, -8274.34757642121, -4331.924537649696, -3192.320846595865, -4713.625277712975, -3834.486464796837, -11204.415405322958, -15025.200250768692, 0.013250000000000001, -0.10700000000000001, 0.993, 192.0, 0.0, 40.0, 126.0, 80.0, 15.5, 0.0, 0.0, 0.0, 0.0, 1.645920539827933E9, 0.0, 2022-02-27 11:08:59.827
166.0, -3590.4501188337945, -6390.766071172485, -1630.4479992923737, -10843.23356666965, -1405.5894500719846, 391.624914601435, -5135.559157795806, -2577.9384467528403, -2760.5298472082436, -7489.063738472908, -4294.552420920422, -2839.9455952579497, -4800.5735636441195, -3783.278618249729, -10655.25539580052, -13873.45956247563, 0.013250000000000001, -0.10700000000000001, 0.993, 192.0, 0.0, 0.0, 0.0, 0.0, 0.0, 0.0, 0.0, 0.0, 0.0, 1.645920539836005E9, 0.0, 2022-02-27 11:08:59.836
168.0, -3247.350841444831, -6143.622832730154, -1438.3347556990095, -10665.693660461147, -1126.2149961251016, 634.3648593860697, -5121.432855300052, -2614.617659403999, -4433.267347010058, -7798.389529989902, -4291.870211585786, -3160.268445046955, -4714.988734124749, -3780.4399467039048, -11062.928862920864, -14499.844849091156, 0.013250000000000001, -0.10700000000000001, 0.993, 192.0, 0.0, 0.0, 0.0, 0.0, 0.0, 0.0, 0.0, 0.0, 0.0, 1.645920539845448E9, 0.0, 2022-02-27 11:08:59.845
170.0, -3633.5889856325375, -6390.9001816392165, -1637.3323365846084, -10903.270352276606, -1465.4027182343864, 357.09146941798565, -5157.106239450722, -2670.0723373976157, -4289.23270574006, -8075.618216469075, -4333.71267720612, -2995.4019779446103, -4772.253903419245, -3831.04429615072, -10955.327565113017, -14648.752170652411, 0.013250000000000001, -0.10700000000000001, 0.993, 192.0, 0.0, 0.0, 0.0, 0.0, 0.0, 0.0, 0.0, 0.0, 0.0, 1.645920539857789E9, 0.0, 2022-02-27 11:08:59.857
172.0, -3343.7539152805707, -6227.285412226369, -1501.2549163406989, -10692.582809040881, -1205.7648546415394, 559.7100329053442, -5144.879835233669, -2563.879199490452, -2851.546150630254, -7311.792053197868, -4263.774068805465, -2933.8452737146945, -4767.336519639078, -3746.6217573430254, -10729.217318203131, -13789.215837623578, 0.013250000000000001, -0.10700000000000001, 0.993, 192.0, 0.0, 0.0, 0.0, 0.0, 0.0, 0.0, 0.0, 0.0, 0.0, 1.645920539865862E9, 0.0, 2022-02-27 11:08:59.865
174.0, -3413.737227170137, -6236.963717575517, -1519.896271216425, -10789.544676488003, -1276.5081258425864, 516.168834706406, -5114.123834863167, -2669.62530250851, -5293.720101561559, -8257.986099479926, -4336.417238285213, -3188.006959915991, -4717.782702181662, -3823.623516991558, -11206.382358835026, -15017.645361142799, 0.014625, -0.10950000000000001, 0.9895, 192.0, 0.0, 64.0, 126.0, 64.0, 15.0, 104.0, 0.0, 0.0, 0.0, 1.645920539873672E9, 0.0, 2022-02-27 11:08:59.873
176.0, -3599.1672991713644, -6393.448280507122, -1629.4198190474297, -10851.369601651384, -1420.319249668032, 380.9407807517983, -5104.065549858278, -2569.7577082821977, -2790.637646989542, -7505.313456691916, -4306.152976292727, -2837.8445312791505, -4807.56965965863, -3786.564324684659, -10659.949262136133, -13890.312777794932, 0.014625, -0.10950000000000001, 0.9895, 192.0, 0.0, 0.0, 0.0, 0.0, 0.0, 0.0, 0.0, 0.0, 0.0, 1.64592053988022E9, 0.0, 2022-02-27 11:08:59.880
178.0, -3251.5976728913397, -6146.752076953898, -1440.7487441001826, -10670.722802963592, -1129.9030339602273, 632.6884785519217, -5127.400771069619, -2615.3329152265687, -4381.612465573843, -7782.273922237626, -4303.783691380464, -3161.1848665696225, -4718.207385326313, -3780.5070019372706, -11058.279700074161, -14478.208360458419, 0.014625, -0.10950000000000001, 0.9895, 192.0, 0.0, 0.0, 0.0, 0.0, 0.0, 0.0, 0.0, 0.0, 0.0, 1.64592053988821E9, 0.0, 2022-02-27 11:08:59.888
180.0, -3635.9582705447997, -6400.98081838856, -1635.723010983826, -10910.378207013395, -1476.511535228674, 354.0739839165192, -5146.064477689801, -2664.4396977948786, -4344.732087222586, -8103.624952271575, -4349.805933213942, -3006.1531670276127, -4776.65719707694, -3836.721639242368, -10979.243931680196, -14681.050441390329, 0.014625, -0.10950000000000001, 0.9895, 192.0, 0.0, 0.0, 0.0, 0.0, 0.0, 0.0, 0.0, 0.0, 0.0, 1.645920539896314E9, 0.0, 2022-02-27 11:08:59.896
182.0, -3366.3068254359755, -6252.85580788324, -1506.6640384988832, -10705.88209699179, -1221.0310961045143, 552.5798264241012, -5104.53493649184, -2550.781077239642, -2825.1040369396255, -7322.006800413943, -4279.554400390912, -2932.8394452142056, -4775.785479043184, -3763.6314348735136, -10718.108501208842, -13786.399517822209, 0.014625, -0.10950000000000001, 0.9895, 192.0, 0.0, 0.0, 0.0, 0.0, 0.0, 0.0, 0.0, 0.0, 0.0, 1.645920539902832E9, 0.0, 2022-02-27 11:08:59.902
184.0, -3413.804282403503, -6250.464171226522, -1508.988619922235, -10791.779850933535, -1273.423585107754, 515.5206341172021, -5125.053837901812, -2671.7040147428534, -5296.938752763123, -8263.864608271671, -4341.647546487755, -3203.7649397569826, -4719.548489993631, -3830.619613006069, -11202.806079722177, -15022.40628271178, 0.013312500000000001, -0.10975000000000001, 0.98975, 192.0, 0.0, 48.0, 126.0, 72.0, 15.0, 120.0, 0.0, 0.0, 0.0, 1.64592053990982E9, 0.0, 2022-02-27 11:08:59.909
186.0, -3607.504499853194, -6412.64842899423, -1624.8600631785469, -10862.232549456663, -1429.349354427976, 377.4762603612257, -5130.999401926923, -2584.040472989139, -2820.4325223484666, -7531.576756426902, -4303.13549079126, -2846.8746360390946, -4804.954505557359, -3792.8451648766, -10662.363250537306, -13924.823871233926, 0.013312500000000001, -0.10975000000000001, 0.98975, 192.0, 0.0, 0.0, 0.0, 0.0, 0.0, 0.0, 0.0, 0.0, 0.0, 1.645920539917977E9, 0.0, 2022-02-27 11:08:59.917
188.0, -3251.240044980055, -6156.8103619587855, -1436.2336917202106, -10666.855951172824, -1126.1479408917357, 641.7409350563211, -5124.6515065016165, -2606.3698656999904, -4323.386171267769, -7767.29825345257, -4295.200621509626, -3151.551264709385, -4716.262783558701, -3766.4701064193378, -11045.203929567806, -14456.594223570137, 0.013312500000000001, -0.10975000000000001, 0.98975, 192.0, 0.0, 0.0, 0.0, 0.0, 0.0, 0.0, 0.0, 0.0, 0.0, 1.645920539925838E9, 0.0, 2022-02-27 11:08:59.925
190.0, -3640.0039362912103, -6406.501699269021, -1632.8619876935468, -10907.8748116344, -1464.1510205448892, 366.00981545565315, -5127.668992003083, -2643.0267266066944, -4395.649361091776, -8115.873708233084, -4348.196607613159, -3014.8703473651826, -4766.4200981164095, -3817.8344151776337, -10975.265321167151, -14700.317645110805, 0.013312500000000001, -0.10975000000000001, 0.98975, 192.0, 0.0, 0.0, 0.0, 0.0, 0.0, 0.0, 0.0, 0.0, 0.0, 1.645920539932544E9, 0.0, 2022-02-27 11:08:59.932
192.0, -3381.774232599048, -6265.551598733855, -1512.0061054237015, -10707.78199527049, -1230.3070700534668, 552.8703991020202, -5115.911974419591, -2541.952138179796, -2792.2469725903243, -7317.469396289515, -4281.029615524962, -2931.118360891147, -4773.684415064385, -3744.498341619771, -10705.725634780603, -13774.933072916636, 0.013312500000000001, -0.10975000000000001, 0.98975, 192.0, 0.0, 0.0, 0.0, 0.0, 0.0, 0.0, 0.0, 0.0, 0.0, 1.645920539940751E9, 0.0, 2022-02-27 11:08:59.940
194.0, -3415.413608004285, -6252.587586949777, -1512.9448786908245, -10785.253141552585, -1274.518820586064, 523.7460760767551, -5131.647602516127, -2666.3395960735793, -5292.066072471866, -8251.213520909969, -4342.9662994106175, -3206.916535725181, -4718.430902770866, -3815.889813410022, -11209.422196080946, -15016.527773920034, 0.01265625, -0.108875, 0.9898750000000001, 192.0, 0.0, 48.0, 126.0, 80.0, 15.0, 120.0, 0.0, 0.0, 0.0, 1.64592053994848E9, 0.0, 2022-02-27 11:08:59.948
196.0, -3632.3149361985847, -6433.636717037763, -1640.886263953002, -10865.093572746942, -1435.5854911310066, 368.5355625791029, -5112.961544151491, -2587.03560674615, -2853.937787286972, -7552.140361325784, -4314.132549063272, -2853.289586697768, -4804.932153812904, -3789.3806444860274, -10669.806381440923, -13940.917127241746, 0.01265625, -0.108875, 0.9898750000000001, 192.0, 0.0, 0.0, 0.0, 0.0, 0.0, 0.0, 0.0, 0.0, 0.0, 1.645920539955649E9, 0.0, 2022-02-27 11:08:59.955
198.0, -3275.5363912029734, -6182.425461104568, -1447.5213226701408, -10667.68296571767, -1121.9905164230486, 631.034449462229, -5110.748721450415, -2593.8528888050187, -4275.46403115559, -7762.179703972305, -4309.885717616763, -3159.1955613131004, -4725.918737163393, -3776.103708279575, -11035.570327707568, -14427.715769733879, 0.01265625, -0.108875, 0.9898750000000001, 192.0, 0.0, 0.0, 0.0, 0.0, 0.0, 0.0, 0.0, 0.0, 0.0, 1.645920539963065E9, 0.0, 2022-02-27 11:08:59.963
200.0, -3657.4159452218946, -6422.639658765753, -1642.8979209539798, -10909.43943374627, -1456.4843721967188, 368.6473213013794, -5127.44547455853, -2624.318316497602, -4449.517065229066, -8141.734676567874, -4357.785505984486, -3033.109370840713, -4772.477420863798, -3834.9334996859434, -10988.296388184595, -14717.841412763764, 0.01265625, -0.108875, 0.9898750000000001, 192.0, 0.0, 0.0, 0.0, 0.0, 0.0, 0.0, 0.0, 0.0, 0.0, 1.645920539971214E9, 0.0, 2022-02-27 11:08:59.971
202.0, -3411.39029400233, -6293.156003136159, -1534.022573712179, -10719.762530298536, -1219.9805641151147, 556.714899148333, -5085.915933360569, -2519.108655346472, -2769.3587862680897, -7322.118559136219, -4293.32307497538, -2938.606195283675, -4782.446298890865, -3753.1261149795196, -10698.886000977278, -13755.777627918438, 0.01265625, -0.108875, 0.9898750000000001, 192.0, 0.0, 0.0, 0.0, 0.0, 0.0, 0.0, 0.0, 0.0, 0.0, 1.645920539985171E9, 0.0, 2022-02-27 11:08:59.985
204.0, -3419.4592737506955, -6257.035584096383, -1522.7572945067043, -10780.425164750239, -1249.3954598182988, 548.198884510861, -5116.515471519884, -2640.5009794832445, -5292.982493994534, -8261.137695448124, -4351.437610559179, -3225.9378702566473, -4721.783664439162, -3820.069589623164, -11208.639885025012, -14999.004006267072, 0.010328125, -0.1054375, 0.9909375, 192.0, 0.0, 32.0, 126.0, 104.0, 15.5, 0.0, 0.0, 0.0, 0.0, 1.645920539992814E9, 0.0, 2022-02-27 11:08:59.992
206.0, -3637.2993752121183, -6435.715429272107, -1646.630662278016, -10865.562959380504, -1422.286203180099, 386.4393098878038, -5090.6097996961835, -2556.659586031388, -2883.889124857083, -7565.484352765603, -4314.110197318816, -2858.497543155854, -4800.4618049218425, -3792.3087230096726, -10674.187323354165, -13947.421484878241, 0.010328125, -0.1054375, 0.9909375, 192.0, 0.0, 0.0, 0.0, 0.0, 0.0, 0.0, 0.0, 0.0, 0.0, 1.64592054000082E9, 0.0, 2022-02-27 11:09:00.000
208.0, -3268.8979230997475, -6178.312740124791, -1446.8507703364814, -10659.524578991482, -1114.2121093526018, 648.93819677093, -5101.562154479284, -2580.263028176192, -4211.269821079948, -7743.426590374303, -4301.414406468201, -3152.780610654427, -4718.855585915517, -3771.275731477229, -11015.6996268868, -14388.935493103922, 0.010328125, -0.1054375, 0.9909375, 192.0, 0.0, 0.0, 0.0, 0.0, 0.0, 0.0, 0.0, 0.0, 0.0, 1.64592054000878E9, 0.0, 2022-02-27 11:09:00.008
210.0, -3654.309052742607, -6420.963277931604, -1644.5072465547619, -10901.906895864833, -1442.738049356705, 374.3246643930274, -5100.533974234339, -2612.4048367029236, -4495.919286718284, -8155.503351152343, -4355.550331538955, -3041.9606616450146, -4767.627092316997, -3851.7643632607897, -10996.588885377514, -14735.365180416726, 0.010328125, -0.1054375, 0.9909375, 192.0, 0.0, 0.0, 0.0, 0.0, 0.0, 0.0, 0.0, 0.0, 0.0, 1.645920540015593E9, 0.0, 2022-02-27 11:09:00.015
212.0, -3412.1949568027208, -6289.780889723407, -1537.1071144470113, -10715.202774429652, -1226.1496455847796, 547.0589455436403, -5085.401843238097, -2519.421579768846, -2742.4919894328104, -7323.370256825717, -4291.244362741037, -2931.8112649692616, -4788.101290238058, -3758.691699348891, -10687.218390371609, -13744.154720801678, 0.010328125, -0.1054375, 0.9909375, 192.0, 0.0, 0.0, 0.0, 0.0, 0.0, 0.0, 0.0, 0.0, 0.0, 1.645920540023523E9, 0.0, 2022-02-27 11:09:00.023
214.0, -3407.210517789187, -6246.105581057737, -1515.7611984921932, -10770.478638467626, -1244.6568899937738, 546.8354280990873, -5120.494082032929, -2644.5689969741106, -5292.557810849883, -8252.375811621645, -4348.24131110207, -3224.2167859335887, -4727.46100753081, -3825.7469327148124, -11206.896448957497, -14996.813535310452, 0.006, -0.10400000000000001, 0.988, 192.0, 0.0, 24.0, 126.0, 96.0, 15.0, 112.0, 0.0, 0.0, 0.0, 1.645920540031404E9, 0.0, 2022-02-27 11:09:00.031
216.0, -3666.021366837188, -6449.551159089942, -1662.1874764189097, -10875.15185775183, -1440.2346539777106, 379.1973446842843, -5099.595200967217, -2552.9938999407173, -2929.4866835459097, -7598.654341537278, -4322.916784634207, -2869.9416363169717, -4817.38207547451, -3799.2824672797287, -10677.562436766915, -13974.087116013423, 0.006, -0.10400000000000001, 0.988, 192.0, 0.0, 0.0, 0.0, 0.0, 0.0, 0.0, 0.0, 0.0, 0.0, 1.645920540038453E9, 0.0, 2022-02-27 11:09:00.038
218.0, -3280.878458127792, -6181.307873881802, -1454.4950669401965, -10664.754887194025, -1125.3432780913447, 638.3658216435697, -5104.087901602734, -2573.3339873950467, -4181.765518398943, -7738.7997792720535, -4316.278316530981, -3159.5978927132956, -4745.252996117234, -3782.429251960427, -11009.731711117234, -14371.344670217595, 0.006, -0.10400000000000001, 0.988, 192.0, 0.0, 0.0, 0.0, 0.0, 0.0, 0.0, 0.0, 0.0, 0.0, 1.645920540045068E9, 0.0, 2022-02-27 11:09:00.045
220.0, -3654.4208114648836, -6410.145033615236, -1640.3498220860747, -10907.695997678757, -1464.9556833452802, 380.02435922913065, -5125.880852446658, -2626.7993601321414, -4559.308833993535, -8176.290473495779, -4362.05468917545, -3059.9091124426263, -4786.80488905965, -3844.3882875905383, -11013.531507674636, -14763.997765063974, 0.006, -0.10400000000000001, 0.988, 192.0, 0.0, 0.0, 0.0, 0.0, 0.0, 0.0, 0.0, 0.0, 0.0, 1.645920540053113E9, 0.0, 2022-02-27 11:09:00.053
222.0, -3429.942241900235, -6299.77211949493, -1534.1119806900003, -10729.016152503033, -1244.0757446379357, 536.330108205093, -5106.568945237273, -2542.913263191374, -2724.4988351462885, -7338.524739566415, -4294.954752320618, -2935.923985949038, -4801.534688655697, -3770.7616413547566, -10690.839372973369, -13746.85928188077, 0.006, -0.10400000000000001, 0.988, 192.0, 0.0, 0.0, 0.0, 0.0, 0.0, 0.0, 0.0, 0.0, 0.0, 1.645920540061141E9, 0.0, 2022-02-27 11:09:00.061
224.0, -3412.5749364584613, -6247.111409558226, -1510.2403176117323, -10775.574836203437, -1256.3468523438994, 541.7615821077326, -5128.361896081197, -2642.4232295064007, -5289.406214881685, -8260.265977414367, -4354.1198198938155, -3232.621041848784, -4731.931356421871, -3833.4806362963486, -11213.333751360626, -14996.321796932436, 0.012, -0.10200000000000001, 0.988, 192.0, 0.0, 48.0, 126.0, 104.0, 15.0, 112.0, 0.0, 0.0, 0.0, 1.645920540067651E9, 0.0, 2022-02-27 11:09:00.067
226.0, -3665.1272970589757, -6443.6726502981965, -1659.080583939622, -10882.147953766342, -1451.768154116649, 371.3295306360162, -5106.4571865149965, -2548.6129580274774, -2973.8995997786046, -7619.441463880714, -4335.880796418285, -2877.2730084983123, -4827.7532849017725, -3815.1522058429964, -10691.867553218312, -13995.0530523125, 0.012, -0.10200000000000001, 0.988, 192.0, 0.0, 0.0, 0.0, 0.0, 0.0, 0.0, 0.0, 0.0, 0.0, 1.645920540075643E9, 0.0, 2022-02-27 11:09:00.075
228.0, -3282.0854523283783, -6176.7704697573745, -1448.482447681719, -10670.007547141022, -1120.3588390778111, 640.6009960891004, -5102.836203913236, -2583.03464448865, -4132.032886985885, -7717.699732506244, -4320.145168321749, -3151.0818780758236, -4745.655327517429, -3779.70233913688, -11002.46739416926, -14343.248527437274, 0.012, -0.10200000000000001, 0.988, 192.0, 0.0, 0.0, 0.0, 0.0, 0.0, 0.0, 0.0, 0.0, 0.0, 1.645920540083749E9, 0.0, 2022-02-27 11:09:00.083
230.0, -3645.4801136827605, -6404.020655634482, -1635.0077551612562, -10912.099291336453, -1450.3376424715093, 364.37813811041576, -5132.407561827607, -2643.1831888178813, -4607.253325850168, -8193.277799281812, -4368.313177622936, -3067.4863538129753, -4773.840877275572, -3850.266796382284, -11025.579097936046, -14787.310634530859, 0.012, -0.10200000000000001, 0.988, 192.0, 0.0, 0.0, 0.0, 0.0, 0.0, 0.0, 0.0, 0.0, 0.0, 1.645920540090785E9, 0.0, 2022-02-27 11:09:00.090
232.0, -3446.616643263894, -6313.876070246229, -1546.2936814181426, -10743.187158487697, -1258.1796953892347, 515.3641719060149, -5112.805081940303, -2513.073684343539, -2712.2053756958694, -7340.715210523035, -4308.522261204989, -2937.1086284051694, -4799.500679910264, -3786.2514002622847, -10683.083317647377, -13735.370485230744, 0.012, -0.10200000000000001, 0.988, 192.0, 0.0, 0.0, 0.0, 0.0, 0.0, 0.0, 0.0, 0.0, 0.0, 1.645920540105465E9, 0.0, 2022-02-27 11:09:00.105
234.0, -3417.2017475607095, -6252.587586949777, -1513.2354513687435, -10781.207475806175, -1247.0261749060364, 545.4049164539476, -5128.943041437035, -2637.2152730483144, -5303.130185977243, -8267.485590873432, -4374.526962581511, -3252.067059524901, -4739.620356514497, -3842.4436858229265, -11215.658332783978, -14986.978767750117, 0.012, -0.10400000000000001, 0.992, 192.0, 0.0, 48.0, 126.0, 96.0, 15.5, 0.0, 0.0, 0.0, 0.0, 1.645920540113475E9, 0.0, 2022-02-27 11:09:00.113
236.0, -3676.236114053263, -6461.41993539571, -1660.5110955847617, -10892.988549827165, -1454.0703837955457, 346.67555650181254, -5104.736102191938, -2575.2785891626586, -3032.818798162794, -7666.2460167701265, -4352.376383826302, -2894.372093006622, -4829.831997136116, -3818.4155605334713, -10696.807288742935, -14022.523346248074, 0.012, -0.10400000000000001, 0.992, 192.0, 0.0, 0.0, 0.0, 0.0, 0.0, 0.0, 0.0, 0.0, 0.0, 1.645920540120443E9, 0.0, 2022-02-27 11:09:00.120
238.0, -3292.8589931558363, -6197.199964189525, -1461.3794042324312, -10677.651843744738, -1132.1158566613028, 619.0762661786397, -5099.461090500485, -2579.4360136313458, -4090.9056771881196, -7719.599630784945, -4329.644659715254, -3163.8223724153486, -4749.611586286019, -3793.135737554519, -10990.531562630125, -14323.9813237168, 0.012, -0.10400000000000001, 0.992, 192.0, 0.0, 0.0, 0.0, 0.0, 0.0, 0.0, 0.0, 0.0, 0.0, 1.645920540127949E9, 0.0, 2022-02-27 11:09:00.127
240.0, -3658.622939422481, -6420.426836064677, -1641.5791680311165, -10916.077901849498, -1447.8789505814257, 361.18183865330684, -5115.531994763851, -2630.777970645186, -4674.73324236074, -8245.2456051404, -4385.8145935314415, -3098.689389072584, -4781.373415157011, -3865.756555289812, -11034.475092229259, -14809.863544686265, 0.012, -0.10400000000000001, 0.992, 192.0, 0.0, 0.0, 0.0, 0.0, 0.0, 0.0, 0.0, 0.0, 0.0, 1.64592054013738E9, 0.0, 2022-02-27 11:09:00.137
242.0, -3459.1112684144105, -6324.873128518239, -1553.0439082436453, -10749.959737057656, -1260.3254628569441, 505.52940434567984, -5098.477613744451, -2530.7539142076866, -2700.1130819455484, -7357.903702009166, -4314.8478048858415, -2941.1319424071244, -4802.272296222723, -3780.7752228707345, -10672.332128564374, -13733.649400907685, 0.012, -0.10400000000000001, 0.992, 192.0, 0.0, 0.0, 0.0, 0.0, 0.0, 0.0, 0.0, 0.0, 0.0, 1.645920540143706E9, 0.0, 2022-02-27 11:09:00.143
244.0, -3412.329067269453, -6251.537054960377, -1512.3860850794417, -10778.257045538074, -1237.4819800236203, 539.3028902176488, -5115.688456975038, -2647.2065028198367, -5293.47423237255, -8263.059945471281, -4370.9059799797515, -3260.203094506633, -4734.4794552897765, -3851.697308027424, -11214.518393816757, -14984.520075860033, 0.014, -0.10400000000000001, 0.992, 192.0, 0.0, 56.0, 126.0, 96.0, 15.5, 0.0, 0.0, 0.0, 0.0, 1.645920540151446E9, 0.0, 2022-02-27 11:09:00.151
246.0, -3682.4498990118386, -6464.593883108364, -1667.6189503215494, -10895.737814395168, -1457.4902006972077, 341.24408259917294, -5125.322058835275, -2577.9160950083847, -3080.338606874777, -7684.641502456845, -4346.587282012378, -2902.463424499443, -4819.930174342415, -3836.676935753457, -10705.323303380406, -14050.664192517304, 0.014, -0.10400000000000001, 0.992, 192.0, 0.0, 0.0, 0.0, 0.0, 0.0, 0.0, 0.0, 0.0, 0.0, 1.645920540158523E9, 0.0, 2022-02-27 11:09:00.158
248.0, -3295.295333301465, -6197.155260700615, -1460.1053547984786, -10678.545913522948, -1125.723257747085, 621.132626668528, -5114.950849408013, -2583.660493333399, -4042.2459295089166, -7702.455842787725, -4327.4094852697235, -3157.742697923505, -4742.883711204971, -3808.558441228681, -10980.02624273613, -14304.35649208504, 0.014, -0.10400000000000001, 0.992, 192.0, 0.0, 0.0, 0.0, 0.0, 0.0, 0.0, 0.0, 0.0, 0.0, 1.645920540164935E9, 0.0, 2022-02-27 11:09:00.164
250.0, -3652.431506208361, -6413.810719705906, -1640.3051185971642, -10917.419006516815, -1442.1345522564118, 360.60069329746887, -5126.9984396694235, -2654.1131918565266, -4726.924565663882, -8243.39041035061, -4384.317026652936, -3098.845851283771, -4777.5065633662425, -3879.592285107647, -11046.813255168589, -14831.947068208108, 0.014, -0.10400000000000001, 0.992, 192.0, 0.0, 0.0, 0.0, 0.0, 0.0, 0.0, 0.0, 0.0, 0.0, 1.645920540172879E9, 0.0, 2022-02-27 11:09:00.172
252.0, -3468.409594107818, -6337.300698435391, -1560.8446670585474, -10759.906263340266, -1257.911474455771, 481.88125871196496, -5100.19869806751, -2545.394306825913, -2687.5290498172108, -7351.64521356168, -4316.18890955316, -2944.9093872200715, -4805.736816613295, -3801.7411591698124, -10671.795686697447, -13736.465720709053, 0.014, -0.10400000000000001, 0.992, 192.0, 0.0, 0.0, 0.0, 0.0, 0.0, 0.0, 0.0, 0.0, 0.0, 1.645920540180993E9, 0.0, 2022-02-27 11:09:00.180
254.0, -3404.193032287721, -6258.957834119539, -1512.117864145978, -10774.770173403045, -1217.0077821025588, 531.0103930247299, -5117.655410487105, -2659.254093081247, -5289.0485869704, -8255.549759334297, -4370.324834623913, -3264.0252428084905, -4731.6631354884075, -3864.8401337671444, -11208.438719324913, -14972.53954083199, 0.01, -0.11, 0.994, 192.0, 0.0, 40.0, 126.0, 72.0, 15.5, 8.0, 0.0, 0.0, 0.0, 1.645920540188134E9, 0.0, 2022-02-27 11:09:00.188
0.0, -3680.1253175884867, -6464.549179619454, -1672.5586858461722, -10897.235381273673, -1448.795372104093, 332.1022191169523, -5124.8303204572585, -2570.8082402715972, -3128.752485364972, -7704.601610255434, -4347.324889579402, -2890.7511104048626, -4817.4267789634205, -3840.968470688876, -10714.576925584905, -14074.267634662108, 0.01, -0.11, 0.994, 192.0, 0.0, 0.0, 0.0, 0.0, 0.0, 0.0, 0.0, 0.0, 0.0, 1.645920540195491E9, 0.0, 2022-02-27 11:09:00.195
2.0, -3303.2749060720093, -6210.5663073738, -1467.056747324079, -10679.35057632334, -1113.1615773632022, 604.7935014716985, -5081.825564125248, -2558.8053534990972, -3984.131393925118, -7680.8640576438975, -4322.983839867573, -3140.5989099262847, -4749.812751986116, -3807.5302609837368, -10964.290614639594, -14273.600491714536, 0.01, -0.11, 0.994, 192.0, 0.0, 0.0, 0.0, 0.0, 0.0, 0.0, 0.0, 0.0, 0.0, 1.645920540203623E9, 0.0, 2022-02-27 11:09:00.203
4.0, -3645.502465427216, -6408.133376614258, -1636.0806388951112, -10912.814547159023, -1422.062685735546, 364.35578636596045, -5102.188003324032, -2633.9742701022947, -4775.383147642988, -8262.903483260094, -4387.625084832321, -3101.66217108514, -4779.071185478114, -3878.5194013737923, -11051.216548826284, -14851.840120773331, 0.01, -0.11, 0.994, 192.0, 0.0, 0.0, 0.0, 0.0, 0.0, 0.0, 0.0, 0.0, 0.0, 1.645920540210799E9, 0.0, 2022-02-27 11:09:00.210
6.0, -3473.326977887986, -6327.242413430502, -1560.665853102905, -10755.882949338311, -1262.3147681134665, 482.7306250012666, -5095.460128242985, -2535.760704965676, -2663.81384895013, -7351.220530417029, -4313.707865918621, -2923.027029398326, -4801.37822644451, -3790.744100897801, -10663.033802870967, -13733.358828229766, 0.01, -0.11, 0.994, 192.0, 0.0, 0.0, 0.0, 0.0, 0.0, 0.0, 0.0, 0.0, 0.0, 1.645920540218171E9, 0.0, 2022-02-27 11:09:00.218
8.0, -3389.351473969397, -6234.169749518604, -1496.7845674496375, -10758.69926913968, -1207.5082907090534, 539.3252419621041, -5110.368741794675, -2642.266767295214, -5262.807638979869, -8225.91134618656, -4366.659148533243, -3248.0213937784906, -4717.782702181662, -3844.745915501823, -11201.353216332582, -14960.00021219256, 0.012, -0.10200000000000001, 0.994, 192.0, 0.0, 48.0, 126.0, 104.0, 15.5, 8.0, 0.0, 0.0, 0.0, 1.645920540233266E9, 0.0, 2022-02-27 11:09:00.233
10.0, -3680.9970356222434, -6446.533673588476, -1658.3206246281416, -10893.614398671914, -1447.0072325476685, 332.1022191169523, -5096.91299163258, -2582.967589255284, -3160.044927602402, -7699.684226475267, -4339.881758675785, -2887.3536452476555, -4807.636714891996, -3830.172578116963, -10712.051178461454, -14095.434736661284, 0.012, -0.10200000000000001, 0.994, 192.0, 0.0, 0.0, 0.0, 0.0, 0.0, 0.0, 0.0, 0.0, 0.0, 1.645920540240364E9, 0.0, 2022-02-27 11:09:00.240
12.0, -3288.8356791538813, -6184.437118105545, -1453.8468663509925, -10671.885093675268, -1115.620269253286, 612.2366323753157, -5115.06260813029, -2584.84513578953, -3916.830291370188, -7648.498731672613, -4309.684551916665, -3119.968249794036, -4738.07808614708, -3791.4817084648266, -10945.917480697331, -14245.414941956395, 0.012, -0.10200000000000001, 0.994, 192.0, 0.0, 0.0, 0.0, 0.0, 0.0, 0.0, 0.0, 0.0, 0.0, 1.645920540247841E9, 0.0, 2022-02-27 11:09:00.247
14.0, -3627.3528489295068, -6386.273370536968, -1625.0388771341893, -10905.34906451095, -1423.7837700586047, 364.0205101991308, -5145.148056167132, -2651.09570635506, -4801.512336911242, -8254.92391048955, -4371.800049757963, -3101.7068745740503, -4765.503676593742, -3856.592340063136, -11065.499313533224, -14865.98877501354, 0.012, -0.10200000000000001, 0.994, 192.0, 0.0, 0.0, 0.0, 0.0, 0.0, 0.0, 0.0, 0.0, 0.0, 1.645920540255972E9, 0.0, 2022-02-27 11:09:00.255
16.0, -3490.224896696198, -6341.458122904078, -1570.0759375185894, -10767.237635521607, -1275.5693525754634, 460.8259154350657, -5073.555418676784, -2533.3243648200473, -2652.257997066736, -7346.213739659041, -4306.398845481735, -2915.986229894904, -4800.908839810949, -3796.8461271341002, -10656.618852212294, -13727.614429904752, 0.012, -0.10200000000000001, 0.994, 192.0, 0.0, 0.0, 0.0, 0.0, 0.0, 0.0, 0.0, 0.0, 0.0, 1.645920540263944E9, 0.0, 2022-02-27 11:09:00.263
18.0, -3391.7654623705703, -6232.85099659574, -1506.217003609777, -10762.879045352824, -1210.0563895769585, 524.10370398804, -5094.051968342301, -2652.5709214891103, -5261.958272690567, -8212.47794776892, -4363.239331631581, -3250.7930100909484, -4728.466836031298, -3858.939273230943, -11199.207448864872, -14947.48323529759, 0.016, -0.106, 0.99, 192.0, 0.0, 64.0, 126.0, 88.0, 15.0, 120.0, 0.0, 0.0, 0.0, 1.64592054027039E9, 0.0, 2022-02-27 11:09:00.270
20.0, -3690.854154927034, -6456.234330682079, -1668.1553921884768, -10905.617285444414, -1454.316252984554, 313.2373467966732, -5113.319172062776, -2601.0948540085383, -3231.324640670376, -7722.728875008688, -4344.597976755855, -2899.870622142628, -4814.521052184231, -3839.0909241546306, -10727.585640857893, -14125.60959167595, 0.016, -0.106, 0.99, 192.0, 0.0, 0.0, 0.0, 0.0, 0.0, 0.0, 0.0, 0.0, 0.0, 1.645920540278412E9, 0.0, 2022-02-27 11:09:00.278
22.0, -3291.4955367440625, -6188.885115252151, -1458.2948634975987, -10672.421535542195, -1119.755341977518, 597.9315159239193, -5108.267677815876, -2580.3747868984688, -3881.4027764085267, -7628.762141318577, -4306.465900715101, -3118.917717804637, -4739.195673369846, -3799.1483568129966, -10947.862082464944, -14225.72305509127, 0.016, -0.106, 0.99, 192.0, 0.0, 0.0, 0.0, 0.0, 0.0, 0.0, 0.0, 0.0, 0.0, 1.645920540285539E9, 0.0, 2022-02-27 11:09:00.285
24.0, -3616.914584268878, -6377.019748332471, -1616.5899177300832, -10900.744605153157, -1406.5952785724735, 362.52294332062525, -5116.53782326434, -2656.0801453685935, -4852.966052647359, -8258.164913435568, -4363.641663031776, -3106.4901478874863, -4752.2714438762005, -3871.3221396591834, -11070.23788335775, -14885.166571756194, 0.016, -0.106, 0.99, 192.0, 0.0, 0.0, 0.0, 0.0, 0.0, 0.0, 0.0, 0.0, 0.0, 1.645920540293384E9, 0.0, 2022-02-27 11:09:00.293
26.0, -3477.3949953788515, -6330.125788465237, -1558.9000652909358, -10766.902359354777, -1270.361396117377, 462.3458340580266, -5101.785671923837, -2555.318481364069, -2636.388258503468, -7342.995088457476, -4295.3570837208135, -2903.2010320664685, -4794.069206007624, -3799.4836329798263, -10649.712163175604, -13729.693142139095, 0.016, -0.106, 0.99, 192.0, 0.0, 0.0, 0.0, 0.0, 0.0, 0.0, 0.0, 0.0, 0.0, 1.645920540300119E9, 0.0, 2022-02-27 11:09:00.300
28.0, -3367.6032266143834, -6215.617801620699, -1486.1004336000008, -10758.386344717306, -1205.5413371969864, 536.9559570498416, -5126.283183846854, -2662.6962617273643, -5231.269327553431, -8192.026101592315, -4346.319061078913, -3242.4781611535745, -4720.017876627192, -3857.821686008178, -11199.5427250317, -14940.129511371793, 0.014, -0.106, 0.992, 192.0, 0.0, 56.0, 126.0, 88.0, 15.5, 0.0, 0.0, 0.0, 0.0, 1.645920540308214E9, 0.0, 2022-02-27 11:09:00.308
30.0, -3686.54026824716, -6452.859217269328, -1665.4284793649292, -10912.009884358631, -1468.0849275690232, 298.21697452270683, -5132.675782761072, -2624.5194821977, -3273.301216757443, -7735.24585190366, -4341.021697643006, -2900.2282500539127, -4815.19160451789, -3857.754630774812, -10739.387361930296, -14158.310193814063, 0.014, -0.106, 0.992, 192.0, 0.0, 0.0, 0.0, 0.0, 0.0, 0.0, 0.0, 0.0, 0.0, 1.64592054031616E9, 0.0, 2022-02-27 11:09:00.316
32.0, -3287.0475395974568, -6187.164030929092, -1456.3055582410764, -10675.975462910588, -1127.8019699814286, 586.0180361292406, -5124.986782668446, -2612.8518715920295, -3831.0889996396304, -7603.482318339625, -4309.3269240053805, -3111.586345623296, -4747.778743240684, -3825.23284259234, -10930.673590978813, -14214.077796230054, 0.014, -0.106, 0.992, 192.0, 0.0, 0.0, 0.0, 0.0, 0.0, 0.0, 0.0, 0.0, 0.0, 1.64592054032271E9, 0.0, 2022-02-27 11:09:00.322
34.0, -3603.7270550402473, -6366.156800527192, -1617.6180979750275, -10898.844706874455, -1413.2113949312443, 362.27707413161687, -5143.784599755359, -2682.2093346368474, -4901.938724748937, -8267.150314706601, -4370.168372412726, -3107.875956043715, -4766.353042883044, -3887.258933455817, -11085.772345754189, -14910.692263924155, 0.014, -0.106, 0.992, 192.0, 0.0, 0.0, 0.0, 0.0, 0.0, 0.0, 0.0, 0.0, 0.0, 1.645920540330809E9, 0.0, 2022-02-27 11:09:00.330
36.0, -3476.5903325784607, -6322.72736105053, -1572.1993532418435, -10771.171542545742, -1280.7549572890946, 455.01446187668586, -5117.074265131267, -2566.8296297585525, -2641.8197324061075, -7337.07187617682, -4303.13549079126, -2895.1767558070133, -4806.586182902597, -3803.2610777927734, -10651.96968936559, -13735.638706164207, 0.015, -0.10500000000000001, 0.991, 192.0, 0.0, 64.0, 126.0, 96.0, 15.0, 120.0, 0.0, 0.0, 0.0, 1.645920540338771E9, 0.0, 2022-02-27 11:09:00.338
38.0, -3352.6052060848724, -6204.5313363708665, -1494.1694133483666, -10756.866426094346, -1196.6006394148635, 537.9617855503304, -5136.676745018572, -2675.81673572263, -5218.394722747174, -8174.591740917175, -4348.5989390133545, -3238.745419829538, -4724.59998424053, -3859.1851424199517, -11199.721538987344, -14932.216993834614, 0.015, -0.10500000000000001, 0.991, 192.0, 0.0, 0.0, 0.0, 0.0, 0.0, 0.0, 0.0, 0.0, 0.0, 1.645920540352394E9, 0.0, 2022-02-27 11:09:00.352
40.0, -3673.866829141001, -6444.209092165124, -1674.8609155250688, -10918.849518161955, -1464.1286688004338, 302.1508815468409, -5138.867215975191, -2624.295964753147, -3322.9891446815905, -7756.971747514218, -4340.529959264989, -2897.4342819969993, -4819.617249920041, -3860.0121569647977, -10748.931556812711, -14189.602636051493, 0.015, -0.10500000000000001, 0.991, 192.0, 0.0, 0.0, 0.0, 0.0, 0.0, 0.0, 0.0, 0.0, 0.0, 1.645920540360448E9, 0.0, 2022-02-27 11:09:00.360
42.0, -3285.2370482965766, -6188.0357489628495, -1471.2365235372215, -10685.273788603996, -1129.9030339602273, 580.9665418823412, -5132.094637405234, -2611.846043091541, -3778.8976763364885, -7585.5338675420135, -4307.695246660143, -3096.0518832268576, -4754.059583432625, -3815.4427785209155, -10920.883526907388, -14189.535580818127, 0.015, -0.10500000000000001, 0.991, 192.0, 0.0, 0.0, 0.0, 0.0, 0.0, 0.0, 0.0, 0.0, 0.0, 1.645920540368363E9, 0.0, 2022-02-27 11:09:00.368
44.0, -3606.3198573970626, -6377.31032101039, -1627.5869760020944, -10908.523012223604, -1412.2279181752108, 356.82324848452197, -5154.0664022048, -2690.971218463328, -4949.6149956721065, -8281.366024180177, -4380.561933584444, -3127.500787675475, -4777.283045921689, -3896.557259149225, -11099.563372083114, -14936.91086017023, 0.015, -0.10500000000000001, 0.991, 192.0, 0.0, 0.0, 0.0, 0.0, 0.0, 0.0, 0.0, 0.0, 0.0, 1.645920540375437E9, 0.0, 2022-02-27 11:09:00.375
46.0, -3491.6554083413375, -6338.5970996137985, -1585.7445103817595, -10784.582589218926, -1293.808376050994, 449.3371187850379, -5129.859462959703, -2569.5118390931893, -2630.8226741340964, -7332.646230774669, -4315.294839774948, -2906.8220146682283, -4821.204223776367, -3825.5010635258036, -10656.372983023284, -13740.354924244277, 0.014499999999999999, -0.10350000000000001, 0.9924999999999999, 192.0, 0.0, 56.0, 126.0, 104.0, 15.5, 8.0, 0.0, 0.0, 0.0, 1.645920540383014E9, 0.0, 2022-02-27 11:09:00.383
48.0, -3349.3865548833082, -6199.457490379512, -1497.4998232722073, -10751.03262079151, -1194.8572033473497, 549.58469266709, -5137.012021185401, -2665.4008228064567, -5191.773795100903, -8154.743391840862, -4357.204360628648, -3251.821190335893, -4741.654365259929, -3867.7011570574236, -11206.851745468586, -14916.123737826794, 0.014499999999999999, -0.10350000000000001, 0.9924999999999999, 192.0, 0.0, 0.0, 0.0, 0.0, 0.0, 0.0, 0.0, 0.0, 0.0, 1.645920540391797E9, 0.0, 2022-02-27 11:09:00.391
50.0, -3672.525724473682, -6440.185778163169, -1675.8667440255576, -10910.467613991215, -1467.5484857020958, 311.29274502906145, -5137.794332241337, -2617.23281350527, -3367.4020609142854, -7775.702509367766, -4347.123723879305, -2912.1417298485912, -4825.294593011688, -3856.0558981962085, -10763.996632575589, -14204.220676925264, 0.014499999999999999, -0.10350000000000001, 0.9924999999999999, 192.0, 0.0, 0.0, 0.0, 0.0, 0.0, 0.0, 0.0, 0.0, 0.0, 1.645920540399001E9, 0.0, 2022-02-27 11:09:00.399
52.0, -3272.4742022125965, -6182.984254715951, -1465.894456612403, -10674.187323354165, -1130.2830136159675, 595.6963414783885, -5128.071323403278, -2598.7255690962756, -3704.533422533682, -7556.431896261203, -4299.067473300394, -3093.526136103408, -4754.372507855, -3806.591487716614, -10913.909782637333, -14158.019621136144, 0.014499999999999999, -0.10350000000000001, 0.9924999999999999, 192.0, 0.0, 0.0, 0.0, 0.0, 0.0, 0.0, 0.0, 0.0, 0.0, 1.645920540405124E9, 0.0, 2022-02-27 11:09:00.405
54.0, -3565.796144699591, -6347.090762506815, -1615.6734962074156, -10889.099346291941, -1403.1084064374456, 377.5209638501363, -5157.486219106462, -2708.740855305297, -4954.241806774355, -8268.357308907189, -4363.798125242964, -3122.5163486619413, -4762.374432369999, -3879.10054672963, -11107.073558220096, -14941.738836972576, 0.014499999999999999, -0.10350000000000001, 0.9924999999999999, 192.0, 0.0, 0.0, 0.0, 0.0, 0.0, 0.0, 0.0, 0.0, 0.0, 1.645920540412696E9, 0.0, 2022-02-27 11:09:00.412
56.0, -3473.952826732734, -6322.883823261717, -1584.2022400143433, -10774.390193747306, -1316.383637950854, 445.76083967218875, -5166.382213399675, -2574.295112406625, -2594.4340341608568, -7327.773550483412, -4299.648618656232, -2883.956180090449, -4812.5540986721635, -3799.528336468737, -10653.154331821721, -13743.014781834458, 0.01525, -0.10375000000000001, 0.99325, 192.0, 0.0, 64.0, 126.0, 96.0, 15.5, 8.0, 0.0, 0.0, 0.0, 1.645920540420708E9, 0.0, 2022-02-27 11:09:00.420
58.0, -3315.5907172668835, -6179.430327347556, -1485.7875091776264, -10736.36987642883, -1205.1166540523357, 554.747945636266, -5161.934216253068, -2664.998491406261, -5140.923576465079, -8117.2818681337685, -4340.798180198452, -3229.111817969301, -4731.238452343757, -3838.7779997322564, -11203.990722178307, -14895.202505016627, 0.01525, -0.10375000000000001, 0.99325, 192.0, 0.0, 0.0, 0.0, 0.0, 0.0, 0.0, 0.0, 0.0, 0.0, 1.645920540427704E9, 0.0, 2022-02-27 11:09:00.427
60.0, -3656.6783376548697, -6431.245080381046, -1674.3468254025968, -10916.480233249693, -1488.3356080455314, 304.2966490145503, -5146.131532923167, -2640.3445172720576, -3393.3300844824416, -7776.797744846076, -4339.255909831037, -2905.950296634471, -4819.192566775389, -3850.1997411489183, -10770.724507656636, -14231.62391562747, 0.01525, -0.10375000000000001, 0.99325, 192.0, 0.0, 0.0, 0.0, 0.0, 0.0, 0.0, 0.0, 0.0, 0.0, 1.645920540435301E9, 0.0, 2022-02-27 11:09:00.435
62.0, -3264.6957951421496, -6177.731594768953, -1473.6505119383946, -10677.204808855631, -1157.03805172897, 586.6885884628998, -5143.136399166156, -2590.1201474809823, -3633.0748955100653, -7538.595204185868, -4300.118005289794, -3082.104394686746, -4762.016804458714, -3807.8431854061114, -10903.516221465616, -14136.785463903603, 0.01525, -0.10375000000000001, 0.99325, 192.0, 0.0, 0.0, 0.0, 0.0, 0.0, 0.0, 0.0, 0.0, 0.0, 1.645920540444785E9, 0.0, 2022-02-27 11:09:00.444
64.0, -3553.2344643157085, -6339.558224625376, -1607.4480542478627, -10889.456974203227, -1421.481540379708, 375.7328242937117, -5162.604768586728, -2678.6330555239983, -4974.045452361757, -8270.21250369698, -4365.586264799388, -3124.3491917072765, -4768.275292906201, -3885.6943113439456, -11115.611924602024, -14953.875834211807, 0.01525, -0.10375000000000001, 0.99325, 192.0, 0.0, 0.0, 0.0, 0.0, 0.0, 0.0, 0.0, 0.0, 0.0, 1.64592054045135E9, 0.0, 2022-02-27 11:09:00.451
66.0, -3472.6564255543267, -6323.10734070627, -1579.2625044897204, -10789.410566021272, -1332.6557079143176, 425.44310396231464, -5122.863366945192, -2573.93748449534, -2576.329121152058, -7323.7949399703675, -4299.335694233858, -2879.2399620103793, -4819.907822597959, -3805.5186039827595, -10643.364267750296, -13735.86222360876, 0.015625, -0.10387500000000001, 0.992625, 192.0, 0.0, 64.0, 126.0, 96.0, 15.5, 0.0, 0.0, 0.0, 0.0, 1.6459205404579E9, 0.0, 2022-02-27 11:09:00.457
68.0, -3305.1301008618, -6176.189324401537, -1471.9964828487018, -10741.734295098102, -1204.4461017186763, 547.2154077548275, -5144.92453872258, -2685.897372471973, -5101.651561457105, -8099.132251636059, -4339.166502853215, -3231.1681784591888, -4730.165568609902, -3848.5904155481358, -11188.50096327078, -14886.105345023316, 0.015625, -0.10387500000000001, 0.992625, 192.0, 0.0, 0.0, 0.0, 0.0, 0.0, 0.0, 0.0, 0.0, 0.0, 1.645920540466455E9, 0.0, 2022-02-27 11:09:00.466
70.0, -3645.3460032160287, -6417.990495919049, -1657.2253891498315, -10916.949619883255, -1495.2646488266766, 306.3977129933492, -5188.935123555079, -2651.4980377552556, -3425.024858120067, -7781.960997815251, -4335.433761529179, -2902.128148332614, -4805.446243935376, -3848.433953336949, -10776.692423426202, -14264.77155265469, 0.015625, -0.10387500000000001, 0.992625, 192.0, 0.0, 0.0, 0.0, 0.0, 0.0, 0.0, 0.0, 0.0, 0.0, 1.645920540480941E9, 0.0, 2022-02-27 11:09:00.480
72.0, -3267.869742854803, -6179.564437814288, -1461.8934943549032, -10679.30587283443, -1161.4189936422104, 586.4427192738914, -5154.804009771826, -2618.909194339418, -3571.6523017468817, -7502.854764801832, -4299.402749467225, -3070.9285224590926, -4755.467743333309, -3793.716882910357, -10884.897218334345, -14111.818565347025, 0.015625, -0.10387500000000001, 0.992625, 192.0, 0.0, 0.0, 0.0, 0.0, 0.0, 0.0, 0.0, 0.0, 0.0, 1.645920540487604E9, 0.0, 2022-02-27 11:09:00.487
74.0, -3561.3034440640745, -6349.236529974524, -1602.7094844233377, -10894.195544027752, -1414.284278665099, 379.2643999176502, -5148.612576557705, -2704.136395947504, -5000.644028263572, -8272.648843842608, -4370.190724157182, -3130.9653080660473, -4763.827295759595, -3871.6574158260128, -11117.645933347456, -14975.15469493326, 0.015625, -0.10387500000000001, 0.992625, 192.0, 0.0, 0.0, 0.0, 0.0, 0.0, 0.0, 0.0, 0.0, 0.0, 1.645920540495641E9, 0.0, 2022-02-27 11:09:00.495
76.0, -3508.352161449452, -6354.422134688156, -1592.0253505737007, -10799.46885102616, -1346.4020307543315, 438.2506535352056, -5113.0285993848565, -2542.9579666802847, -2578.6313508309545, -7341.765742512434, -4315.831281641875, -2883.956180090449, -4828.8708721245375, -3807.083226094631, -10637.39635198073, -13745.384066746721, 0.0138125, -0.1049375, 0.9913125, 192.0, 0.0, 48.0, 126.0, 88.0, 15.0, 120.0, 0.0, 0.0, 0.0, 1.64592054050346E9, 0.0, 2022-02-27 11:09:00.503
78.0, -3332.42158084173, -6204.486632881955, -1478.5008404851962, -10743.79065558799, -1198.7464068825732, 561.6546346729559, -5127.244308858431, -2633.3484212575463, -5081.087956558223, -8100.115728392092, -4352.309328592936, -3233.626870349273, -4737.519292535698, -3844.14241840153, -11179.82848642212, -14860.043210988428, 0.0138125, -0.1049375, 0.9913125, 192.0, 0.0, 0.0, 0.0, 0.0, 0.0, 0.0, 0.0, 0.0, 0.0, 1.645920540510667E9, 0.0, 2022-02-27 11:09:00.510
80.0, -3701.985323665777, -6471.388813422777, -1670.7034910563816, -10926.78438744359, -1487.2850760561319, 321.4627887562262, -5129.63594551515, -2603.911173809907, -3505.0217515256113, -7828.363219304469, -4363.395793842768, -2921.931793920016, -4831.2401570368, -3851.339680116139, -10783.08502234042, -14281.937692396366, 0.0138125, -0.1049375, 0.9913125, 192.0, 0.0, 0.0, 0.0, 0.0, 0.0, 0.0, 0.0, 0.0, 0.0, 1.645920540518241E9, 0.0, 2022-02-27 11:09:00.518
82.0, -3335.550825065473, -6244.295089756857, -1472.510572971174, -10685.184381626175, -1124.0915804018475, 600.9937049142962, -5111.9110121620915, -2581.4476706323235, -3550.1946270697867, -7511.147261994751, -4320.323982277391, -3071.6214265372073, -4775.94194125437, -3789.2465340192957, -10872.827276328479, -14087.656329590838, 0.0138125, -0.1049375, 0.9913125, 192.0, 0.0, 0.0, 0.0, 0.0, 0.0, 0.0, 0.0, 0.0, 0.0, 1.645920540526234E9, 0.0, 2022-02-27 11:09:00.526
84.0, -3627.0622762515877, -6411.195565604636, -1601.4577867338405, -10894.352006238938, -1386.545763796063, 408.1205020094517, -5142.979936954968, -2676.8896194564845, -5070.157953519578, -8296.520506920875, -4394.956457013662, -3149.249035030489, -4770.890447007471, -3867.276473912773, -11120.462253148826, -14976.004061222562, 0.0138125, -0.1049375, 0.9913125, 192.0, 0.0, 0.0, 0.0, 0.0, 0.0, 0.0, 0.0, 0.0, 0.0, 1.645920540533407E9, 0.0, 2022-02-27 11:09:00.533
86.0, -3607.057464964088, -6454.80381903694, -1592.114757551522, -10809.549487775505, -1321.0775042864686, 441.2010838033061, -5128.898337948124, -2571.0764612050607, -2596.691560350843, -7360.854132277266, -4336.461941774123, -2888.7171016594293, -4821.718313898839, -3794.9015253664884, -10623.650029140716, -13738.969116088048, 0.008906250000000001, -0.10546875, 0.98965625, 192.0, 0.0, 16.0, 126.0, 88.0, 15.0, 112.0, 0.0, 0.0, 0.0, 1.645920540540433E9, 0.0, 2022-02-27 11:09:00.540
88.0, -3461.63701553786, -6341.055791503882, -1475.5504102170958, -10755.79354236049, -1179.6133136288302, 582.7546814387657, -5135.737971751449, -2658.874113425507, -5091.034482840834, -8126.289621149257, -4391.335474411902, -3268.070908554901, -4739.150969880935, -3843.6953835124236, -11171.692451440389, -14844.642859058722, 0.008906250000000001, -0.10546875, 0.98965625, 192.0, 0.0, 0.0, 0.0, 0.0, 0.0, 0.0, 0.0, 0.0, 0.0, 1.645920540547972E9, 0.0, 2022-02-27 11:09:00.547
90.0, -3842.9577759453987, -6617.613925649396, -1669.2953311556973, -10940.530710283603, -1485.9216196443583, 316.791274165067, -5138.442532830541, -2627.492264210256, -3594.786357258124, -7898.212420727304, -4406.780529830519, -2969.406899143088, -4822.031238321214, -3854.33481387315, -10795.356130046384, -14309.005654931743, 0.008906250000000001, -0.10546875, 0.98965625, 192.0, 0.0, 0.0, 0.0, 0.0, 0.0, 0.0, 0.0, 0.0, 0.0, 1.645920540555853E9, 0.0, 2022-02-27 11:09:00.555
92.0, -3488.4591088842285, -6399.684417210152, -1473.7846224051266, -10699.556553310938, -1141.0342026989701, 607.2074898728716, -5126.216128613488, -2578.6089990864994, -3529.988650082189, -7543.691401921678, -4364.9157124657295, -3110.9381450340925, -4769.594045829063, -3781.982217071321, -10862.657232601314, -14062.980003712179, 0.008906250000000001, -0.10546875, 0.98965625, 192.0, 0.0, 0.0, 0.0, 0.0, 0.0, 0.0, 0.0, 0.0, 0.0, 1.64592054056303E9, 0.0, 2022-02-27 11:09:00.563
94.0, -3772.7509466112792, -6567.411907602776, -1598.5297082101952, -10907.137204067374, -1376.4427753022642, 412.3449817115047, -5134.0615909173, -2673.939189188384, -5138.73310550846, -8353.718620982007, -4444.152646559793, -3210.4034078602085, -4766.598912072052, -3865.2201134228844, -11132.398084687959, -14992.074965485928, 0.008906250000000001, -0.10546875, 0.98965625, 192.0, 0.0, 0.0, 0.0, 0.0, 0.0, 0.0, 0.0, 0.0, 0.0, 1.645920540570505E9, 0.0, 2022-02-27 11:09:00.570
96.0, -3745.2806526757067, -6594.457518393698, -1597.2556587762426, -10824.972191449666, -1330.576995679974, 439.97173785826425, -5121.075227388767, -2555.229074386248, -2643.004374862239, -7430.211595322085, -4391.089605222894, -2949.469143088954, -4832.156578559468, -3799.1483568129966, -10630.444959455128, -13747.842758636805, 0.009453125, -0.103734375, 0.988828125, 192.0, 0.0, 40.0, 126.0, 104.0, 15.0, 112.0, 0.0, 0.0, 0.0, 1.64592054057861E9, 0.0, 2022-02-27 11:09:00.578
98.0, -3527.999344825667, -6412.313152827401, -1475.997445106202, -10749.825626590924, -1168.7280140790956, 594.1764228554276, -5131.49114030494, -2640.2104068053254, -5076.9305320895355, -8137.733714310374, -4419.901003825785, -3303.967810150124, -4738.3016035916335, -3824.5175867697703, -11172.854742152065, -14821.821727969853, 0.009453125, -0.103734375, 0.988828125, 192.0, 0.0, 0.0, 0.0, 0.0, 0.0, 0.0, 0.0, 0.0, 0.0, 1.64592054058661E9, 0.0, 2022-02-27 11:09:00.586
100.0, -3886.0295875107754, -6659.948129647748, -1677.9007527709905, -10947.772675487122, -1469.7613084031711, 331.4540185277484, -5126.149073380122, -2614.036514048161, -3655.672509154381, -7930.533043209678, -4429.512253941566, -2998.3971117016213, -4822.1206452990355, -3837.727467742857, -10805.906153429289, -14326.954105729355, 0.009453125, -0.103734375, 0.988828125, 192.0, 0.0, 0.0, 0.0, 0.0, 0.0, 0.0, 0.0, 0.0, 0.0, 1.645920540600179E9, 0.0, 2022-02-27 11:09:00.600
102.0, -3490.537821118572, -6397.337484042345, -1485.3181225440649, -10704.362178368829, -1131.8252839833838, 602.2006991148829, -5120.471730288474, -2573.6022083285106, -3490.806042052036, -7537.410561729737, -4381.478355107111, -3121.2199474835334, -4777.886543021982, -3775.522562923737, -10850.184959195252, -14034.950916165224, 0.009453125, -0.103734375, 0.988828125, 192.0, 0.0, 0.0, 0.0, 0.0, 0.0, 0.0, 0.0, 0.0, 0.0, 1.645920540608201E9, 0.0, 2022-02-27 11:09:00.608
104.0, -3734.9317949928995, -6525.748255938084, -1600.988400100279, -10901.146936553352, -1363.4117082848202, 416.56946141355775, -5136.6320415296605, -2679.616532280032, -5173.892399536658, -8357.406658817132, -4451.953405374695, -3219.96995448708, -4774.3996708869545, -3864.5495610892253, -11142.836349348587, -15000.568628378944, 0.009453125, -0.103734375, 0.988828125, 192.0, 0.0, 0.0, 0.0, 0.0, 0.0, 0.0, 0.0, 0.0, 0.0, 1.645920540616211E9, 0.0, 2022-02-27 11:09:00.616
106.0, -3696.9114776744223, -6537.617032243852, -1608.8338624040919, -10832.795302009023, -1328.4312282122646, 427.07478130755203, -5117.767169209382, -2565.399118113413, -2634.5777672025883, -7427.685848198635, -4390.0390732334945, -2935.365192337655, -4837.900976884482, -3803.0599120926754, -10633.305982745407, -13751.128465071735, 0.014, -0.108, 0.988, 192.0, 0.0, 56.0, 126.0, 80.0, 15.0, 112.0, 0.0, 0.0, 0.0, 1.6459205406229E9, 0.0, 2022-02-27 11:09:00.622
108.0, -3467.0014342071336, -6353.438657932122, -1481.0712910975567, -10754.094809781887, -1152.9923859825594, 580.9665418823412, -5134.709791506504, -2653.2414738227694, -5033.255223423866, -8112.252725631324, -4416.436483435212, -3297.0834728578893, -4752.472609576298, -3837.7721712317675, -11172.653576451967, -14806.242562084504, 0.014, -0.108, 0.988, 192.0, 0.0, 0.0, 0.0, 0.0, 0.0, 0.0, 0.0, 0.0, 0.0, 1.645920540630736E9, 0.0, 2022-02-27 11:09:00.630
110.0, -3831.9830694178427, -6606.773329588572, -1686.1038429860882, -10958.702678525768, -1473.4716979827522, 305.16836704830735, -5136.58733804075, -2628.1851682883703, -3709.5402132916706, -7950.314337052624, -4433.3567539878795, -3002.979219314959, -4841.410200763965, -3854.0665929396864, -10830.135444418842, -14360.12409450103, 0.014, -0.108, 0.988, 192.0, 0.0, 0.0, 0.0, 0.0, 0.0, 0.0, 0.0, 0.0, 0.0, 1.645920540638771E9, 0.0, 2022-02-27 11:09:00.638
112.0, -3437.608890248405, -6345.414381672666, -1492.4036255363972, -10706.776166770002, -1138.7766765089843, 585.7051117068663, -5132.496968805429, -2581.5147258656893, -3430.411628533796, -7521.943154566665, -4378.460869605645, -3109.6417438556846, -4796.416139175432, -3790.6099904310695, -10860.19854071123, -14023.73034044866, 0.014, -0.108, 0.988, 192.0, 0.0, 0.0, 0.0, 0.0, 0.0, 0.0, 0.0, 0.0, 0.0, 1.645920540645844E9, 0.0, 2022-02-27 11:09:00.645
114.0, -3657.1253725439756, -6454.8261707813945, -1604.8329001465918, -10890.663968403813, -1362.808211184527, 412.76966485615554, -5155.631024316672, -2686.3444073610794, -5188.041053776867, -8342.721562709996, -4444.934957615728, -3216.1925096741334, -4785.530839625698, -3867.4329361239597, -11172.02772760722, -15007.050634270983, 0.014, -0.108, 0.988, 192.0, 0.0, 0.0, 0.0, 0.0, 0.0, 0.0, 0.0, 0.0, 0.0, 1.645920540652354E9, 0.0, 2022-02-27 11:09:00.652
116.0, -3648.6093579065036, -6484.9339705626935, -1622.0884468660888, -10828.101435673409, -1341.3058330185215, 418.53641492562474, -5131.781712982859, -2568.0589757035946, -2615.936412326862, -7410.251487523496, -4377.589151571889, -2914.1086833606582, -4843.131285087024, -3814.504005253793, -10650.695639931637, -13760.359735531776, 0.014, -0.1, 0.99, 192.0, 0.0, 56.0, 126.0, 112.0, 15.0, 120.0, 0.0, 0.0, 0.0, 1.645920540660456E9, 0.0, 2022-02-27 11:09:00.660
118.0, -3408.708084667693, -6293.647741514175, -1484.0440731101123, -10738.783864830002, -1157.3733278957998, 572.651692944967, -5147.07030619029, -2664.5291047726996, -4978.582856486185, -8067.795105909719, -4407.0040472750725, -3278.240952282066, -4756.920606722904, -3835.782865975245, -11177.213332320849, -14787.44474499759, 0.014, -0.1, 0.99, 192.0, 0.0, 0.0, 0.0, 0.0, 0.0, 0.0, 0.0, 0.0, 0.0, 1.645920540668409E9, 0.0, 2022-02-27 11:09:00.668
120.0, -3790.051196819687, -6561.198122644201, -1690.3506744325966, -10943.92817544081, -1475.3715962614533, 303.2908205140615, -5127.1772536250655, -2624.5418339421553, -3737.8375217720895, -7945.776932928197, -4420.616259648355, -2988.11530925218, -4839.778523418728, -3859.073383697675, -10849.112075461397, -14388.287292514719, 0.014, -0.1, 0.99, 192.0, 0.0, 0.0, 0.0, 0.0, 0.0, 0.0, 0.0, 0.0, 0.0, 1.645920540674974E9, 0.0, 2022-02-27 11:09:00.674
122.0, -3402.8295758759473, -6309.383369610712, -1492.1354046029335, -10698.126041665799, -1135.982708452071, 573.5010592342686, -5107.507718504396, -2570.227094915759, -3364.1163544793553, -7493.779956552978, -4363.731070009598, -3084.2948656433664, -4802.227592733811, -3804.9374586269214, -10839.567880578981, -13991.230904010643, 0.014, -0.1, 0.99, 192.0, 0.0, 0.0, 0.0, 0.0, 0.0, 0.0, 0.0, 0.0, 0.0, 1.645920540683036E9, 0.0, 2022-02-27 11:09:00.683
124.0, -3617.76395055818, -6412.693132483141, -1594.0593593191338, -10880.203351998729, -1337.841312627949, 415.9436125688091, -5125.702038491016, -2657.6894709693756, -5190.343283455763, -8338.899414408137, -4427.59000391841, -3204.323733368365, -4781.4404703903765, -3883.8614682986104, -11164.517541470235, -15010.582209894921, 0.014, -0.1, 0.99, 192.0, 0.0, 0.0, 0.0, 0.0, 0.0, 0.0, 0.0, 0.0, 0.0, 1.645920540691006E9, 0.0, 2022-02-27 11:09:00.691
126.0, -3621.5190436266716, -6449.282938156479, -1617.953374141857, -10822.871127470868, -1326.3972194668318, 410.1321590104293, -5109.34056154973, -2568.953045481807, -2605.2969819661357, -7406.541097943914, -4364.736898510087, -2904.76565417834, -4844.405334520976, -3820.494272767815, -10642.112570060799, -13760.940880887614, 0.018000000000000002, -0.10400000000000001, 0.988, 192.0, 0.0, 72.0, 126.0, 96.0, 15.0, 112.0, 0.0, 0.0, 0.0, 1.645920540698074E9, 0.0, 2022-02-27 11:09:00.698
128.0, -3364.876313790836, -6244.585662434776, -1474.4551747387857, -10722.243573933074, -1129.4112955822106, 597.9091641794639, -5132.385210083153, -2628.565147944111, -4914.7462743218275, -8028.746608346297, -4380.897209751273, -3255.330414215376, -4744.627147272486, -3838.71094449889, -11163.869340881032, -14761.673183640622, 0.018000000000000002, -0.10400000000000001, 0.988, 192.0, 0.0, 0.0, 0.0, 0.0, 0.0, 0.0, 0.0, 0.0, 0.0, 1.645920540705721E9, 0.0, 2022-02-27 11:09:00.705
130.0, -3743.0231264857207, -6510.951401108671, -1684.3604069185744, -10932.841710190978, -1465.8274013790372, 308.7669979056118, -5122.170462867077, -2616.428150704879, -3768.973501798332, -7938.467912491312, -4400.544393127489, -2977.654692847096, -4831.754247159272, -3870.204552436418, -10848.754447550113, -14401.720690932358, 0.018000000000000002, -0.10400000000000001, 0.988, 192.0, 0.0, 0.0, 0.0, 0.0, 0.0, 0.0, 0.0, 0.0, 0.0, 1.645920540713522E9, 0.0, 2022-02-27 11:09:00.713
132.0, -3371.067747004956, -6275.162848849636, -1494.9070209153917, -10692.001663685043, -1145.5045515900317, 566.5049632197575, -5133.860425217203, -2575.1221269514713, -3293.216621067121, -7453.524464788969, -4348.4201250577125, -3063.820667722305, -4798.651313620962, -3799.4389294909156, -10831.76712176408, -13971.091982256412, 0.018000000000000002, -0.10400000000000001, 0.988, 192.0, 0.0, 0.0, 0.0, 0.0, 0.0, 0.0, 0.0, 0.0, 0.0, 1.645920540727859E9, 0.0, 2022-02-27 11:09:00.727
134.0, -3583.5881332860154, -6381.110117567792, -1594.1264145524997, -10871.016785027598, -1344.0550975865242, 414.08841777901864, -5152.21120741501, -2673.7156717438306, -5201.161527772132, -8321.867385133193, -4417.241146235603, -3199.115776910279, -4779.85349653405, -3884.621427610091, -11186.556361503168, -15019.187631510214, 0.018000000000000002, -0.10400000000000001, 0.988, 192.0, 0.0, 0.0, 0.0, 0.0, 0.0, 0.0, 0.0, 0.0, 0.0, 1.645920540735225E9, 0.0, 2022-02-27 11:09:00.735
136.0, -3614.902927267901, -6441.549234574943, -1627.9893074022898, -10833.242336898129, -1356.7061849482282, 386.1040337209742, -5108.312381304787, -2566.293187891625, -2621.5243484406888, -7412.6654759246685, -4362.188799642182, -2900.3176570317337, -4850.775581690738, -3828.943232171921, -10655.836541156357, -13777.324709573355, 0.018000000000000002, -0.106, 0.99, 192.0, 0.0, 72.0, 126.0, 88.0, 15.0, 120.0, 0.0, 0.0, 0.0, 1.645920540743386E9, 0.0, 2022-02-27 11:09:00.743
138.0, -3351.0182322285455, -6231.644002395154, -1478.8137649075707, -10728.010324002544, -1144.3422608783558, 576.4067860134585, -5141.6164805431945, -2657.2424360802697, -4881.844506483616, -8019.224765208336, -4380.986616729095, -3260.7842398624707, -4749.5668827971085, -3854.4242208509713, -11170.820733406632, -14750.474959668514, 0.018000000000000002, -0.106, 0.99, 192.0, 0.0, 0.0, 0.0, 0.0, 0.0, 0.0, 0.0, 0.0, 0.0, 1.645920540751426E9, 0.0, 2022-02-27 11:09:00.751
140.0, -3736.6081758270475, -6495.483993945599, -1689.9259912879459, -10944.174044629819, -1484.312294043576, 290.1703465187963, -5169.712623323515, -2635.382430002979, -3831.2901653397284, -7963.323052325613, -4398.018646004039, -2994.1949837440234, -4824.62404067803, -3879.234657196362, -10886.260674746118, -14451.878005490067, 0.018000000000000002, -0.106, 0.99, 192.0, 0.0, 0.0, 0.0, 0.0, 0.0, 0.0, 0.0, 0.0, 0.0, 1.645920540757818E9, 0.0, 2022-02-27 11:09:00.757
142.0, -3374.8451918179026, -6271.944197648072, -1508.6309920109502, -10703.222239401608, -1166.0905082333695, 545.5166751762242, -5103.685570202538, -2580.978283998762, -3257.2526642385324, -7451.110476387797, -4349.0683256469165, -3068.626292780196, -4800.215935732834, -3818.728484955846, -10843.166511436286, -13970.846113067402, 0.018000000000000002, -0.106, 0.99, 192.0, 0.0, 0.0, 0.0, 0.0, 0.0, 0.0, 0.0, 0.0, 0.0, 1.645920540765945E9, 0.0, 2022-02-27 11:09:00.765
144.0, -3570.4676592907504, -6363.07225979236, -1591.1983360288546, -10872.58140713947, -1354.225141313689, 406.93585955332037, -5137.34729735223, -2689.227782395814, -5230.41996126413, -8330.003420114925, -4422.426750949234, -3215.3207916403762, -4782.736871568784, -3895.327913204183, -11197.620475008545, -15038.432483486235, 0.018000000000000002, -0.106, 0.99, 192.0, 0.0, 0.0, 0.0, 0.0, 0.0, 0.0, 0.0, 0.0, 0.0, 1.645920540773831E9, 0.0, 2022-02-27 11:09:00.773
146.0, -3606.6774853083475, -6421.70088549863, -1619.9426793983794, -10832.705895031202, -1361.6012169839403, 387.60160059947975, -5117.096616875722, -2571.03175771615, -2624.8994618534402, -7415.079464325841, -4360.0430321744725, -2892.606305194653, -4840.560834474663, -3830.530206028248, -10658.54110223545, -13792.21097138059, 0.018000000000000002, -0.106, 0.992, 192.0, 0.0, 72.0, 126.0, 88.0, 15.5, 0.0, 0.0, 0.0, 0.0, 1.645920540779863E9, 0.0, 2022-02-27 11:09:00.779
148.0, -3340.2670431455426, -6211.259211451914, -1468.0849275690232, -10718.711998309136, -1143.5823015668752, 580.0054168707629, -5133.234576372454, -2633.683697424376, -4836.246947794789, -7987.731157270809, -4379.421994617223, -3248.7366496010604, -4743.107228649525, -3845.1258951575633, -11156.135637299496, -14719.204869175539, 0.018000000000000002, -0.106, 0.992, 192.0, 0.0, 0.0, 0.0, 0.0, 0.0, 0.0, 0.0, 0.0, 0.0, 1.645920540787591E9, 0.0, 2022-02-27 11:09:00.787
150.0, -3720.760789008235, -6471.23235121159, -1670.9493602453902, -10930.964163656732, -1468.0178723356573, 308.61053569442464, -5130.440608315541, -2629.0792380665825, -3878.139421718052, -7964.552398270655, -4396.096395980882, -2987.087129007236, -4815.348066729077, -3872.52913385977, -10879.733965365169, -14462.00334572832, 0.018000000000000002, -0.106, 0.992, 192.0, 0.0, 0.0, 0.0, 0.0, 0.0, 0.0, 0.0, 0.0, 0.0, 1.645920540795503E9, 0.0, 2022-02-27 11:09:00.795
152.0, -3349.8559415168693, -6238.953022832039, -1485.4969364997073, -10685.363195581818, -1144.0516882004367, 565.4097277414475, -5094.6554654425945, -2556.7936964981195, -3190.331541339343, -7408.262182266973, -4332.885662661274, -3041.558330244819, -4779.831144789594, -3798.924839368444, -10806.710816229679, -13927.729598013115, 0.018000000000000002, -0.106, 0.992, 192.0, 0.0, 0.0, 0.0, 0.0, 0.0, 0.0, 0.0, 0.0, 0.0, 1.645920540803583E9, 0.0, 2022-02-27 11:09:00.803
154.0, -3543.220882799731, -6336.272518190446, -1558.4530304018297, -10852.800113296524, -1321.5021874311194, 439.8599791359877, -5121.499910533418, -2668.999453663761, -5223.490920482984, -8296.945190065526, -4395.5376023695, -3203.4967188235187, -4748.024612429692, -3869.7575175473116, -11180.856666667065, -15020.394625710802, 0.018000000000000002, -0.106, 0.992, 192.0, 0.0, 0.0, 0.0, 0.0, 0.0, 0.0, 0.0, 0.0, 0.0, 1.645920540810147E9, 0.0, 2022-02-27 11:09:00.810
156.0, -3606.409264374884, -6418.236365108057, -1611.404313016452, -10828.436711840239, -1358.1590483378232, 389.5238506226362, -5114.503814518906, -2549.5070278056896, -2634.2648427802137, -7413.358380002783, -4348.1295523797935, -2891.2428487828793, -4822.254755765767, -3820.3825140455383, -10641.844349127336, -13782.890293942726, 0.016, -0.106, 0.99, 192.0, 0.0, 64.0, 126.0, 88.0, 15.0, 120.0, 0.0, 0.0, 0.0, 1.645920540818254E9, 0.0, 2022-02-27 11:09:00.818
158.0, -3320.262231858043, -6194.9647897439945, -1458.1831047753221, -10709.391320871273, -1131.1994351386352, 586.2415535737937, -5109.854651672203, -2628.0734095660937, -4780.725214567807, -7954.270595821214, -4358.903093207252, -3236.7114110841053, -4726.544586008142, -3835.76051423079, -11137.024895790208, -14684.112630380707, 0.016, -0.106, 0.99, 192.0, 0.0, 0.0, 0.0, 0.0, 0.0, 0.0, 0.0, 0.0, 0.0, 1.645920540826162E9, 0.0, 2022-02-27 11:09:00.826
160.0, -3719.6432017854695, -6466.426726153699, -1668.3118543996638, -10934.160463113842, -1471.2141717927661, 304.2966490145503, -5132.608727527706, -2622.4631217078118, -3929.1237508206073, -7979.840991478085, -4393.458890135156, -3000.11819602468, -4808.553136414664, -3878.00531125132, -10881.320939221494, -14483.595130872147, 0.016, -0.106, 0.99, 192.0, 0.0, 0.0, 0.0, 0.0, 0.0, 0.0, 0.0, 0.0, 0.0, 1.645920540833301E9, 0.0, 2022-02-27 11:09:00.833
162.0, -3359.37778465483, -6245.18915953507, -1489.475547012752, -10693.029843929988, -1161.262531431023, 551.7975153681655, -5129.859462959703, -2565.130897179949, -3146.075087317835, -7400.148499029697, -4325.241366057559, -3031.8576731512157, -4778.80296454465, -3808.6701999509573, -10795.110260857375, -13907.523621025519, 0.016, -0.106, 0.99, 192.0, 0.0, 0.0, 0.0, 0.0, 0.0, 0.0, 0.0, 0.0, 0.0, 1.645920540847777E9, 0.0, 2022-02-27 11:09:00.847
164.0, -3531.665030916337, -6317.139424936703, -1561.3587571810197, -10853.895348774833, -1321.971574064681, 429.98050808674196, -5132.765189738892, -2674.542686288677, -5244.210987593054, -8301.147318023124, -4390.776680800519, -3210.0457799489236, -4749.119847908002, -3887.7953753227443, -11189.417384793447, -15030.229393271136, 0.016, -0.106, 0.99, 192.0, 0.0, 0.0, 0.0, 0.0, 0.0, 0.0, 0.0, 0.0, 0.0, 1.645920540855826E9, 0.0, 2022-02-27 11:09:00.855
166.0, -3605.7163602967694, -6409.586240003853, -1616.4334555188962, -10839.8584532569, -1366.2503798306443, 377.1409841943961, -5116.001381397412, -2557.039565687128, -2636.9023486259402, -7414.252449780995, -4342.3180988214135, -2884.917305102027, -4819.349028986577, -3824.5175867697703, -10641.352610749318, -13792.233323125045, 0.014, -0.106, 0.988, 192.0, 0.0, 56.0, 126.0, 88.0, 15.0, 112.0, 0.0, 0.0, 0.0, 1.645920540862888E9, 0.0, 2022-02-27 11:09:00.862
168.0, -3315.8812899448026, -6192.640208320643, -1457.6913663973055, -10716.0297889745, -1126.9302519476714, 580.4748035043244, -5111.128701106156, -2627.626374676988, -4736.513464035209, -7930.868319376507, -4354.544503038466, -3247.4849519115633, -4724.667039473897, -3845.3047091132057, -11126.698389851856, -14659.592766713235, 0.014, -0.106, 0.988, 192.0, 0.0, 0.0, 0.0, 0.0, 0.0, 0.0, 0.0, 0.0, 0.0, 1.645920540870348E9, 0.0, 2022-02-27 11:09:00.870
170.0, -3713.49647206026, -6457.016641738015, -1667.3283776436303, -10943.63760276289, -1459.3006919980876, 295.9818000771761, -5127.199605369521, -2632.9460898573507, -3985.6066090591685, -7990.346311372079, -4383.15473594126, -3007.315457739289, -4798.651313620962, -3881.8051078087224, -10894.597875427948, -14510.663093407524, 0.014, -0.106, 0.988, 192.0, 0.0, 0.0, 0.0, 0.0, 0.0, 0.0, 0.0, 0.0, 0.0, 1.645920540878461E9, 0.0, 2022-02-27 11:09:00.878
172.0, -3367.8937992923024, -6254.129857317193, -1500.9196401738693, -10704.630399302292, -1154.1099732053249, 537.0900675165734, -5106.144262092622, -2566.4049466139018, -3112.2568979569555, -7388.525591912937, -4325.844863157852, -3038.116161598702, -4773.058566219636, -3815.0851506096305, -10782.816801406956, -13890.1786673282, 0.014, -0.106, 0.988, 192.0, 0.0, 0.0, 0.0, 0.0, 0.0, 0.0, 0.0, 0.0, 0.0, 1.645920540886435E9, 0.0, 2022-02-27 11:09:00.886
174.0, -3514.901222574857, -6311.395026611689, -1560.732908336271, -10854.00710749711, -1309.1640244917899, 426.6948016518118, -5132.0499339163225, -2689.227782395814, -5266.942711704101, -8299.716806377985, -4391.871916278829, -3224.6414690782394, -4738.391010569455, -3892.6010003806355, -11186.6904719699, -15034.431521228735, 0.011, -0.106, 0.988, 192.0, 0.0, 32.0, 126.0, 88.0, 15.0, 112.0, 0.0, 0.0, 0.0, 1.645920540893064E9, 0.0, 2022-02-27 11:09:00.893
176.0, -3606.14104344142, -6413.073112138881, -1626.8270166906138, -10850.073200472976, -1375.8169264575156, 359.2595886301504, -5121.29874483332, -2565.265007646681, -2652.772087189208, -7426.031819108942, -4338.652412730743, -2885.0067120798485, -4811.324752727121, -3833.9500229299097, -10636.882261858256, -13808.483041344052, 0.011, -0.106, 0.988, 192.0, 0.0, 0.0, 0.0, 0.0, 0.0, 0.0, 0.0, 0.0, 0.0, 1.645920540900021E9, 0.0, 2022-02-27 11:09:00.900
178.0, -3303.252554327554, -6185.957036728506, -1458.4289739643305, -10712.945248239666, -1129.2324816265682, 576.3844342690032, -5125.210300112999, -2629.4145142334123, -4693.486355958743, -7912.942220323351, -4348.777752968997, -3234.1633122162, -4717.8721091594825, -3839.068572410175, -11116.684808335878, -14644.103007805707, 0.011, -0.106, 0.988, 192.0, 0.0, 0.0, 0.0, 0.0, 0.0, 0.0, 0.0, 0.0, 0.0, 1.645920540908157E9, 0.0, 2022-02-27 11:09:00.908
180.0, -3694.497489273249, -6443.404429364733, -1662.9027322414795, -10944.59872777447, -1477.6961776848052, 287.3540267174276, -5146.422105601086, -2649.1734563319037, -4034.936909072031, -7994.704901540864, -4374.169334670226, -3006.1531670276127, -4786.84959254856, -3878.9887880073534, -10907.561887212025, -14540.25680306635, 0.011, -0.106, 0.988, 192.0, 0.0, 0.0, 0.0, 0.0, 0.0, 0.0, 0.0, 0.0, 0.0, 1.6459205409151E9, 0.0, 2022-02-27 11:09:00.915
182.0, -3362.0376422450117, -6250.218302037514, -1495.0634831265788, -10714.17459418471, -1181.4461566741654, 533.0667535146181, -5127.959564681001, -2570.8305920160524, -3062.4125078216207, -7364.363356156749, -4315.361895008314, -3018.8042543893166, -4770.666929562918, -3810.011304618276, -10778.011176349066, -13878.712222422628, 0.011, -0.106, 0.988, 192.0, 0.0, 0.0, 0.0, 0.0, 0.0, 0.0, 0.0, 0.0, 0.0, 1.645920540922705E9, 0.0, 2022-02-27 11:09:00.922
184.0, -3503.412425924829, -6309.942163222095, -1549.7805535531704, -10857.113999976398, -1320.9433938197367, 431.7909993876218, -5137.704925263515, -2688.825450995618, -5277.38097636473, -8291.40195744061, -4382.283017907503, -3222.1157219547895, -4735.351173323533, -3883.6379508540576, -11199.408614564969, -15040.220623042658, 0.0065, -0.108, 0.987, 192.0, 0.0, 8.0, 126.0, 72.0, 15.0, 104.0, 0.0, 0.0, 0.0, 1.645920540930619E9, 0.0, 2022-02-27 11:09:00.930
186.0, -3607.0127614751773, -6417.655219752219, -1619.2050718313542, -10860.19854071123, -1393.899487721859, 356.175047895318, -5133.726314750471, -2588.175545713371, -2672.9780641768057, -7438.414685537182, -4333.444456272657, -2880.603418422153, -4815.52688068472, -3821.1201216125637, -10650.986212609556, -13826.587954352852, 0.0065, -0.108, 0.987, 192.0, 0.0, 0.0, 0.0, 0.0, 0.0, 0.0, 0.0, 0.0, 0.0, 1.645920540938776E9, 0.0, 2022-02-27 11:09:00.938
188.0, -3297.1505280912556, -6187.499307095923, -1445.7331831137162, -10712.364102883828, -1137.7037927751294, 579.6701407039334, -5140.54359680934, -2656.7059942133424, -4648.358183903478, -7880.129859462961, -4340.328793564891, -3218.0924079528345, -4719.257917315712, -3825.4787117813485, -11113.86848853451, -14624.478176173947, 0.0065, -0.108, 0.987, 192.0, 0.0, 0.0, 0.0, 0.0, 0.0, 0.0, 0.0, 0.0, 0.0, 1.645920540945497E9, 0.0, 2022-02-27 11:09:00.945
190.0, -3697.5149747747155, -6455.697888815152, -1657.9406449724013, -10948.577338287514, -1479.5513724745956, 300.74272164615655, -5138.330774108264, -2644.6584039519316, -4094.3925493231477, -8014.821471550641, -4373.275264892014, -3008.857728106705, -4790.515278639231, -3864.6389680670463, -10923.20810833074, -14571.191617392495, 0.0065, -0.108, 0.987, 192.0, 0.0, 0.0, 0.0, 0.0, 0.0, 0.0, 0.0, 0.0, 0.0, 1.645920540953348E9, 0.0, 2022-02-27 11:09:00.953
192.0, -3371.71594759416, -6267.585607479287, -1495.376407548953, -10718.510832609038, -1181.8037845854503, 536.1736459939058, -5111.016942383879, -2567.4778303477565, -3023.855748636216, -7354.662699063147, -4316.054799086428, -3010.2882397518447, -4782.491002379776, -3791.079377064631, -10773.406716991272, -13864.2729955045, 0.0065, -0.108, 0.987, 192.0, 0.0, 0.0, 0.0, 0.0, 0.0, 0.0, 0.0, 0.0, 0.0, 1.645920540961473E9, 0.0, 2022-02-27 11:09:00.961
194.0, -3502.2054317242423, -6317.608811570265, -1537.2412249137433, -10852.420133640782, -1304.1125302448906, 450.90174089690936, -5134.665088017594, -2683.6621980264426, -5290.85907827128, -8289.63616962864, -4383.802936530464, -3226.787236545949, -4737.452237302332, -3867.8576192686105, -11204.705978000877, -15046.076780089948, 0.00825, -0.107, 0.9864999999999999, 192.0, 0.0, 40.0, 126.0, 88.0, 15.0, 104.0, 0.0, 0.0, 0.0, 1.645920540974971E9, 0.0, 2022-02-27 11:09:00.974
196.0, -3636.092381011532, -6450.177007934691, -1614.6229642180163, -10861.00320351162, -1395.1511854113562, 362.7017572762677, -5132.496968805429, -2587.169717212882, -2702.907050002462, -7453.747982233523, -4341.982822654584, -2883.531496945798, -4817.024447563225, -3812.581755230636, -10653.355497521818, -13842.569451638396, 0.00825, -0.107, 0.9864999999999999, 192.0, 0.0, 0.0, 0.0, 0.0, 0.0, 0.0, 0.0, 0.0, 0.0, 1.645920540982985E9, 0.0, 2022-02-27 11:09:00.982
198.0, -3339.551787322973, -6239.064781554316, -1438.0888865100012, -10713.258172662041, -1130.8865107162608, 588.6108384860562, -5130.664125760094, -2646.513598741722, -4612.751854986173, -7879.727528062765, -4349.582415769389, -3229.6035563473174, -4723.16947259539, -3815.5992407321028, -11104.123127951996, -14593.185733936518, 0.00825, -0.107, 0.9864999999999999, 192.0, 0.0, 0.0, 0.0, 0.0, 0.0, 0.0, 0.0, 0.0, 0.0, 1.645920540991061E9, 0.0, 2022-02-27 11:09:00.991
200.0, -3765.1290017520196, -6532.163206596757, -1648.3293948566193, -10948.420876076327, -1477.8749916404477, 306.55417520453636, -5147.942024224046, -2664.685566983887, -4175.149402040172, -8061.581320951143, -4397.169279714737, -3032.5505772293304, -4791.342293184077, -3862.806125021711, -10933.288745080084, -14594.571542092746, 0.00825, -0.107, 0.9864999999999999, 192.0, 0.0, 0.0, 0.0, 0.0, 0.0, 0.0, 0.0, 0.0, 0.0, 1.645920540997637E9, 0.0, 2022-02-27 11:09:00.997
202.0, -3488.0344257395777, -6379.031405333449, -1493.0741778700565, -10722.087111721887, -1189.6939503781737, 541.2698437297158, -5119.220032598977, -2559.4312023438456, -3012.0987310527244, -7380.03192901992, -4340.887587176274, -3025.822702148283, -4778.557095355642, -3783.658597905469, -10761.448533707684, -13843.2176522276, 0.00825, -0.107, 0.9864999999999999, 192.0, 0.0, 0.0, 0.0, 0.0, 0.0, 0.0, 0.0, 0.0, 0.0, 1.64592054100545E9, 0.0, 2022-02-27 11:09:01.005
204.0, -3629.5209681416713, -6449.484103856576, -1529.9769079657685, -10848.620337083381, -1293.9201347732705, 465.9221131708757, -5156.636852817161, -2688.132546917504, -5340.368192239785, -8319.162824054101, -4419.0963410253935, -3261.8571235963254, -4732.288984333156, -3857.844037752633, -11204.705978000877, -15038.320724763958, 0.010125, -0.10550000000000001, 0.98625, 192.0, 0.0, 48.0, 126.0, 96.0, 15.0, 104.0, 0.0, 0.0, 0.0, 1.645920541013717E9, 0.0, 2022-02-27 11:09:01.013
206.0, -3804.9598103713765, -6623.447730952231, -1617.9310223974016, -10872.134372250364, -1394.8606127334372, 369.9213707353319, -5154.982823727468, -2584.0851764780496, -2768.0400333452267, -7516.891660319765, -4382.417128374234, -2921.954145664471, -4816.2868399962, -3809.9666011293652, -10660.351593536328, -13855.064076788913, 0.010125, -0.10550000000000001, 0.98625, 192.0, 0.0, 0.0, 0.0, 0.0, 0.0, 0.0, 0.0, 0.0, 0.0, 1.645920541020743E9, 0.0, 2022-02-27 11:09:01.020
208.0, -3494.6952455872593, -6401.472556766576, -1438.3571074434649, -10713.12406219531, -1121.074094900381, 602.4018648149806, -5133.078114161267, -2631.7614474012194, -4602.0006659031715, -7909.053016788128, -4391.111956967349, -3263.26528349701, -4721.023705127681, -3808.111406339575, -11096.791755770655, -14566.654213268068, 0.010125, -0.10550000000000001, 0.98625, 192.0, 0.0, 0.0, 0.0, 0.0, 0.0, 0.0, 0.0, 0.0, 0.0, 1.64592054102708E9, 0.0, 2022-02-27 11:09:01.027
210.0, -3902.3687127076046, -6677.1142693894235, -1642.4508860648737, -10957.160408158352, -1469.3589770029757, 310.1751578062961, -5132.474617060973, -2635.4941887252558, -4267.372699662769, -8124.009743214816, -4440.621070935854, -3080.204496408045, -4788.8388978050825, -3858.916921486488, -10947.571509787025, -14615.090443502719, 0.010125, -0.10550000000000001, 0.98625, 192.0, 0.0, 0.0, 0.0, 0.0, 0.0, 0.0, 0.0, 0.0, 0.0, 1.645920541035256E9, 0.0, 2022-02-27 11:09:01.035
212.0, -3585.0633484200657, -6490.656017143252, -1489.2967330571096, -10736.101655495366, -1195.2818864920005, 528.8869773014757, -5102.947962635513, -2565.421469857868, -3004.1638617710905, -7415.392388748216, -4379.042014961483, -3053.9411966730595, -4784.033272747191, -3783.1892112719074, -10761.13560928531, -13831.818262555393, 0.010125, -0.10550000000000001, 0.98625, 192.0, 0.0, 0.0, 0.0, 0.0, 0.0, 0.0, 0.0, 0.0, 0.0, 1.645920541043237E9, 0.0, 2022-02-27 11:09:01.043
214.0, -3665.373166247984, -6497.495650946576, -1516.2305851257545, -10852.442485385238, -1292.0425882390248, 459.44010727883665, -5130.865291460192, -2689.741872518286, -5368.330224553374, -8347.594243001253, -4443.012707592572, -3286.4663942416187, -4737.519292535698, -3860.459191853904, -11224.040236954717, -15039.125387564349, 0.0110625, -0.10475000000000001, 0.9901249999999999, 192.0, 0.0, 48.0, 126.0, 96.0, 15.5, 8.0, 0.0, 0.0, 0.0, 1.645920541050373E9, 0.0, 2022-02-27 11:09:01.050
216.0, -3806.9267638834435, -6628.767446132594, -1612.276031050209, -10878.571674653493, -1402.8178337595266, 344.887416945388, -5142.264681132398, -2609.744979112742, -2801.5900017726426, -7538.68461116369, -4389.033244733006, -2926.3350875777114, -4819.885470853505, -3817.3426767996166, -10679.328224578885, -13879.025146845002, 0.0110625, -0.10475000000000001, 0.9901249999999999, 192.0, 0.0, 0.0, 0.0, 0.0, 0.0, 0.0, 0.0, 0.0, 0.0, 1.645920541057887E9, 0.0, 2022-02-27 11:09:01.057
218.0, -3451.2881578550528, -6362.6699283921635, -1432.0762672515234, -10709.748948782559, -1123.0186966679928, 593.7740914552321, -5127.356067580708, -2622.7983978746415, -4556.917197336817, -7879.1463827069265, -4392.3860064013015, -3242.969899531591, -4729.293850576145, -3814.7275226983456, -11102.066767462107, -14542.961364145443, 0.0110625, -0.10475000000000001, 0.9901249999999999, 192.0, 0.0, 0.0, 0.0, 0.0, 0.0, 0.0, 0.0, 0.0, 0.0, 1.645920541065858E9, 0.0, 2022-02-27 11:09:01.065
220.0, -3814.1016738535973, -6592.289399181534, -1631.0738481371222, -10946.051591164063, -1460.3288722430316, 314.1984718082514, -5154.155809182622, -2664.1491251169596, -4306.398845481735, -8114.376141354578, -4427.612355662865, -3060.2220368650005, -4784.502659380753, -3854.692441784435, -10970.07971645352, -14642.56073743829, 0.0110625, -0.10475000000000001, 0.9901249999999999, 192.0, 0.0, 0.0, 0.0, 0.0, 0.0, 0.0, 0.0, 0.0, 0.0, 1.645920541073822E9, 0.0, 2022-02-27 11:09:01.073
222.0, -3505.5581933925387, -6411.463786538099, -1487.9332766453358, -10728.680876336202, -1186.8552788323498, 517.0629044846182, -5116.314305819787, -2555.8996267199072, -2938.6732505170407, -7365.190370701596, -4353.225750115604, -3006.957829828004, -4777.774784299706, -3773.399147200483, -10755.860597593857, -13816.864945514793, 0.0110625, -0.10475000000000001, 0.9901249999999999, 192.0, 0.0, 0.0, 0.0, 0.0, 0.0, 0.0, 0.0, 0.0, 0.0, 1.645920541080552E9, 0.0, 2022-02-27 11:09:01.080
224.0, -3564.0080051431664, -6399.304437554412, -1512.0284571681568, -10831.968287464177, -1274.071785696958, 473.1864301188505, -5160.727222052482, -2691.8652882415404, -5343.497436463527, -8301.035559300848, -4419.185748003215, -3247.2167309780993, -4732.043115144148, -3853.99953770632, -11226.163652677973, -15038.253669530592, 0.01153125, -0.10437500000000001, 0.9920625, 192.0, 0.0, 48.0, 126.0, 96.0, 15.5, 8.0, 0.0, 0.0, 0.0, 1.645920541095684E9, 0.0, 2022-02-27 11:09:01.095
226.0, -3729.880300746, -6543.607299757874, -1622.1555020994547, -10875.956520552221, -1403.6001448154623, 343.63571925589076, -5130.038276915345, -2578.6089990864994, -2811.7823972442625, -7518.210413242628, -4374.0128724590395, -2887.510107458843, -4818.007924319259, -3806.5020807387928, -10682.882151947279, -13898.381757543297, 0.01153125, -0.10437500000000001, 0.9920625, 192.0, 0.0, 0.0, 0.0, 0.0, 0.0, 0.0, 0.0, 0.0, 0.0, 1.645920541103497E9, 0.0, 2022-02-27 11:09:01.103
228.0, -3362.9764155121347, -6276.571008750321, -1431.6962875957834, -10704.205716157641, -1111.9769349070712, 590.3766262980255, -5132.608727527706, -2623.04426706365, -4476.205048108703, -7829.659620482877, -4372.1353259247935, -3210.559870071396, -4733.898309933938, -3797.3825690010276, -11089.549790567135, -14523.001256346854, 0.01153125, -0.10437500000000001, 0.9920625, 192.0, 0.0, 0.0, 0.0, 0.0, 0.0, 0.0, 0.0, 0.0, 0.0, 1.645920541110172E9, 0.0, 2022-02-27 11:09:01.110
230.0, -3755.3165859361397, -6529.503349006575, -1634.9406999278904, -10948.622041776425, -1455.2773779961321, 306.55417520453636, -5123.06453264529, -2642.0879533395714, -4343.212168599626, -8105.03311217226, -4414.469529923145, -3047.012155891914, -4797.712540353839, -3851.004403949309, -10982.909617770865, -14674.769601198388, 0.01153125, -0.10437500000000001, 0.9920625, 192.0, 0.0, 0.0, 0.0, 0.0, 0.0, 0.0, 0.0, 0.0, 0.0, 1.645920541118252E9, 0.0, 2022-02-27 11:09:01.118
232.0, -3457.25607362462, -6350.73409685303, -1492.9624191477799, -10730.424312403717, -1185.1118427648357, 519.9462795193529, -5088.866363628669, -2547.204798126793, -2902.217555310435, -7347.308975137351, -4344.039183144472, -2991.1551464981017, -4796.416139175432, -3772.8403535891002, -10739.812045074947, -13812.506355346008, 0.01153125, -0.10437500000000001, 0.9920625, 192.0, 0.0, 0.0, 0.0, 0.0, 0.0, 0.0, 0.0, 0.0, 0.0, 1.645920541126091E9, 0.0, 2022-02-27 11:09:01.126
234.0, -3520.8467865999687, -6352.298718964901, -1508.4521780553077, -10831.342438619427, -1262.7841547470277, 473.8122789635991, -5127.221957113977, -2670.541724031177, -5340.43524747315, -8292.318378963279, -4400.0750064939275, -3246.7696960889934, -4745.029478672681, -3844.589453290636, -11223.07911194314, -15034.40916948428, 0.012765625, -0.1051875, 0.9900312499999999, 192.0, 0.0, 56.0, 126.0, 88.0, 15.0, 112.0, 0.0, 0.0, 0.0, 1.645920541132742E9, 0.0, 2022-02-27 11:09:01.132
236.0, -3695.5256695181934, -6503.508270205053, -1622.4907782662845, -10882.036195044064, -1407.0870169504901, 348.57545478051367, -5126.685515247049, -2573.490449606234, -2840.6161475916088, -7535.130683795296, -4366.43563108869, -2890.5275929603094, -4840.404372263476, -3800.5118132247703, -10681.384585068774, -13911.345769327376, 0.012765625, -0.1051875, 0.9900312499999999, 192.0, 0.0, 0.0, 0.0, 0.0, 0.0, 0.0, 0.0, 0.0, 0.0, 1.645920541140923E9, 0.0, 2022-02-27 11:09:01.140
238.0, -3339.2165111561435, -6249.212473537025, -1432.1209707404341, -10705.368006869317, -1103.9079551587051, 595.003437400274, -5114.302648818809, -2611.3990082024347, -4420.68331488172, -7806.682027182821, -4358.3442995958685, -3210.425759604664, -4750.729173508785, -3791.2134875313627, -11072.674223503378, -14489.898322808544, 0.012765625, -0.1051875, 0.9900312499999999, 192.0, 0.0, 0.0, 0.0, 0.0, 0.0, 0.0, 0.0, 0.0, 0.0, 1.64592054114795E9, 0.0, 2022-02-27 11:09:01.147
240.0, -3725.8122832551344, -6497.450947457665, -1636.795894717681, -10948.152655142863, -1439.1170667549452, 313.6173264524134, -5140.431838087063, -2652.749735444753, -4398.711550082154, -8131.2517084183355, -4407.071102508438, -3061.853714210238, -4805.692113124384, -3851.9655289608872, -10988.162277717862, -14694.260322363416, 0.012765625, -0.1051875, 0.9900312499999999, 192.0, 0.0, 0.0, 0.0, 0.0, 0.0, 0.0, 0.0, 0.0, 0.0, 1.645920541155827E9, 0.0, 2022-02-27 11:09:01.155
242.0, -3439.9111199273016, -6333.925585022639, -1502.8865936859363, -10732.301858937963, -1187.0564445324476, 517.3311254180819, -5123.690381490038, -2554.424411585857, -2854.4071739205333, -7336.937765710088, -4332.662145216721, -2982.192096971524, -4803.434586934399, -3775.500211179282, -10734.64879210577, -13794.982587693046, 0.012765625, -0.1051875, 0.9900312499999999, 192.0, 0.0, 0.0, 0.0, 0.0, 0.0, 0.0, 0.0, 0.0, 0.0, 1.645920541163972E9, 0.0, 2022-02-27 11:09:01.163
244.0, -3478.490230857162, -6318.927564493128, -1511.8719949569697, -10823.385217593339, -1248.00965166207, 490.71019777181124, -5135.179178140066, -2671.6369595094875, -5328.81234035639, -8283.467088158975, -4391.737805812098, -3245.8979780552363, -4746.482342062276, -3843.3154038566836, -11229.27054515726, -15032.419864227757, 0.012, -0.1, 0.988, 192.0, 0.0, 48.0, 126.0, 112.0, 15.0, 112.0, 0.0, 0.0, 0.0, 1.645920541170445E9, 0.0, 2022-02-27 11:09:01.170
246.0, -3671.3187302730958, -6476.820287325417, -1630.7385719702927, -10881.164477010308, -1405.4329878607975, 349.15660013635164, -5128.227785614466, -2581.1794496988596, -2853.7813250757845, -7546.284204278494, -4359.774811241008, -2886.7501481473623, -4832.737723915306, -3802.9928568593095, -10684.469125803605, -13929.361275358353, 0.012, -0.1, 0.988, 192.0, 0.0, 0.0, 0.0, 0.0, 0.0, 0.0, 0.0, 0.0, 0.0, 1.64592054117845E9, 0.0, 2022-02-27 11:09:01.178
