%OpenBCI Raw EEG Data
%Number of channels = 16
%Sample Rate = 125 Hz
%Board = OpenBCI_GUI$BoardCytonSerialDaisy
Sample Index, EXG Channel 0, EXG Channel 1, EXG Channel 2, EXG Channel 3, EXG Channel 4, EXG Channel 5, EXG Channel 6, EXG Channel 7, EXG Channel 8, EXG Channel 9, EXG Channel 10, EXG Channel 11, EXG Channel 12, EXG Channel 13, EXG Channel 14, EXG Channel 15, Accel Channel 0, Accel Channel 1, Accel Channel 2, Other, Other, Other, Other, Other, Other, Other, Analog Channel 0, Analog Channel 1, Analog Channel 2, Timestamp, Other, Timestamp (Formatted)
224.0, -3143.9293198501255, -5933.5164348502685, -1688.271962198253, -10936.909727681843, -1105.2937633149343, 398.3974931713931, -5232.699839198571, -2116.8890138732213, -3012.858690364205, -7532.6496401607565, -4492.499469816622, -3136.2403197575, -4539.4828366616775, -3647.603529406015, -10514.931144110102, -14073.50767535063, 0.0, 0.0, 0.0, 192.0, 0.0, 0.0, 0.0, 0.0, 0.0, 0.0, 0.0, 0.0, 0.0, 1.645920670628208E9, 0.0, 2022-02-27 11:11:10.628
226.0, -3247.6637658672057, -5948.089772235128, -1720.726695147359, -11014.291466986117, -1208.9835058431038, 358.14200140738507, -5247.630804494715, -2241.5446927004687, -5331.427494457662, -8444.95844184857, -4557.14071478137, -3372.4312034167297, -4530.206862712725, -3763.787897084701, -10991.000949263687, -15211.01030242566, 0.016, -0.10400000000000001, 0.986, 192.0, 0.0, 64.0, 126.0, 96.0, 15.0, 104.0, 0.0, 0.0, 0.0, 1.64592067062821E9, 0.0, 2022-02-27 11:11:10.628
0.0, -1693.7481395898033, -3010.0647223072915, -890.9852374774501, -5547.658270318302, -665.4337841789466, 115.31264964492914, -2663.8809041834957, -1117.6095745098085, -1210.1457965547797, -3696.084463129576, -2251.737088172089, -1517.1917101373328, -2280.9955216640856, -1814.9169462820228, -5181.916675796113, -6921.329429308108, 0.016, -0.106, 0.992, 192.0, 0.0, 64.0, 126.0, 88.0, 15.5, 0.0, 0.0, 0.0, 0.0, 1.645920670710345E9, 0.0, 2022-02-27 11:11:10.710
2.0, -3426.5000732541175, -6108.552945679778, -1814.7157805819252, -11104.860735519022, -1351.5429319790521, 166.87812410332253, -5283.572409578849, -2100.683999143124, -2451.137000457883, -7524.1336255232845, -4491.9406762052395, -2902.083444843703, -4593.082319865503, -3684.4839077572715, -10231.511024416808, -13910.451699549163, 0.016, -0.106, 0.992, 192.0, 0.0, 0.0, 0.0, 0.0, 0.0, 0.0, 0.0, 0.0, 0.0, 1.645920670717858E9, 0.0, 2022-02-27 11:11:10.717
4.0, -2905.5926687231863, -5751.819104173077, -1527.9428992203354, -10783.576760718437, -895.9026212576177, 496.40989260791457, -5246.781438205414, -2107.8142056243664, -4266.500981629012, -7825.16691984736, -4455.105001342893, -3270.261379511521, -4499.69673153123, -3680.8405734110565, -10715.985085485589, -14550.270384582327, 0.016, -0.106, 0.992, 192.0, 0.0, 0.0, 0.0, 0.0, 0.0, 0.0, 0.0, 0.0, 0.0, 1.645920670725736E9, 0.0, 2022-02-27 11:11:10.725
6.0, -3461.346442859941, -6094.516050161845, -1824.103513253154, -11128.508881152735, -1389.384435341887, 179.55156320948163, -5305.8570988007905, -2196.7517968120333, -4647.6652798253635, -8362.167580386113, -4516.684057317264, -3117.5542613928633, -4540.4216099288005, -3768.370004698039, -10666.073640116887, -14990.82326779643, 0.016, -0.106, 0.992, 192.0, 0.0, 0.0, 0.0, 0.0, 0.0, 0.0, 0.0, 0.0, 0.0, 1.645920670733764E9, 0.0, 2022-02-27 11:11:10.733
8.0, -3124.9303370631146, -5918.116082920562, -1652.2409501362981, -10912.121643080907, -1081.399748492211, 363.9981584546755, -5264.662833769659, -2063.155420202663, -2438.5529683295454, -7272.028299811876, -4450.545245474011, -3017.9995915889253, -4567.154296297347, -3641.3226892140738, -10312.893725978582, -13742.992430090002, 0.01, -0.1, 0.996, 192.0, 0.0, 40.0, 126.0, 112.0, 15.5, 16.0, 0.0, 0.0, 0.0, 1.645920670740621E9, 0.0, 2022-02-27 11:11:10.740
10.0, -3121.7340376060056, -5852.267843755227, -1636.3488598285749, -10927.566698499526, -1094.3190567873785, 392.07194949054116, -5278.811488009869, -2195.6118578448127, -5774.863752706498, -8516.215803172088, -4494.891106473339, -3373.347624939397, -4471.153553861804, -3750.5780161116145, -10981.03207123662, -15379.18482770739, 0.01, -0.1, 0.996, 192.0, 0.0, 0.0, 0.0, 0.0, 0.0, 0.0, 0.0, 0.0, 0.0, 1.645920670749143E9, 0.0, 2022-02-27 11:11:10.749
12.0, -3425.9412796427346, -6104.39552121109, -1809.8878037795787, -11108.43701463187, -1342.579882452474, 175.90822886326657, -5269.334348360819, -2099.9016880871877, -2476.8638583259417, -7539.288108263983, -4484.274027857069, -2899.2894767867897, -4582.3981860158665, -3687.8366694255674, -10225.476053413875, -13929.160109658254, 0.01, -0.1, 0.996, 192.0, 0.0, 0.0, 0.0, 0.0, 0.0, 0.0, 0.0, 0.0, 0.0, 1.645920670756663E9, 0.0, 2022-02-27 11:11:10.756
14.0, -2894.7744244068176, -5738.318650522072, -1523.986640451746, -10785.431955508227, -888.1018624427155, 500.5449653321464, -5263.254673868975, -2106.584859679325, -4197.165870328649, -7793.628608420922, -4445.6278616938425, -3258.616120650306, -4486.620961024876, -3674.2915122856516, -10700.428271344696, -14529.237393049883, 0.01, -0.1, 0.996, 192.0, 0.0, 0.0, 0.0, 0.0, 0.0, 0.0, 0.0, 0.0, 0.0, 1.645920670763022E9, 0.0, 2022-02-27 11:11:10.763
16.0, -3449.9917566766453, -6086.581180880211, -1819.7896265732797, -11133.605078888546, -1376.286313091077, 182.50199347758218, -5301.900840032201, -2182.737253038556, -4699.946010106327, -8380.674824795107, -4510.4255688697785, -3121.175243994623, -4522.763731809107, -3765.419574429938, -10678.456506545128, -15024.507346690578, 0.013000000000000001, -0.10200000000000001, 0.996, 192.0, 0.0, 64.0, 126.0, 96.0, 15.5, 16.0, 0.0, 0.0, 0.0, 1.645920670778046E9, 0.0, 2022-02-27 11:11:10.778
18.0, -3127.3890289531982, -5925.201585912894, -1661.6063310630718, -10924.236288575685, -1084.5513444604094, 349.9612629367427, -5256.526798787928, -2087.1388420032076, -2402.365494056403, -7270.2625119999075, -4445.359640760379, -3015.0268095763695, -4560.649938660853, -3647.6705846393806, -10298.767423482826, -13738.38797073221, 0.013000000000000001, -0.10200000000000001, 0.996, 192.0, 0.0, 0.0, 0.0, 0.0, 0.0, 0.0, 0.0, 0.0, 0.0, 1.645920670786131E9, 0.0, 2022-02-27 11:11:10.786
20.0, -3100.365769906732, -5842.455427939347, -1637.6452610069825, -10921.419968774315, -1077.108213556792, 400.74442633920034, -5298.257505685986, -2203.4349684041704, -5755.1942175858285, -8508.325637379365, -4482.284722600547, -3365.613921357861, -4466.750260204108, -3748.6781178329134, -10979.065117724553, -15381.822333553117, 0.013000000000000001, -0.10200000000000001, 0.996, 192.0, 0.0, 0.0, 0.0, 0.0, 0.0, 0.0, 0.0, 0.0, 0.0, 1.645920670792664E9, 0.0, 2022-02-27 11:11:10.792
22.0, -3439.285271082553, -6115.079655060727, -1831.1443127565758, -11116.90832578043, -1363.2999495625436, 168.88978110430017, -5284.533534590428, -2092.9726473060427, -2540.655737001388, -7565.730221954611, -4485.950408691217, -2901.9046308880606, -4594.892811166384, -3688.239000825763, -10239.065914042701, -13968.521531644052, 0.013000000000000001, -0.10200000000000001, 0.996, 192.0, 0.0, 0.0, 0.0, 0.0, 0.0, 0.0, 0.0, 0.0, 0.0, 1.64592067080067E9, 0.0, 2022-02-27 11:11:10.800
24.0, -2903.156328577558, -5748.198121571318, -1536.1906929243437, -10787.868295653856, -892.1698799335815, 511.85494802653176, -5252.9058161861685, -2102.6286009107353, -4145.108657492239, -7784.799669361076, -4451.729887930142, -3258.4373066946637, -4502.848327499429, -3669.7094046723137, -10691.64403577376, -14492.357014698628, 0.013000000000000001, -0.10200000000000001, 0.996, 192.0, 0.0, 0.0, 0.0, 0.0, 0.0, 0.0, 0.0, 0.0, 0.0, 1.645920670808795E9, 0.0, 2022-02-27 11:11:10.808
26.0, -3445.342593829941, -6079.048642998772, -1814.5369666262827, -11128.7771020862, -1365.870400174904, 193.85667966087814, -5274.609360052271, -2184.1007094503298, -4793.689226351885, -8418.471624669031, -4514.448882871733, -3139.794247125894, -4531.793836569052, -3753.103763235064, -10696.44966083165, -15062.907643664796, 0.0115, -0.10300000000000001, 0.994, 192.0, 0.0, 40.0, 126.0, 96.0, 15.5, 0.0, 0.0, 0.0, 0.0, 1.645920670815724E9, 0.0, 2022-02-27 11:11:10.815
28.0, -3137.536720935908, -5925.849786502098, -1663.1709531749432, -10931.63471599039, -1104.4443970256325, 349.40246932536, -5246.647327738682, -2063.7589173029564, -2349.123638763862, -7264.808686352812, -4441.962175603173, -2999.4252919465653, -4562.99687182866, -3631.532625142649, -10278.784963939783, -13725.468662437042, 0.0115, -0.10300000000000001, 0.994, 192.0, 0.0, 0.0, 0.0, 0.0, 0.0, 0.0, 0.0, 0.0, 0.0, 1.645920670823262E9, 0.0, 2022-02-27 11:11:10.823
30.0, -3085.0324732103913, -5826.049247509151, -1620.3003073096643, -10914.915611137822, -1067.49696344101, 413.5743276565466, -5286.634598569227, -2211.638058619268, -5728.215662028273, -8490.198372626111, -4477.188524864737, -3369.324310937442, -4474.260446341092, -3736.8316932716007, -10977.567550846046, -15358.554167575143, 0.0115, -0.10300000000000001, 0.994, 192.0, 0.0, 0.0, 0.0, 0.0, 0.0, 0.0, 0.0, 0.0, 0.0, 1.645920670830422E9, 0.0, 2022-02-27 11:11:10.830
32.0, -3448.2930240980418, -6119.952335351984, -1823.432960919495, -11120.909288037932, -1363.098783862446, 173.31542650645096, -5275.816354252858, -2107.5906881798137, -2603.866470320996, -7602.387082861314, -4479.64721675482, -2905.5256134898204, -4592.635284976397, -3691.077672371587, -10248.252481013833, -14001.065671570977, 0.0115, -0.10300000000000001, 0.994, 192.0, 0.0, 0.0, 0.0, 0.0, 0.0, 0.0, 0.0, 0.0, 0.0, 1.645920670838425E9, 0.0, 2022-02-27 11:11:10.838
34.0, -2916.075636872725, -5762.838514189543, -1534.022573712179, -10792.293941056007, -893.6897985565423, 510.9161747594088, -5242.84753118128, -2105.7131416455677, -4063.2342175524495, -7755.921215524819, -4447.795980906008, -3253.3187572143984, -4500.032007698061, -3667.273064526685, -10665.246625572041, -14455.47663634737, 0.0115, -0.10300000000000001, 0.994, 192.0, 0.0, 0.0, 0.0, 0.0, 0.0, 0.0, 0.0, 0.0, 0.0, 1.645920670845581E9, 0.0, 2022-02-27 11:11:10.845
36.0, -3450.148218887832, -6088.212858225448, -1819.2531847063524, -11127.748921841256, -1367.2338565866778, 197.8576419183781, -5301.967895265567, -2208.2852969509718, -4811.928249827415, -8428.842834096293, -4517.935755006762, -3143.750505894483, -4533.51492089211, -3768.370004698039, -10697.097861420854, -15066.528626266556, 0.01175, -0.10550000000000001, 0.991, 192.0, 0.0, 48.0, 126.0, 80.0, 15.0, 112.0, 0.0, 0.0, 0.0, 1.645920670852955E9, 0.0, 2022-02-27 11:11:10.852
38.0, -3148.645537930195, -5939.5067023642905, -1663.6403398085047, -10933.199338102262, -1078.9410566021272, 350.9894431816868, -5248.279005083919, -2082.713196601057, -2357.013804556585, -7273.01177656791, -4450.455838496189, -3003.470957692976, -4558.794743871063, -3628.0681047520766, -10281.310711063232, -13724.127557769723, 0.01175, -0.10550000000000001, 0.991, 192.0, 0.0, 0.0, 0.0, 0.0, 0.0, 0.0, 0.0, 0.0, 0.0, 1.645920670860935E9, 0.0, 2022-02-27 11:11:10.860
40.0, -3104.4784908865086, -5850.591462921079, -1627.3634585575412, -10922.090521107975, -1059.4726871815549, 407.27113572014997, -5266.719194259548, -2186.1794216846733, -5738.095133077519, -8510.694922291628, -4494.377016350868, -3383.3388547109193, -4467.711385215686, -3750.712126578346, -10971.487876354204, -15349.680525026384, 0.01175, -0.10550000000000001, 0.991, 192.0, 0.0, 0.0, 0.0, 0.0, 0.0, 0.0, 0.0, 0.0, 0.0, 1.645920670868336E9, 0.0, 2022-02-27 11:11:10.868
42.0, -3454.1938846342427, -6127.4625214889675, -1816.7944928162688, -11124.999657273253, -1351.8782081458817, 174.88004861832246, -5278.744432776503, -2121.18054880864, -2593.6070196160103, -7607.170356174751, -4491.538344805043, -2906.374979779122, -4583.582828471998, -3690.54123050466, -10242.262213499811, -13990.828572610448, 0.01175, -0.10550000000000001, 0.991, 192.0, 0.0, 0.0, 0.0, 0.0, 0.0, 0.0, 0.0, 0.0, 0.0, 1.645920670876204E9, 0.0, 2022-02-27 11:11:10.876
44.0, -2917.349686306678, -5768.247636347728, -1530.3568876215086, -10797.904228914289, -888.7724147763747, 512.0114102377189, -5226.50840598445, -2103.7461881335007, -4040.3907347191257, -7757.664651592333, -4445.314937271469, -3247.619062378295, -4493.438243083745, -3653.3255759865733, -10659.77044818049, -14444.166653652985, 0.01175, -0.10550000000000001, 0.991, 192.0, 0.0, 0.0, 0.0, 0.0, 0.0, 0.0, 0.0, 0.0, 0.0, 1.645920670883379E9, 0.0, 2022-02-27 11:11:10.883
46.0, -3448.9859281761564, -6091.297398960281, -1813.4864346368831, -11131.10168350955, -1353.3310715354767, 205.83721468892273, -5271.6365780397155, -2217.2036429886393, -4903.7715677942715, -8455.95550012058, -4519.254507929624, -3162.2130468145665, -4528.083446989471, -3767.788859342201, -10707.804347014946, -15101.196181916737, 0.012875000000000001, -0.10775000000000001, 0.9884999999999999, 192.0, 0.0, 56.0, 126.0, 72.0, 15.0, 104.0, 0.0, 0.0, 0.0, 1.645920670897988E9, 0.0, 2022-02-27 11:11:10.897
48.0, -3178.976855156047, -5968.027528289263, -1679.4206713939514, -10949.337297598995, -1109.5852982503532, 338.80774245354445, -5221.188690804087, -2046.771591516923, -2329.4317518987364, -7274.911674846611, -4456.803733921496, -3006.086111794247, -4561.4993049501545, -3647.3129567280957, -10261.909396876026, -13705.37444417172, 0.012875000000000001, -0.10775000000000001, 0.9884999999999999, 192.0, 0.0, 0.0, 0.0, 0.0, 0.0, 0.0, 0.0, 0.0, 0.0, 1.645920670905835E9, 0.0, 2022-02-27 11:11:10.905
50.0, -3071.487316070475, -5827.859738810032, -1616.567565985628, -10904.320884266006, -1049.3920504322114, 430.33813599802687, -5247.295528327886, -2183.1395844387516, -5704.209888483273, -8478.910741676182, -4480.049548155016, -3376.7897935855144, -4456.870789154862, -3742.7772572967124, -10961.541350071591, -15315.616466476496, 0.012875000000000001, -0.10775000000000001, 0.9884999999999999, 192.0, 0.0, 0.0, 0.0, 0.0, 0.0, 0.0, 0.0, 0.0, 0.0, 1.645920670912574E9, 0.0, 2022-02-27 11:11:10.912
52.0, -3480.837164024969, -6138.9066146500845, -1830.6972778674697, -11127.570107885613, -1367.4126705423203, 169.20270552667446, -5262.695880257593, -2113.3350865048274, -2666.8313344515964, -7637.792246078521, -4488.677321514764, -2914.24279382739, -4577.458450491244, -3687.8366694255674, -10245.458512956919, -14016.756596178604, 0.012875000000000001, -0.10775000000000001, 0.9884999999999999, 192.0, 0.0, 0.0, 0.0, 0.0, 0.0, 0.0, 0.0, 0.0, 0.0, 1.645920670920627E9, 0.0, 2022-02-27 11:11:10.920
54.0, -2931.72185799144, -5769.052299148118, -1539.3646406369974, -10788.069461353954, -883.3409408737351, 510.5138433592133, -5209.454024965051, -2090.22338273804, -4006.5054901248805, -7733.189491413772, -4454.590911220421, -3244.3780594322757, -4499.517917575588, -3668.72592791628, -10640.167968293186, -14402.033615354732, 0.012875000000000001, -0.10775000000000001, 0.9884999999999999, 192.0, 0.0, 0.0, 0.0, 0.0, 0.0, 0.0, 0.0, 0.0, 0.0, 1.645920670928461E9, 0.0, 2022-02-27 11:11:10.928
56.0, -3459.960634703712, -6090.313922204247, -1817.5768038722044, -11120.886936293477, -1348.9501296222365, 208.27355483455122, -5254.0234034089335, -2194.114290966307, -4957.035774831268, -8458.861226899771, -4521.042647486049, -3167.8903899062148, -4517.488720117655, -3761.440963916894, -10706.55264932545, -15099.519801082588, 0.0144375, -0.106875, 0.98825, 192.0, 0.0, 64.0, 126.0, 88.0, 15.0, 112.0, 0.0, 0.0, 0.0, 1.645920670935584E9, 0.0, 2022-02-27 11:11:10.935
58.0, -3190.040968661424, -5966.6864236219435, -1679.9347615164236, -10942.363553328938, -1100.9575248906046, 348.55310303605836, -5211.040998821378, -2050.772553774423, -2343.982737539141, -7274.241122512952, -4459.5977019784095, -3001.012265802892, -4558.817095615518, -3640.1380467579424, -10248.520701947296, -13691.851638776261, 0.0144375, -0.106875, 0.98825, 192.0, 0.0, 0.0, 0.0, 0.0, 0.0, 0.0, 0.0, 0.0, 0.0, 1.645920670943273E9, 0.0, 2022-02-27 11:11:10.943
60.0, -3088.698159301062, -5836.576919147601, -1622.7813509442033, -10897.324788251495, -1045.7710678304516, 434.2273395332503, -5258.583159277816, -2191.3873781427596, -5724.684086404334, -8473.3004538179, -4488.565562792488, -3375.3369301959196, -4457.004899621595, -3738.7092398058467, -10949.918442954831, -15313.448347264331, 0.0144375, -0.106875, 0.98825, 192.0, 0.0, 0.0, 0.0, 0.0, 0.0, 0.0, 0.0, 0.0, 0.0, 1.645920670950232E9, 0.0, 2022-02-27 11:11:10.950
62.0, -3479.317245402008, -6141.253547817892, -1840.2191210054305, -11128.01714277472, -1361.4447547727532, 181.42910974372742, -5241.238205580497, -2097.7559206194783, -2699.4648813563444, -7635.89234779982, -4495.8745832293735, -2912.7452269488845, -4575.357386512445, -3692.441128783361, -10237.545995419741, -14022.076311358967, 0.0144375, -0.106875, 0.98825, 192.0, 0.0, 0.0, 0.0, 0.0, 0.0, 0.0, 0.0, 0.0, 0.0, 1.645920670958073E9, 0.0, 2022-02-27 11:11:10.958
64.0, -2947.055154687781, -5786.754880756722, -1550.6522715869276, -10795.8478684244, -896.1037869577154, 505.7976252791435, -5215.51134771244, -2083.9872460350093, -3976.129469410118, -7725.276973876593, -4457.295472299513, -3247.1720274891886, -4494.4664233286885, -3666.043718581643, -10621.750130862014, -14384.263978512763, 0.0144375, -0.106875, 0.98825, 192.0, 0.0, 0.0, 0.0, 0.0, 0.0, 0.0, 0.0, 0.0, 0.0, 1.645920670965217E9, 0.0, 2022-02-27 11:11:10.965
66.0, -3475.9868354781674, -6104.328465977725, -1824.3270306977072, -11128.01714277472, -1355.678004703284, 212.699200236702, -5259.857208711768, -2194.2260496885838, -5030.99769723388, -8490.533648792942, -4536.398295926845, -3191.6949977511167, -4521.444978886245, -3772.8403535891002, -10714.88985000728, -15129.962877030717, 0.01421875, -0.10643749999999999, 0.989125, 192.0, 0.0, 56.0, 126.0, 88.0, 15.0, 120.0, 0.0, 0.0, 0.0, 1.645920670972917E9, 0.0, 2022-02-27 11:11:10.972
68.0, -3211.0292567049573, -5982.243237762837, -1700.1854419929318, -10951.237195877695, -1111.5075482735097, 341.0205651546199, -5213.276173266909, -2064.7200423145346, -2326.637783841823, -7272.3188724897955, -4469.320710816469, -3007.918954839582, -4567.221351530713, -3639.892177568934, -10237.367181464098, -13684.028528216902, 0.01421875, -0.10643749999999999, 0.989125, 192.0, 0.0, 0.0, 0.0, 0.0, 0.0, 0.0, 0.0, 0.0, 0.0, 1.645920670980866E9, 0.0, 2022-02-27 11:11:10.980
70.0, -3083.4454993540644, -5831.05603826714, -1625.6423742344828, -10884.427831700783, -1025.7215530540411, 439.882330880443, -5242.5793102478165, -2186.246476918039, -5707.964981551764, -8451.90983437417, -4495.382844851357, -3393.866526349369, -4460.447068267711, -3729.7685420237235, -10947.63856502039, -15292.996501087726, 0.01421875, -0.10643749999999999, 0.989125, 192.0, 0.0, 0.0, 0.0, 0.0, 0.0, 0.0, 0.0, 0.0, 0.0, 1.645920670988964E9, 0.0, 2022-02-27 11:11:10.988
72.0, -3488.637922839871, -6148.294347321314, -1848.8021908762685, -11116.260125191227, -1368.709071720728, 175.0141590850543, -5236.343173544786, -2109.803510880889, -2801.2323738613577, -7682.428679755769, -4495.695769273731, -2923.474064287432, -4568.696566664764, -3696.106814874031, -10255.98618459537, -14073.172399183799, 0.01421875, -0.10643749999999999, 0.989125, 192.0, 0.0, 0.0, 0.0, 0.0, 0.0, 0.0, 0.0, 0.0, 0.0, 1.645920670995532E9, 0.0, 2022-02-27 11:11:10.995
74.0, -2940.0143551843594, -5775.958988184809, -1546.0701639735896, -10773.160847802264, -887.4760135979669, 512.749017804744, -5218.84175763628, -2092.8161850948554, -3876.083061228164, -7688.575409480979, -4444.3314605154355, -3222.6298120772617, -4484.765766235086, -3655.694860898836, -10602.684092841637, -14334.97838198881, 0.01421875, -0.10643749999999999, 0.989125, 192.0, 0.0, 0.0, 0.0, 0.0, 0.0, 0.0, 0.0, 0.0, 0.0, 1.645920671004875E9, 0.0, 2022-02-27 11:11:11.004
76.0, -3446.2366636081533, -6083.139012234094, -1805.7527310553469, -11094.645988302946, -1333.3709637368875, 219.85175846240026, -5252.861112697257, -2190.538011853458, -5098.410558511086, -8503.698826277117, -4512.280763659569, -3182.9778174135467, -4498.199164652725, -3761.440963916894, -10737.643925862782, -15153.789836620073, 0.013109375, -0.10421875, 0.9895625, 192.0, 0.0, 48.0, 126.0, 104.0, 15.0, 120.0, 0.0, 0.0, 0.0, 1.645920671011476E9, 0.0, 2022-02-27 11:11:11.011
78.0, -3223.9485650001247, -5992.23446753436, -1702.7111891163813, -10951.348954599973, -1134.0828101733698, 320.72518118920107, -5224.273231538919, -2061.6578533241577, -2287.946914189686, -7271.5589131783145, -4457.764858933075, -2985.477803406454, -4558.370060726412, -3643.982546804255, -10229.745236604838, -13673.567911811819, 0.013109375, -0.10421875, 0.9895625, 192.0, 0.0, 0.0, 0.0, 0.0, 0.0, 0.0, 0.0, 0.0, 0.0, 1.645920671025177E9, 0.0, 2022-02-27 11:11:11.025
80.0, -3091.022740724414, -5850.435000709892, -1619.8532724205581, -10875.129506007375, -1029.856625778273, 437.0213075901637, -5256.772667976937, -2188.4369478746594, -5674.236199168707, -8446.366601749254, -4491.1807168937585, -3387.943314068713, -4461.519952001566, -3744.78891429769, -10948.532634798603, -15268.141361253425, 0.013109375, -0.10421875, 0.9895625, 192.0, 0.0, 0.0, 0.0, 0.0, 0.0, 0.0, 0.0, 0.0, 0.0, 1.64592067103306E9, 0.0, 2022-02-27 11:11:11.033
82.0, -3496.505736888139, -6155.513960780378, -1847.5504931867713, -11119.00938975923, -1368.5973129984513, 165.96170258065493, -5253.174037119632, -2117.023124339953, -2805.5686122856873, -7689.80475542602, -4494.533478562054, -2923.0940846316917, -4572.6528254333525, -3703.7734632222014, -10257.416696240509, -14072.680660805781, 0.013109375, -0.10421875, 0.9895625, 192.0, 0.0, 0.0, 0.0, 0.0, 0.0, 0.0, 0.0, 0.0, 0.0, 1.645920671041196E9, 0.0, 2022-02-27 11:11:11.041
84.0, -2935.0746196597365, -5774.2155521172945, -1546.986585496257, -10776.267740281552, -899.1659759480925, 512.9054800159312, -5227.514234484939, -2093.3302752173277, -3864.5942645781356, -7683.434508256258, -4443.437390737223, -3231.011716248002, -4497.08157742996, -3665.9990150927324, -10607.892049299724, -14332.296172654174, 0.013109375, -0.10421875, 0.9895625, 192.0, 0.0, 0.0, 0.0, 0.0, 0.0, 0.0, 0.0, 0.0, 0.0, 1.64592067104778E9, 0.0, 2022-02-27 11:11:11.047
86.0, -3430.1657593447876, -6066.48696261489, -1804.8586612771346, -11093.036662702163, -1348.614853455407, 224.7020870092019, -5289.0709387148545, -2202.1162154813073, -5106.412483026085, -8494.44520407262, -4501.2166501541915, -3189.2139541165775, -4498.802661753019, -3744.8112660421452, -10745.377629444318, -15165.56920594802, 0.014, -0.096, 0.99, 192.0, 0.0, 56.0, 126.5, 0.0, 15.0, 120.0, 0.0, 0.0, 0.0, 1.645920671055664E9, 0.0, 2022-02-27 11:11:11.055
88.0, -3204.591954301829, -5975.358900470603, -1693.6810843564374, -10937.73674222669, -1140.430705598677, 324.01088762413116, -5232.99041187649, -2074.621865108236, -2265.6398732232897, -7254.236311225452, -4440.755181402586, -2974.3913381566213, -4555.553740925043, -3645.1224857714756, -10232.807425595216, -13674.394926356665, 0.014, -0.096, 0.99, 192.0, 0.0, 0.0, 0.0, 0.0, 0.0, 0.0, 0.0, 0.0, 0.0, 1.645920671064001E9, 0.0, 2022-02-27 11:11:11.064
90.0, -3052.823609450294, -5816.862680538021, -1598.4179494879186, -10857.046944743031, -1023.6204890752423, 446.1631710723843, -5286.209915424575, -2205.0442940049525, -5639.0322016515975, -8424.260726482955, -4464.2915683140245, -3366.843267302903, -4450.5005419850995, -3732.9424897363774, -10948.130303398408, -15267.984899042238, 0.014, -0.096, 0.99, 192.0, 0.0, 0.0, 0.0, 0.0, 0.0, 0.0, 0.0, 0.0, 0.0, 1.64592067107094E9, 0.0, 2022-02-27 11:11:11.070
92.0, -3479.9207425023014, -6138.504283249889, -1828.462103421939, -11108.526421609691, -1385.0258451731022, 163.81593511294545, -5267.56856054885, -2148.539084021936, -2826.6910107959525, -7697.9407904077525, -4475.065109141482, -2905.033875111804, -4573.278674278102, -3701.337123076573, -10261.082382331178, -14104.017806532123, 0.014, -0.096, 0.99, 192.0, 0.0, 0.0, 0.0, 0.0, 0.0, 0.0, 0.0, 0.0, 0.0, 1.645920671077358E9, 0.0, 2022-02-27 11:11:11.077
94.0, -2928.503206789876, -5771.689804993845, -1536.7494865357264, -10769.89749311179, -913.2028714660254, 503.89772700044244, -5238.578347990317, -2106.6519149126907, -3782.630417660525, -7653.550225919513, -4423.544338172, -3200.032198432946, -4491.27012387158, -3662.0427563241433, -10586.724947300549, -14314.437128834383, 0.014, -0.096, 0.99, 192.0, 0.0, 0.0, 0.0, 0.0, 0.0, 0.0, 0.0, 0.0, 0.0, 1.645920671085318E9, 0.0, 2022-02-27 11:11:11.085
96.0, -3418.4087417612964, -6049.074953684206, -1789.6818267919812, -11079.558560795613, -1349.7547924226276, 219.87411020685556, -5290.993188738012, -2211.1686719857066, -5157.150942939633, -8507.722140279073, -4495.382844851357, -3187.3140558378764, -4501.104891431915, -3767.051251775176, -10753.670126637237, -15197.241627841191, 0.012, -0.10400000000000001, 0.99, 192.0, 0.0, 48.0, 126.0, 96.0, 15.0, 120.0, 0.0, 0.0, 0.0, 1.645920671093487E9, 0.0, 2022-02-27 11:11:11.093
98.0, -3211.163367171689, -5972.430821946958, -1696.2962384577083, -10940.195434116773, -1160.0108337415259, 304.2295937811844, -5264.193447136098, -2078.0863854988083, -2228.5583291719354, -7245.161502976597, -4429.624012663843, -2962.5449135953086, -4559.66646190482, -3649.570482918082, -10219.083454499658, -13672.204455400046, 0.012, -0.10400000000000001, 0.99, 192.0, 0.0, 0.0, 0.0, 0.0, 0.0, 0.0, 0.0, 0.0, 0.0, 1.64592067110048E9, 0.0, 2022-02-27 11:11:11.100
100.0, -3036.5068359979196, -5799.405968118425, -1595.5792779420947, -10850.207310939708, -1024.469855364544, 436.17194130086204, -5279.482040343528, -2205.2678114495056, -5594.015788318609, -8391.247199922467, -4456.468457754667, -3367.9608545256683, -4457.3625275328795, -3729.1873966678854, -10935.97095441472, -15247.3989423989, 0.012, -0.10400000000000001, 0.99, 192.0, 0.0, 0.0, 0.0, 0.0, 0.0, 0.0, 0.0, 0.0, 0.0, 1.645920671107951E9, 0.0, 2022-02-27 11:11:11.107
102.0, -3471.4047278648295, -6128.602460456188, -1835.3911442030842, -11112.43797688937, -1386.903391707348, 139.43018191220546, -5288.33333114783, -2150.796610211922, -2889.47706097091, -7730.820206501509, -4470.684167228243, -2920.43422704151, -4574.150392311859, -3706.075692901098, -10274.582835982184, -14149.838882665503, 0.012, -0.10400000000000001, 0.99, 192.0, 0.0, 0.0, 0.0, 0.0, 0.0, 0.0, 0.0, 0.0, 0.0, 1.645920671116044E9, 0.0, 2022-02-27 11:11:11.116
104.0, -2926.446846299988, -5775.936636440353, -1541.8456842715366, -10771.126839056831, -919.0143250244051, 479.10964239950687, -5252.6152435082495, -2115.1455778057075, -3690.116547360009, -7624.358847660881, -4417.911698569262, -3201.105082166801, -4502.133071676859, -3662.9591778468107, -10570.408173848173, -14281.311843551619, 0.012, -0.10400000000000001, 0.99, 192.0, 0.0, 0.0, 0.0, 0.0, 0.0, 0.0, 0.0, 0.0, 0.0, 1.645920671124101E9, 0.0, 2022-02-27 11:11:11.124
106.0, -3403.991866587623, -6047.644442039066, -1791.7381872818694, -11076.7645927387, -1345.0162225981026, 208.02768564554285, -5310.819186069869, -2245.188027046684, -5175.1217454817, -8510.851384502816, -4490.5325163045545, -3198.333465854343, -4506.692827545742, -3767.677100619924, -10766.857655865868, -15217.805232740073, 0.016, -0.106, 0.99, 192.0, 0.0, 64.0, 126.0, 88.0, 15.0, 120.0, 0.0, 0.0, 0.0, 1.645920671130623E9, 0.0, 2022-02-27 11:11:11.130
108.0, -3214.9184602401806, -5984.970150586385, -1706.8015583517026, -10955.439323835293, -1165.0176244995148, 292.696093642246, -5278.14093567621, -2082.824955323333, -2203.8372998043656, -7245.832055310257, -4432.1274080428375, -2966.858800275183, -4563.645072417864, -3641.948538058822, -10217.921163787982, -13674.03729844538, 0.016, -0.106, 0.99, 192.0, 0.0, 0.0, 0.0, 0.0, 0.0, 0.0, 0.0, 0.0, 0.0, 1.645920671145944E9, 0.0, 2022-02-27 11:11:11.145
110.0, -3030.2483475504337, -5808.10079671154, -1594.0593593191338, -10856.063467986998, -1024.3133931533569, 437.4012872459039, -5298.369264408263, -2214.6555441207342, -5565.003224015621, -8385.860429508737, -4461.542303746021, -3377.862677319369, -4460.514123501078, -3723.957088465344, -10937.937907926787, -15242.436855129821, 0.016, -0.106, 0.99, 192.0, 0.0, 0.0, 0.0, 0.0, 0.0, 0.0, 0.0, 0.0, 0.0, 1.645920671153035E9, 0.0, 2022-02-27 11:11:11.153
112.0, -3474.1763441772873, -6136.35851578218, -1832.6418796350813, -11121.490433393768, -1392.8713074769148, 146.4709814156272, -5290.0097119819775, -2148.516732277481, -2916.2991543172784, -7749.7744857996095, -4476.652082997809, -2936.1475033935913, -4574.105688822948, -3703.0582073996316, -10283.143554108567, -14163.495798527694, 0.016, -0.106, 0.99, 192.0, 0.0, 0.0, 0.0, 0.0, 0.0, 0.0, 0.0, 0.0, 0.0, 1.645920671160374E9, 0.0, 2022-02-27 11:11:11.160
114.0, -2920.2107095969573, -5770.706328237811, -1539.8563790150142, -10774.546655958493, -915.2815837003689, 489.9055349714202, -5262.248845368486, -2104.550850933892, -3668.2341895382633, -7618.435635380225, -4420.3256869704355, -3197.7970239874157, -4499.316751875491, -3655.24782600973, -10570.586987803816, -14270.337137024062, 0.016, -0.106, 0.99, 192.0, 0.0, 0.0, 0.0, 0.0, 0.0, 0.0, 0.0, 0.0, 0.0, 1.645920671168283E9, 0.0, 2022-02-27 11:11:11.168
116.0, -3393.6653606492714, -6038.502578556845, -1791.8275942596906, -11069.388517068448, -1336.2096352827116, 224.85854922038905, -5321.81624434188, -2214.0743987648966, -5234.376220032718, -8520.283820662955, -4492.70063551672, -3203.0943874233235, -4503.65299029982, -3759.7645830827455, -10789.99171137711, -15239.844052773005, 0.014, -0.10400000000000001, 0.986, 192.0, 0.0, 56.0, 126.0, 96.0, 15.0, 104.0, 0.0, 0.0, 0.0, 1.645920671176408E9, 0.0, 2022-02-27 11:11:11.176
118.0, -3220.037009720446, -5983.51728719679, -1707.4721106853617, -10957.36157385845, -1166.0681564889142, 292.9196110867991, -5264.640482025205, -2098.6052869087803, -2197.4894043790587, -7251.867026313189, -4442.431562236734, -2958.566303082264, -4573.725709167208, -3631.3985146759173, -10224.850204569126, -13670.192798399068, 0.014, -0.10400000000000001, 0.986, 192.0, 0.0, 0.0, 0.0, 0.0, 0.0, 0.0, 0.0, 0.0, 0.0, 1.645920671182926E9, 0.0, 2022-02-27 11:11:11.182
120.0, -3024.1016178252244, -5804.949200743342, -1588.5384784386729, -10856.018764498087, -1010.4776633355217, 440.26231053618324, -5304.605401111294, -2228.044239049463, -5540.1257324368635, -8373.52226656941, -4465.006824136594, -3377.639159874816, -4472.293492829024, -3726.684001288891, -10940.709524239246, -15229.137567178914, 0.014, -0.10400000000000001, 0.986, 192.0, 0.0, 0.0, 0.0, 0.0, 0.0, 0.0, 0.0, 0.0, 0.0, 1.645920671190949E9, 0.0, 2022-02-27 11:11:11.190
122.0, -3479.7195768022034, -6141.700582706998, -1838.4756849379164, -11139.34947721356, -1402.5049093371522, 141.08421100189818, -5301.967895265567, -2163.872380718277, -2972.6255503446523, -7777.334186713003, -4487.135051147348, -2938.337974350211, -4588.075529107515, -3710.8589662145337, -10302.008426428847, -14197.090470444022, 0.014, -0.10400000000000001, 0.986, 192.0, 0.0, 0.0, 0.0, 0.0, 0.0, 0.0, 0.0, 0.0, 0.0, 1.645920671198071E9, 0.0, 2022-02-27 11:11:11.198
124.0, -2932.0347824138144, -5787.872467979488, -1547.411268640908, -10800.027644637543, -919.7966360803409, 475.30984584210466, -5254.47043829804, -2099.5887636648135, -3625.4976541397164, -7614.948763245197, -4430.406323719779, -3205.642486291228, -4518.136920706859, -3663.3838609914615, -10567.860074980268, -14254.936785094356, 0.014, -0.10400000000000001, 0.986, 192.0, 0.0, 0.0, 0.0, 0.0, 0.0, 0.0, 0.0, 0.0, 0.0, 1.645920671206103E9, 0.0, 2022-02-27 11:11:11.206
126.0, -3377.0803662634335, -6035.261575610826, -1779.265913875808, -11083.201895141829, -1320.4069519528093, 221.28227010753992, -5312.875546559757, -2258.084983597396, -5299.039816741922, -8544.557815141417, -4500.791967009541, -3225.2449661785326, -4514.426531127278, -3767.1630104974524, -10799.647664981803, -15271.807047344095, 0.014, -0.108, 0.992, 192.0, 0.0, 56.0, 126.0, 80.0, 15.5, 0.0, 0.0, 0.0, 0.0, 1.645920671212692E9, 0.0, 2022-02-27 11:11:11.212
128.0, -3217.6006695748174, -5985.461888964402, -1714.7811311222472, -10965.721126284734, -1176.8416973163721, 281.0061312921204, -5292.088424216321, -2089.8210513378444, -2174.511811079003, -7257.834942082756, -4432.887367354318, -2945.9375674650155, -4574.3515580119565, -3637.6793548678584, -10215.350713175621, -13677.881798491693, 0.014, -0.108, 0.992, 192.0, 0.0, 0.0, 0.0, 0.0, 0.0, 0.0, 0.0, 0.0, 0.0, 1.64592067122066E9, 0.0, 2022-02-27 11:11:11.220
130.0, -2986.3495214402105, -5780.898723709432, -1582.50350743574, -10834.225813654162, -998.2512591184687, 449.0018426182083, -5300.112700475776, -2212.308610952927, -5493.187069080719, -8343.906205166126, -4457.094306599415, -3354.326290407931, -4466.638501481832, -3717.3633238510283, -10934.428684047305, -15198.135697619404, 0.014, -0.108, 0.992, 192.0, 0.0, 0.0, 0.0, 0.0, 0.0, 0.0, 0.0, 0.0, 0.0, 1.645920671228535E9, 0.0, 2022-02-27 11:11:11.228
132.0, -3460.251207381631, -6130.2788412903365, -1841.8731500951233, -11125.96078228483, -1411.646772819373, 144.79460058147916, -5333.0368200584435, -2172.2989883779273, -3091.626237824707, -7808.917201628352, -4475.489792286133, -2924.882224188116, -4577.011415602138, -3702.857041699534, -10331.624487832129, -14265.263291032708, 0.014, -0.108, 0.992, 192.0, 0.0, 0.0, 0.0, 0.0, 0.0, 0.0, 0.0, 0.0, 0.0, 1.645920671235114E9, 0.0, 2022-02-27 11:11:11.235
134.0, -2913.3934275380884, -5777.925941696875, -1552.2392454432543, -10791.623388722348, -933.7217728759972, 475.1757353753728, -5272.038909439911, -2109.8482143697997, -3489.0179024956115, -7557.616538717335, -4414.670695623243, -3165.9904916275136, -4515.6558770723195, -3640.4509711803166, -10550.157493371666, -14196.598732066004, 0.014, -0.108, 0.992, 192.0, 0.0, 0.0, 0.0, 0.0, 0.0, 0.0, 0.0, 0.0, 0.0, 1.645920671243165E9, 0.0, 2022-02-27 11:11:11.243
136.0, -3352.4040403847744, -6024.465683038912, -1782.7751377552913, -11081.838438730054, -1328.3865247233541, 221.95282244119915, -5302.683151088137, -2259.671957453723, -5296.089386473821, -8540.22157671709, -4483.156440634303, -3220.0817132093566, -4506.402254867823, -3755.003661513765, -10812.276400599052, -15270.77886709915, 0.014, -0.106, 0.99, 192.0, 0.0, 56.0, 126.0, 88.0, 15.0, 120.0, 0.0, 0.0, 0.0, 1.645920671251279E9, 0.0, 2022-02-27 11:11:11.251
138.0, -3206.9612392140916, -5982.645569163033, -1723.2300905263533, -10978.88630376891, -1190.4986131785647, 284.180079004774, -5268.149705904688, -2098.5829351643247, -2153.0317846574526, -7246.81553206629, -4425.220719006147, -2939.0085266838705, -4571.870514377417, -3626.592889618026, -10215.39541666453, -13672.89735947816, 0.014, -0.106, 0.99, 192.0, 0.0, 0.0, 0.0, 0.0, 0.0, 0.0, 0.0, 0.0, 0.0, 1.645920671258216E9, 0.0, 2022-02-27 11:11:11.258
140.0, -2990.730463353451, -5784.0726714220855, -1599.5131849662287, -10849.827331283966, -1013.1151691812479, 462.18937184683944, -5295.128261462243, -2196.0141892450083, -5470.969435092144, -8332.50681549392, -4458.591873477921, -3362.1046974783776, -4469.410117794289, -3700.1524806204416, -10935.367457314427, -15179.784915421596, 0.014, -0.106, 0.99, 192.0, 0.0, 0.0, 0.0, 0.0, 0.0, 0.0, 0.0, 0.0, 0.0, 1.645920671272904E9, 0.0, 2022-02-27 11:11:11.272
142.0, -3479.2725419130975, -6147.333222309736, -1862.1461823160867, -11147.083180795096, -1422.2414996911884, 150.13666750629753, -5313.0767122598545, -2166.5545900529137, -3064.7817927338833, -7816.829719165531, -4490.264295371091, -2932.660631258563, -4592.635284976397, -3696.7997189521457, -10329.434016875508, -14234.48493891775, 0.014, -0.106, 0.99, 192.0, 0.0, 0.0, 0.0, 0.0, 0.0, 0.0, 0.0, 0.0, 0.0, 1.645920671281124E9, 0.0, 2022-02-27 11:11:11.281
144.0, -2932.1912446250017, -5787.2466191347385, -1571.6629113749161, -10808.253086597097, -949.9267876060949, 479.2214011217834, -5280.689034544115, -2124.9356418771317, -3517.0693417870216, -7580.88470469531, -4431.97094583165, -3182.0166924019686, -4527.5693568669985, -3647.536474172649, -10556.259519607964, -14199.549162334104, 0.014, -0.106, 0.99, 192.0, 0.0, 0.0, 0.0, 0.0, 0.0, 0.0, 0.0, 0.0, 0.0, 1.645920671288025E9, 0.0, 2022-02-27 11:11:11.288
146.0, -3364.4292789017295, -6027.259651095826, -1791.8052425152355, -11080.609092785013, -1328.6323939123624, 252.59706408942512, -5328.521767678472, -2248.0043468480526, -5367.190285586154, -8557.812399603416, -4503.541231577544, -3229.06711448039, -4521.556737608521, -3746.7782195542122, -10834.71755203218, -15295.231675533258, 0.016, -0.10400000000000001, 0.992, 192.0, 0.0, 64.0, 126.0, 96.0, 15.5, 0.0, 0.0, 0.0, 0.0, 1.645920671295447E9, 0.0, 2022-02-27 11:11:11.295
148.0, -3233.6939255826387, -5999.945819371441, -1732.3943057530291, -10985.904751527876, -1184.6424561312742, 292.40552096432697, -5283.058319456377, -2099.70052238709, -2158.8879417047433, -7259.936006061555, -4442.051582580993, -2937.242738871901, -4576.765546413129, -3642.2614624811963, -10208.846355539126, -13666.817684986316, 0.016, -0.10400000000000001, 0.992, 192.0, 0.0, 0.0, 0.0, 0.0, 0.0, 0.0, 0.0, 0.0, 0.0, 1.645920671303526E9, 0.0, 2022-02-27 11:11:11.303
150.0, -2983.0414632608254, -5783.357415599516, -1587.2867807491757, -10847.078066715965, -981.1968780990694, 475.0192731641857, -5286.925171247145, -2198.5622881129134, -5432.412675906739, -8320.54863221033, -4460.335309545435, -3363.199932956688, -4467.912550915784, -3708.2661638577183, -10922.246983319163, -15156.025011065605, 0.016, -0.10400000000000001, 0.992, 192.0, 0.0, 0.0, 0.0, 0.0, 0.0, 0.0, 0.0, 0.0, 0.0, 1.645920671311498E9, 0.0, 2022-02-27 11:11:11.311
152.0, -3487.83326003948, -6144.449847275001, -1856.200618290975, -11146.72555288381, -1414.865424020937, 158.831496099412, -5313.300229704408, -2167.38160459776, -3158.368546768254, -7861.957891220795, -4489.5937430374315, -2945.5128843203647, -4577.279636535602, -3708.310867346629, -10337.078313479224, -14284.865770920012, 0.016, -0.10400000000000001, 0.992, 192.0, 0.0, 0.0, 0.0, 0.0, 0.0, 0.0, 0.0, 0.0, 0.0, 1.645920671318109E9, 0.0, 2022-02-27 11:11:11.318
154.0, -2951.056116945281, -5799.964761729809, -1572.892257319958, -10809.258915097585, -950.9996713399496, 490.15140416042857, -5283.9970927235, -2110.541118447914, -3441.699259483726, -7557.482428250602, -4437.9388616012175, -3167.2198375725557, -4523.411932398311, -3638.9310525573555, -10539.763932199947, -14160.187740348309, 0.015, -0.10400000000000001, 0.988, 192.0, 0.0, 56.0, 126.0, 96.0, 15.0, 96.0, 0.0, 0.0, 0.0, 1.645920671325073E9, 0.0, 2022-02-27 11:11:11.325
156.0, -3368.363185925864, -6035.3062790997365, -1792.0734634486992, -11078.99976718423, -1322.910347331804, 263.5941223614362, -5322.039761786433, -2234.9732798306086, -5411.871422752312, -8583.293388282465, -4513.577164837976, -3237.9184052846917, -4511.967839237194, -3753.8190190576343, -10845.245223670629, -15305.55818147161, 0.015, -0.10400000000000001, 0.988, 192.0, 0.0, 0.0, 0.0, 0.0, 0.0, 0.0, 0.0, 0.0, 0.0, 1.645920671333151E9, 0.0, 2022-02-27 11:11:11.333
158.0, -3252.3576322028202, -6018.765988202809, -1741.2232448128755, -10996.164202232863, -1199.975752827615, 298.59695417844705, -5276.9786449645335, -2099.8793363427326, -2154.5964067693244, -7280.164334793608, -4455.6637949542755, -2931.8783202026275, -4579.380700514401, -3627.084627996043, -10216.44594865393, -13665.141304152168, 0.015, -0.10400000000000001, 0.988, 192.0, 0.0, 0.0, 0.0, 0.0, 0.0, 0.0, 0.0, 0.0, 0.0, 1.645920671341206E9, 0.0, 2022-02-27 11:11:11.341
160.0, -2993.993818043926, -5794.846212249543, -1593.992304085768, -10846.295755660029, -982.403872299656, 492.1183576724956, -5282.186601422621, -2196.1035962228293, -5401.991951703067, -8320.414521743598, -4470.862981183885, -3357.7908107985036, -4465.498562514611, -3698.1631753639194, -10920.525898996104, -15138.210670734725, 0.015, -0.10400000000000001, 0.988, 192.0, 0.0, 0.0, 0.0, 0.0, 0.0, 0.0, 0.0, 0.0, 0.0, 1.645920671347645E9, 0.0, 2022-02-27 11:11:11.347
162.0, -3499.277353200597, -6155.491609035923, -1870.818659164746, -11149.430113962902, -1414.6866100652946, 173.94127535119955, -5303.599572610805, -2165.0123196854975, -3191.6055907732953, -7872.954949492807, -4505.530536834066, -2936.996869682893, -4582.599351715965, -3696.240925340763, -10348.701220595984, -14293.851172191045, 0.015, -0.10400000000000001, 0.988, 192.0, 0.0, 0.0, 0.0, 0.0, 0.0, 0.0, 0.0, 0.0, 0.0, 1.645920671355771E9, 0.0, 2022-02-27 11:11:11.355
164.0, -2965.249474674401, -5813.86754678101, -1587.2644290047203, -10816.970266934666, -950.2620637729244, 494.7558635182218, -5276.084575186322, -2109.579993436336, -3437.5865385039497, -7557.437724761692, -4449.4500099957, -3162.9953578705026, -4529.111627234415, -3633.8125030770902, -10537.573461243328, -14156.432647279818, 0.0135, -0.10600000000000001, 0.986, 192.0, 0.0, 48.0, 126.0, 80.0, 15.0, 96.0, 0.0, 0.0, 0.0, 1.645920671363775E9, 0.0, 2022-02-27 11:11:11.363
166.0, -3377.862677319369, -6036.893252956063, -1794.1521756830425, -11075.423488071381, -1305.4759866566642, 278.1898114907517, -5320.676305374659, -2233.5874716743797, -5462.8781035993225, -8599.31958905692, -4519.902708518828, -3246.5461786444403, -4512.638391570854, -3752.8578940460557, -10850.76610455109, -15327.485242782264, 0.0135, -0.10600000000000001, 0.986, 192.0, 0.0, 0.0, 0.0, 0.0, 0.0, 0.0, 0.0, 0.0, 0.0, 1.645920671370384E9, 0.0, 2022-02-27 11:11:11.370
168.0, -3291.0708535994117, -6046.929186216496, -1760.8257247001798, -11007.138908760418, -1209.9893343435924, 296.13826228836325, -5285.405252624185, -2095.3419322183054, -2167.113383664296, -7289.149736064642, -4470.214780594681, -2936.281613860323, -4591.830622176007, -3633.186654232342, -10205.895925271026, -13668.605824542741, 0.0135, -0.10600000000000001, 0.986, 192.0, 0.0, 0.0, 0.0, 0.0, 0.0, 0.0, 0.0, 0.0, 0.0, 1.645920671378446E9, 0.0, 2022-02-27 11:11:11.378
170.0, -3006.4213879610766, -5808.838404278566, -1598.7979291436588, -10846.675735315768, -974.2901890623796, 497.8851077419648, -5295.776462051447, -2194.024883988486, -5390.056120163932, -8323.499062478431, -4490.085481415449, -3368.072613247945, -4482.619998767376, -3710.59074528107, -10919.341256539972, -15126.18543221777, 0.0135, -0.10600000000000001, 0.986, 192.0, 0.0, 0.0, 0.0, 0.0, 0.0, 0.0, 0.0, 0.0, 0.0, 1.645920671393453E9, 0.0, 2022-02-27 11:11:11.393
172.0, -3515.862347586435, -6171.115478410182, -1878.8652871686563, -11149.452465707358, -1405.9917814721803, 175.61765618534758, -5298.369264408263, -2163.7382702515447, -3292.5684204779177, -7925.705066407331, -4520.103874218926, -2953.5818640687307, -4589.841316919484, -3716.625716284003, -10362.29108122481, -14345.394294904983, 0.0135, -0.10600000000000001, 0.986, 192.0, 0.0, 0.0, 0.0, 0.0, 0.0, 0.0, 0.0, 0.0, 0.0, 1.64592067140004E9, 0.0, 2022-02-27 11:11:11.400
174.0, -2985.477803406454, -5837.068657525619, -1597.4791762207958, -10815.517403545071, -938.2144735115139, 499.9191164873978, -5261.868865712746, -2094.134938017719, -3369.8831045488246, -7542.082076320896, -4459.396536278312, -3155.239302544511, -4535.370115681901, -3649.9281108293667, -10509.969056841024, -14119.440510206285, 0.012750000000000001, -0.10700000000000001, 0.987, 192.0, 0.0, 48.0, 126.0, 80.0, 15.0, 112.0, 0.0, 0.0, 0.0, 1.645920671408088E9, 0.0, 2022-02-27 11:11:11.408
176.0, -3380.678997120738, -6046.146875160561, -1801.1929751864643, -11072.026022914175, -1287.4157771367761, 291.1761750192851, -5305.968857523067, -2230.994669317564, -5501.27840057354, -8607.65678973875, -4531.570319124498, -3252.2458734805437, -4516.684057317264, -3765.2184087298406, -10851.995450496132, -15329.519251527698, 0.012750000000000001, -0.10700000000000001, 0.987, 192.0, 0.0, 0.0, 0.0, 0.0, 0.0, 0.0, 0.0, 0.0, 0.0, 1.645920671416056E9, 0.0, 2022-02-27 11:11:11.416
178.0, -3298.6927984586714, -6056.719250287921, -1767.531248036772, -11012.70449312979, -1206.9047936087602, 301.4803292131817, -5277.448031598095, -2098.135900275219, -2170.4661453325925, -7304.214811827518, -4480.720100488675, -2938.0474016722924, -4597.172689100825, -3646.173017760875, -10193.982445476347, -13664.18017914059, 0.012750000000000001, -0.10700000000000001, 0.987, 192.0, 0.0, 0.0, 0.0, 0.0, 0.0, 0.0, 0.0, 0.0, 0.0, 1.645920671423345E9, 0.0, 2022-02-27 11:11:11.423
180.0, -3011.0481990633252, -5814.381636903481, -1602.441263489874, -10843.613546325392, -970.982130882994, 505.685866556867, -5297.408139396684, -2190.29214266445, -5368.263169320008, -8309.842146616238, -4492.968856450183, -3363.266988190054, -4487.805603481007, -3720.559623308137, -10907.338369767473, -15100.726795283175, 0.012750000000000001, -0.10700000000000001, 0.987, 192.0, 0.0, 0.0, 0.0, 0.0, 0.0, 0.0, 0.0, 0.0, 0.0, 1.645920671430599E9, 0.0, 2022-02-27 11:11:11.430
182.0, -3529.5192634486275, -6184.057138449805, -1878.105327857176, -11152.313488997637, -1400.2920866360769, 171.68374916121354, -5298.302209174897, -2169.057985431908, -3328.2194528841324, -7936.277441534691, -4525.334182421468, -2962.8801897621383, -4595.026921633115, -3726.661649544436, -10360.927624813035, -14349.395257162483, 0.012750000000000001, -0.10700000000000001, 0.987, 192.0, 0.0, 0.0, 0.0, 0.0, 0.0, 0.0, 0.0, 0.0, 0.0, 1.645920671438688E9, 0.0, 2022-02-27 11:11:11.438
184.0, -2995.0890535222356, -5845.0035268072525, -1596.7415686537706, -10818.646647768814, -937.8344938557738, 482.9317907013644, -5260.170133134143, -2086.4012344361827, -3357.2096654426655, -7546.194797300673, -4460.2459025676135, -3160.2460933024995, -4540.6004238844425, -3658.8017533781235, -10495.865106089725, -14101.73792859768, 0.013375000000000001, -0.11050000000000001, 0.9875, 192.0, 0.0, 56.0, 126.0, 56.0, 15.0, 112.0, 0.0, 0.0, 0.0, 1.645920671445685E9, 0.0, 2022-02-27 11:11:11.445
186.0, -3370.643063860305, -6033.831063965687, -1787.4243006019951, -11064.471133288282, -1278.8997624993042, 276.826355078978, -5304.627752855748, -2232.894567596265, -5548.977023241166, -8624.487653313596, -4527.2787841890795, -3266.5733416763956, -4516.5946503394425, -3779.076490292131, -10860.802037811523, -15343.444388323354, 0.013375000000000001, -0.11050000000000001, 0.9875, 192.0, 0.0, 0.0, 0.0, 0.0, 0.0, 0.0, 0.0, 0.0, 0.0, 1.645920671452359E9, 0.0, 2022-02-27 11:11:11.452
188.0, -3308.3711038078195, -6059.446163111468, -1766.5477712807383, -11015.587868164524, -1214.0797035789137, 278.97212254668744, -5277.872714742746, -2076.0076732644648, -2176.0987849353296, -7316.552974766848, -4478.082594642949, -2934.2699568593453, -4601.933610669806, -3659.606416178515, -10191.501401841808, -13663.889606462672, 0.013375000000000001, -0.11050000000000001, 0.9875, 192.0, 0.0, 0.0, 0.0, 0.0, 0.0, 0.0, 0.0, 0.0, 0.0, 1.645920671460373E9, 0.0, 2022-02-27 11:11:11.460
190.0, -2999.5817541577526, -5804.010427476219, -1591.7124261513266, -10834.38227586535, -950.9996713399496, 491.82778499457663, -5290.344988148808, -2184.056005961419, -5320.139863507732, -8286.149297493614, -4485.637484268843, -3361.6576625892717, -4488.833783725951, -3735.9376234933884, -10900.319922008506, -15076.139876382338, 0.013375000000000001, -0.11050000000000001, 0.9875, 192.0, 0.0, 0.0, 0.0, 0.0, 0.0, 0.0, 0.0, 0.0, 0.0, 1.645920671468441E9, 0.0, 2022-02-27 11:11:11.468
192.0, -3529.3851529818958, -6180.905542481607, -1875.780746433824, -11148.625451162512, -1395.8887929783814, 160.23965600009635, -5303.24194469952, -2180.412671615204, -3392.7265873821484, -7965.0217849042165, -4526.541176622054, -2973.8101928007836, -4585.862706406439, -3738.955108994855, -10371.857627851681, -14380.508885444271, 0.013375000000000001, -0.11050000000000001, 0.9875, 192.0, 0.0, 0.0, 0.0, 0.0, 0.0, 0.0, 0.0, 0.0, 0.0, 1.64592067147535E9, 0.0, 2022-02-27 11:11:11.475
194.0, -3005.437911205043, -5853.966576333831, -1601.4801384782957, -10819.585421035938, -941.6789939020865, 477.5450202876354, -5262.002976179478, -2087.7870425924116, -3309.3098770749425, -7534.929518095198, -4462.794001435519, -3153.205293799078, -4540.3098512065235, -3669.1729628053863, -10492.847620588258, -14084.21416094472, 0.013687500000000002, -0.11325000000000002, 0.98975, 192.0, 0.0, 56.0, 126.0, 48.0, 15.5, 0.0, 0.0, 0.0, 0.0, 1.645920671482918E9, 0.0, 2022-02-27 11:11:11.482
196.0, -3361.232979444621, -6025.784435961776, -1785.144422667554, -11050.367182536982, -1266.8074687489832, 283.5765819044807, -5309.656895358193, -2227.1948727601616, -5594.552230185536, -8632.199005150676, -4531.771484824596, -3275.1340598027778, -4514.60534508292, -3779.300007736684, -10870.860322816412, -15356.22958615179, 0.013687500000000002, -0.11325000000000002, 0.98975, 192.0, 0.0, 0.0, 0.0, 0.0, 0.0, 0.0, 0.0, 0.0, 0.0, 1.645920671490983E9, 0.0, 2022-02-27 11:11:11.490
198.0, -3307.1417578627775, -6053.813523508731, -1771.1298788940762, -11005.306065715084, -1202.9485348401709, 284.09067202695275, -5281.516049088961, -2087.340007703305, -2169.080337176363, -7315.502442777449, -4474.93099867475, -2921.954145664471, -4591.517697753632, -3655.270177754185, -10185.77935526125, -13670.125743165701, 0.013687500000000002, -0.11325000000000002, 0.98975, 192.0, 0.0, 0.0, 0.0, 0.0, 0.0, 0.0, 0.0, 0.0, 0.0, 1.645920671498924E9, 0.0, 2022-02-27 11:11:11.498
200.0, -2972.9161230225714, -5784.385595844459, -1585.0963097925558, -10812.835194210435, -929.117313518204, 517.91227077392, -5275.458726341573, -2166.3310726083605, -5270.407232094673, -8255.125076189646, -4477.255580098103, -3349.811238027959, -4470.795925950519, -3689.82597468209, -10880.24805548764, -15040.444140487212, 0.013687500000000002, -0.11325000000000002, 0.98975, 192.0, 0.0, 0.0, 0.0, 0.0, 0.0, 0.0, 0.0, 0.0, 0.0, 1.645920671506583E9, 0.0, 2022-02-27 11:11:11.506
202.0, -3501.870155557413, -6151.043611889317, -1872.3609295321621, -11135.39321844497, -1391.0161126871244, 173.51659220654872, -5300.71619757607, -2177.506944836014, -3483.2288006816866, -7987.999378204272, -4509.710313047208, -2966.8140967862723, -4573.770412656118, -3722.3254111201063, -10383.122907057155, -14425.637057499536, 0.013687500000000002, -0.11325000000000002, 0.98975, 192.0, 0.0, 0.0, 0.0, 0.0, 0.0, 0.0, 0.0, 0.0, 0.0, 1.645920671520626E9, 0.0, 2022-02-27 11:11:11.520
204.0, -2989.8810970641493, -5832.643012123467, -1598.3508942545527, -10808.387197063828, -935.3981537101453, 475.22043886428344, -5245.015650393445, -2079.740414588501, -3203.630829290251, -7489.4437181286485, -4441.537492458522, -3123.298659717877, -4530.318621435002, -3654.756087631713, -10458.962375994013, -14040.427093556775, 0.013843750000000002, -0.109625, 0.986875, 192.0, 0.0, 56.0, 126.0, 88.0, 15.0, 96.0, 0.0, 0.0, 0.0, 1.645920671528478E9, 0.0, 2022-02-27 11:11:11.528
206.0, -3332.7345052641044, -6003.767967673299, -1773.789736484258, -11033.581022451046, -1244.7239452271397, 289.1868697627628, -5299.531555119938, -2215.1249307542957, -5613.662971694824, -8625.538185302996, -4515.722932305686, -3273.45767896863, -4504.345894377934, -3788.151298540986, -10868.401630926328, -15353.837949495071, 0.013843750000000002, -0.109625, 0.986875, 192.0, 0.0, 0.0, 0.0, 0.0, 0.0, 0.0, 0.0, 0.0, 0.0, 1.645920671535121E9, 0.0, 2022-02-27 11:11:11.535
208.0, -3300.4809380150964, -6035.552148288745, -1770.816954471702, -11003.920257558853, -1211.330439010911, 278.5474394020366, -5272.485944329017, -2077.9522750320766, -2159.692604505134, -7312.104977620242, -4458.860094411385, -2910.532404247809, -4579.76068017014, -3663.853247625023, -10176.592788290118, -13669.790466998873, 0.013843750000000002, -0.109625, 0.986875, 192.0, 0.0, 0.0, 0.0, 0.0, 0.0, 0.0, 0.0, 0.0, 0.0, 1.645920671543264E9, 0.0, 2022-02-27 11:11:11.543
210.0, -2965.249474674401, -5774.841400962044, -1579.2848562341758, -10805.682635984736, -920.6907058585532, 519.4545411413361, -5288.825069525847, -2151.6906799901344, -5223.043885593878, -8228.191224121001, -4466.370280548368, -3341.8540170018696, -4466.370280548368, -3714.0329139271876, -10869.787439082556, -15009.822250583442, 0.013843750000000002, -0.109625, 0.986875, 192.0, 0.0, 0.0, 0.0, 0.0, 0.0, 0.0, 0.0, 0.0, 0.0, 1.645920671551215E9, 0.0, 2022-02-27 11:11:11.551
212.0, -3503.50183290265, -6149.143713610615, -1874.2384760664079, -11135.192052744873, -1376.5545340245408, 173.00250208407667, -5287.3051509028855, -2149.634319500246, -3493.9576380202343, -7985.853610736563, -4505.307019389513, -2968.468125875965, -4564.09210730697, -3731.467274602327, -10380.641863422617, -14425.346484821617, 0.013843750000000002, -0.109625, 0.986875, 192.0, 0.0, 0.0, 0.0, 0.0, 0.0, 0.0, 0.0, 0.0, 0.0, 1.645920671558278E9, 0.0, 2022-02-27 11:11:11.558
214.0, -2981.9685795269706, -5820.729532328789, -1601.8154146451254, -10805.056787139987, -922.1435692481482, 481.3224651005823, -5234.443275266084, -2078.287551198906, -3190.845631461815, -7476.993796467042, -4442.230396536636, -3122.0469620283798, -4525.17772021028, -3653.1914655198416, -10447.07124794379, -14021.316352047486, 0.013921875, -0.1078125, 0.9864375, 192.0, 0.0, 56.0, 126.0, 88.0, 15.0, 104.0, 0.0, 0.0, 0.0, 1.645920671565958E9, 0.0, 2022-02-27 11:11:11.565
216.0, -3317.5353190344954, -5986.378310487069, -1775.242599873853, -11022.628667667947, -1230.1729595867348, 305.81656763751124, -5271.457764084073, -2200.3951311582487, -5626.269355567617, -8610.562516517939, -4507.385731623856, -3263.488800941563, -4488.69967325922, -3762.335033695106, -10870.100363504931, -15364.700897300352, 0.013921875, -0.1078125, 0.9864375, 192.0, 0.0, 0.0, 0.0, 0.0, 0.0, 0.0, 0.0, 0.0, 0.0, 1.645920671572833E9, 0.0, 2022-02-27 11:11:11.572
218.0, -3302.4925950160737, -6034.322802343703, -1779.6458935315484, -11001.662731368868, -1199.5287179385089, 278.34627370193886, -5252.436429552607, -2065.770574303934, -2158.1950376266286, -7305.645323472658, -4465.990300892628, -2908.543098991287, -4578.5760377140095, -3646.4188869498835, -10165.103991640091, -13661.520321550408, 0.013921875, -0.1078125, 0.9864375, 192.0, 0.0, 0.0, 0.0, 0.0, 0.0, 0.0, 0.0, 0.0, 0.0, 1.645920671580918E9, 0.0, 2022-02-27 11:11:11.580
220.0, -2949.044459944303, -5759.5975112435235, -1578.6813591338826, -10791.735147444624, -901.311743415802, 528.3058319456377, -5253.866941197746, -2146.5944822543242, -5184.129498497188, -8196.71996792793, -4460.69293745672, -3329.9181854627354, -4463.017518880072, -3702.0300271546876, -10858.522159877082, -14985.816477038441, 0.013921875, -0.1078125, 0.9864375, 192.0, 0.0, 0.0, 0.0, 0.0, 0.0, 0.0, 0.0, 0.0, 0.0, 1.645920671587588E9, 0.0, 2022-02-27 11:11:11.587
222.0, -3488.8167367955134, -6133.676306447543, -1871.556266731771, -11130.073503264608, -1369.4019757988426, 188.44755750269385, -5290.0097119819775, -2161.637206272746, -3535.1966065402758, -7990.77099451673, -4495.695769273731, -2954.7218030359513, -4556.872493847906, -3718.6150215405255, -10388.554380959795, -14440.769188495779, 0.013921875, -0.1078125, 0.9864375, 192.0, 0.0, 0.0, 0.0, 0.0, 0.0, 0.0, 0.0, 0.0, 0.0, 1.645920671595431E9, 0.0, 2022-02-27 11:11:11.595
224.0, -2976.313588179778, -5811.095930468551, -1601.7260076673042, -10810.488261042627, -919.4613599135113, 489.2796861266716, -5245.261519582453, -2075.739452331001, -3130.272403987933, -7441.678040227657, -4422.11382652686, -3108.6359153551957, -4507.65395255732, -3636.8076368341017, -10441.550367063328, -14003.72552916116, 0.012, -0.106, 0.986, 192.0, 0.0, 48.0, 126.0, 88.0, 15.0, 104.0, 0.0, 0.0, 0.0, 1.6459206716035E9, 0.0, 2022-02-27 11:11:11.603
226.0, -3293.5071937450402, -5973.928388825463, -1751.1027158621212, -11024.573269435557, -1201.9874098285925, 320.8369399114776, -5275.168153663654, -2224.7138291256224, -5662.859161240955, -8610.338999073387, -4494.153498906315, -3281.146679061256, -4469.276007327558, -3755.4059929139607, -10875.91181706331, -15373.395725893466, 0.012, -0.106, 0.986, 192.0, 0.0, 0.0, 0.0, 0.0, 0.0, 0.0, 0.0, 0.0, 0.0, 1.645920671610633E9, 0.0, 2022-02-27 11:11:11.610
228.0, -3308.8851939302917, -6043.218796636916, -1771.4428033164506, -11018.806519366088, -1207.910622109249, 275.1276225003746, -5264.7075372585705, -2067.9163417716436, -2165.7499272525224, -7323.861995203733, -4447.751277417097, -2897.6801511860076, -4561.611063672432, -3654.085535298054, -10164.478142795342, -13678.865275247726, 0.012, -0.106, 0.986, 192.0, 0.0, 0.0, 0.0, 0.0, 0.0, 0.0, 0.0, 0.0, 0.0, 1.645920671618167E9, 0.0, 2022-02-27 11:11:11.618
230.0, -2939.857892973172, -5749.293357049627, -1566.3208444500976, -10801.681673727237, -900.0153422373942, 527.6129278675232, -5254.582197020316, -2149.8801886892547, -5112.469805773474, -8164.645214634564, -4448.041850095016, -3317.1106358898446, -4450.008803607083, -3704.891050444967, -10844.48526435915, -14949.517244043023, 0.012, -0.106, 0.986, 192.0, 0.0, 0.0, 0.0, 0.0, 0.0, 0.0, 0.0, 0.0, 0.0, 1.645920671626066E9, 0.0, 2022-02-27 11:11:11.626
232.0, -3497.2209927107087, -6137.163178582571, -1870.0139963643549, -11140.824692347609, -1377.2250863581999, 178.32221726443976, -5283.0806712008325, -2140.1348281067408, -3599.1672991713644, -8019.694151841897, -4496.36632160739, -2970.9044660215936, -4546.210711742725, -3726.885166988989, -10399.104404342701, -14465.780790541266, 0.012, -0.106, 0.986, 192.0, 0.0, 0.0, 0.0, 0.0, 0.0, 0.0, 0.0, 0.0, 0.0, 1.645920671640318E9, 0.0, 2022-02-27 11:11:11.640
234.0, -3000.274658235867, -5833.179453990395, -1606.6433914474717, -10824.726322260658, -934.5934909097542, 467.1738108603729, -5242.668717225638, -2069.413908650149, -3113.2850782018995, -7449.791723464933, -4438.721172657153, -3121.599927139274, -4519.142749207348, -3642.9096630704003, -10430.30743960231, -13975.696441614205, 0.016, -0.112, 0.99, 192.0, 0.0, 64.0, 126.0, 64.0, 15.0, 120.0, 0.0, 0.0, 0.0, 1.645920671647713E9, 0.0, 2022-02-27 11:11:11.647
236.0, -3299.8997926592583, -5973.526057425268, -1763.977320668378, -11024.03682756863, -1210.4810727216093, 313.14793981885197, -5294.725930062048, -2216.9130703107203, -5691.938780777309, -8619.57026953343, -4506.066978700993, -3291.249667555054, -4476.674434742265, -3762.5809028841145, -10883.91374157831, -15370.355888647544, 0.016, -0.112, 0.99, 192.0, 0.0, 0.0, 0.0, 0.0, 0.0, 0.0, 0.0, 0.0, 0.0, 1.645920671655841E9, 0.0, 2022-02-27 11:11:11.655
238.0, -3319.0775894019116, -6046.862130983131, -1787.6925215354588, -11019.94645833331, -1221.3440205268885, 265.35991017340547, -5276.71042403107, -2091.31861821635, -2169.6614825322013, -7322.476187047504, -4459.5977019784095, -2903.089273344192, -4574.373909756411, -3642.8202560925793, -10166.690965496418, -13671.690365277573, 0.016, -0.112, 0.99, 192.0, 0.0, 0.0, 0.0, 0.0, 0.0, 0.0, 0.0, 0.0, 0.0, 1.645920671663726E9, 0.0, 2022-02-27 11:11:11.663
240.0, -2947.2116168989683, -5761.408002544404, -1577.183792255377, -10790.975188133143, -903.5916213502434, 520.1697969639059, -5258.627862766727, -2156.384546325749, -5103.663218458083, -8164.734621612385, -4458.5024665001, -3327.2136243836435, -4463.844533424918, -3694.721006717802, -10840.059618956999, -14937.693171226165, 0.016, -0.112, 0.99, 192.0, 0.0, 0.0, 0.0, 0.0, 0.0, 0.0, 0.0, 0.0, 0.0, 1.645920671670468E9, 0.0, 2022-02-27 11:11:11.670
242.0, -3515.0800365304995, -6153.547007268311, -1875.4678220114497, -11133.336857955082, -1381.1813451267892, 166.8110688699566, -5271.413060595162, -2169.5273720654695, -3678.6724541988915, -8050.785428379229, -4507.139862434848, -2979.0405010033255, -4561.052270061048, -3727.7121815338355, -10406.458128268496, -14499.174296757496, 0.016, -0.112, 0.99, 192.0, 0.0, 0.0, 0.0, 0.0, 0.0, 0.0, 0.0, 0.0, 0.0, 1.645920671678422E9, 0.0, 2022-02-27 11:11:11.678
244.0, -3026.7167719264953, -5865.053041583663, -1611.2254990608096, -10823.698142015714, -947.8033718828407, 458.16605784488416, -5245.283871326908, -2081.3273884448276, -3072.8954759711596, -7440.627508238257, -4440.755181402586, -3111.3404764342877, -4528.977516767683, -3646.173017760875, -10413.498927771918, -13964.721735086649, 0.012, -0.11, 0.994, 192.0, 0.0, 48.0, 126.0, 72.0, 15.5, 8.0, 0.0, 0.0, 0.0, 1.645920671686352E9, 0.0, 2022-02-27 11:11:11.686
246.0, -3333.002726197568, -6022.878709182586, -1751.6168059845934, -11017.934801332332, -1205.4295784747098, 316.6795154427905, -5301.654970843193, -2220.91403256822, -5727.858034116988, -8632.757798762059, -4511.297286903535, -3304.4595485281407, -4480.69774874422, -3769.3534814540726, -10887.44531720225, -15386.672662099918, 0.012, -0.11, 0.994, 192.0, 0.0, 0.0, 0.0, 0.0, 0.0, 0.0, 0.0, 0.0, 0.0, 1.64592067169249E9, 0.0, 2022-02-27 11:11:11.692
248.0, -3402.024913075556, -6133.810416914274, -1787.6925215354588, -11033.312801517583, -1231.581119487419, 253.7817065455564, -5279.191467665609, -2094.6490281401907, -2189.24161067505, -7358.395440387183, -4464.872713669863, -2917.8414246846946, -4574.105688822948, -3660.4557824678163, -10159.672517737452, -13690.264664919934, 0.012, -0.11, 0.994, 192.0, 0.0, 0.0, 0.0, 0.0, 0.0, 0.0, 0.0, 0.0, 0.0, 1.64592067170002E9, 0.0, 2022-02-27 11:11:11.700
250.0, -3061.004347920936, -5875.513657988747, -1571.5511526526395, -10804.632103995336, -900.2388596819472, 517.4205323959031, -5274.207028652076, -2159.245569616028, -5082.294950758809, -8171.954235071449, -4470.3935945503235, -3350.817066528448, -4465.722079959164, -3708.3555708355393, -10830.828348496956, -14924.215069319614, 0.012, -0.11, 0.994, 192.0, 0.0, 0.0, 0.0, 0.0, 0.0, 0.0, 0.0, 0.0, 0.0, 1.645920671708034E9, 0.0, 2022-02-27 11:11:11.708
252.0, -3656.8347998660565, -6293.424224069622, -1873.8361446662122, -11152.000564575263, -1374.2076008567335, 169.3368159934063, -5295.061206228877, -2181.6196658157905, -3775.0531762901755, -8108.251763373824, -4527.681115589276, -3020.570042201286, -4559.085316548982, -3736.8316932716007, -10421.880831942659, -14539.943878643977, 0.012, -0.11, 0.994, 192.0, 0.0, 0.0, 0.0, 0.0, 0.0, 0.0, 0.0, 0.0, 0.0, 1.645920671715973E9, 0.0, 2022-02-27 11:11:11.715
254.0, -3197.9981896875133, -6027.349058073647, -1619.3615340425413, -10845.155816692808, -946.082287559782, 455.81912467707696, -5259.56663603385, -2078.7345860880123, -3081.567952819819, -7476.904389489221, -4473.12050737387, -3150.143104808701, -4531.950298780239, -3642.4626281812943, -10404.29000905633, -13952.405923891774, 0.01, -0.108, 0.992, 192.0, 0.0, 40.0, 126.0, 80.0, 15.5, 0.0, 0.0, 0.0, 0.0, 1.64592067172292E9, 0.0, 2022-02-27 11:11:11.722
0.0, -3485.709844316226, -6150.21659734447, -1764.849038702135, -11032.508138717192, -1198.880517349305, 325.888434158377, -5304.381883666741, -2209.179366729184, -5807.094968211051, -8671.314557947464, -4556.067831047515, -3357.656700331772, -4491.404234338312, -3757.596463870581, -10894.866096361411, -15392.19354298038, 0.01, -0.108, 0.992, 192.0, 0.0, 0.0, 0.0, 0.0, 0.0, 0.0, 0.0, 0.0, 0.0, 1.645920671730703E9, 0.0, 2022-02-27 11:11:11.730
2.0, -3536.5600629520495, -6254.353374761746, -1802.042341475766, -11052.021211626676, -1234.486846266609, 252.8876367673441, -5284.108851445777, -2097.577106663836, -2260.901303398765, -7388.167964001652, -4517.868699773396, -2968.892809020616, -4591.048311120071, -3643.3790497039618, -10161.43830554942, -13695.562028355842, 0.01, -0.108, 0.992, 192.0, 0.0, 0.0, 0.0, 0.0, 0.0, 0.0, 0.0, 0.0, 0.0, 1.645920671738626E9, 0.0, 2022-02-27 11:11:11.738
4.0, -3122.0246102839246, -5945.876949534053, -1577.6531788889383, -10809.66124649778, -900.0376939818495, 519.7004103303445, -5284.041796212411, -2168.9462267096314, -5080.350348991197, -8178.056261307748, -4505.575240322976, -3377.482697663629, -4479.98249292165, -3702.0747306435983, -10821.23945012563, -14901.438641719657, 0.01, -0.108, 0.992, 192.0, 0.0, 0.0, 0.0, 0.0, 0.0, 0.0, 0.0, 0.0, 0.0, 1.645920671745897E9, 0.0, 2022-02-27 11:11:11.745
6.0, -3676.794907664646, -6322.906175006173, -1885.2355343384188, -11155.800361132666, -1389.9208772088143, 175.3494352518839, -5306.438244156629, -2166.152258652718, -3850.0879824266417, -8145.355659169634, -4547.261243732124, -3039.658431966118, -4565.276749763101, -3736.697582804869, -10433.861366970703, -14564.709611500457, 0.01, -0.108, 0.992, 192.0, 0.0, 0.0, 0.0, 0.0, 0.0, 0.0, 0.0, 0.0, 0.0, 1.645920671753425E9, 0.0, 2022-02-27 11:11:11.753
8.0, -3184.430680803142, -6019.391837047558, -1633.1302086270105, -10852.062505729498, -965.1483255801589, 455.77442118816634, -5264.931054703124, -2070.039757494898, -3042.854731423227, -7465.169723650185, -4488.274990114569, -3151.4171542426534, -4546.054249531538, -3645.0554305381097, -10396.064567096779, -13929.18246140271, 0.01, -0.108, 0.99, 192.0, 0.0, 40.0, 126.0, 80.0, 15.0, 120.0, 0.0, 0.0, 0.0, 1.645920671768256E9, 0.0, 2022-02-27 11:11:11.768
10.0, -3408.8868986233356, -6113.06799805975, -1745.5147797482944, -11024.774435135656, -1193.3372847243888, 335.65614648534614, -5309.880412802746, -2222.925689569198, -5802.132880941973, -8663.223226454644, -4544.131999508381, -3359.5342468660174, -4484.452841812711, -3775.9695978128434, -10899.448203974749, -15397.37914769401, 0.01, -0.108, 0.99, 192.0, 0.0, 0.0, 0.0, 0.0, 0.0, 0.0, 0.0, 0.0, 0.0, 1.645920671775557E9, 0.0, 2022-02-27 11:11:11.775
12.0, -3475.606855822427, -6206.185365460559, -1803.6963705654587, -11062.124200120474, -1251.7647447305615, 246.74090704213467, -5287.081633458332, -2087.0717867698418, -2235.7108873976335, -7404.238868265018, -4498.445033841734, -2955.0794309472362, -4586.577962229009, -3659.3828987339616, -10158.554930514685, -13712.504650652963, 0.01, -0.108, 0.99, 192.0, 0.0, 0.0, 0.0, 0.0, 0.0, 0.0, 0.0, 0.0, 0.0, 1.645920671782958E9, 0.0, 2022-02-27 11:11:11.782
14.0, -3049.001461148436, -5888.6117802395565, -1566.1643822389105, -10815.562107033982, -906.4302928960673, 517.3534771625373, -5292.1778311941425, -2154.797572469422, -4987.836478690681, -8151.927072039494, -4491.538344805043, -3372.028872016534, -4480.69774874422, -3709.339047591573, -10811.225868609652, -14873.878940806264, 0.01, -0.108, 0.99, 192.0, 0.0, 0.0, 0.0, 0.0, 0.0, 0.0, 0.0, 0.0, 0.0, 1.645920671790822E9, 0.0, 2022-02-27 11:11:11.790
16.0, -3599.5472788271045, -6245.435028724079, -1870.5057347423715, -11162.528236213713, -1394.8829644778925, 161.87133334533374, -5314.9542587941005, -2170.8461249883326, -3879.1899537074514, -8160.174865743503, -4531.927947035783, -3048.1744466035902, -4564.293273007068, -3753.5060946352596, -10452.346259635242, -14601.7464520629, 0.01, -0.108, 0.99, 192.0, 0.0, 0.0, 0.0, 0.0, 0.0, 0.0, 0.0, 0.0, 0.0, 1.645920671798008E9, 0.0, 2022-02-27 11:11:11.798
18.0, -3109.6417438556846, -5961.456115419402, -1625.150635856466, -10866.05469775852, -977.6205989862203, 431.85805462098773, -5276.0398716974105, -2087.764690847956, -2963.215465928968, -7440.269880326972, -4464.135106102837, -3122.7175143620393, -4544.623737886398, -3664.702613914325, -10395.39401476312, -13918.855955464358, 0.01, -0.10400000000000001, 0.992, 192.0, 0.0, 40.0, 126.0, 96.0, 15.5, 0.0, 0.0, 0.0, 0.0, 1.645920671805651E9, 0.0, 2022-02-27 11:11:11.805
20.0, -3335.5061215765622, -6047.175055405504, -1742.206721568909, -11028.060141570586, -1202.590906928886, 317.9759166211983, -5332.38861946924, -2232.91691934072, -5784.989092944753, -8665.860732300369, -4521.310868419512, -3341.5410925794954, -4486.799774980518, -3791.682874164924, -10917.620172216913, -15413.941790335393, 0.01, -0.10400000000000001, 0.992, 192.0, 0.0, 0.0, 0.0, 0.0, 0.0, 0.0, 0.0, 0.0, 0.0, 1.645920671813548E9, 0.0, 2022-02-27 11:11:11.813
22.0, -3411.2114800466875, -6155.5810160137435, -1798.7119315519253, -11069.164999623896, -1266.874523982349, 230.26767137857337, -5313.948430293612, -2114.363266749772, -2218.3882854447706, -7402.473080453048, -4485.972760435672, -2929.509035290365, -4592.05413962056, -3672.3469105180397, -10176.25751212329, -13723.792281602893, 0.01, -0.10400000000000001, 0.992, 192.0, 0.0, 0.0, 0.0, 0.0, 0.0, 0.0, 0.0, 0.0, 0.0, 1.645920671820663E9, 0.0, 2022-02-27 11:11:11.820
24.0, -2976.1571259685907, -5817.86850903851, -1559.861190302514, -10814.46687155567, -908.7548743194193, 503.38363687797033, -5306.773520323458, -2158.932645193654, -4929.721943106883, -8119.181766412469, -4470.326539316958, -3347.486656604607, -4477.344987075923, -3732.6742688029135, -10819.071330913464, -14864.066524990383, 0.01, -0.10400000000000001, 0.992, 192.0, 0.0, 0.0, 0.0, 0.0, 0.0, 0.0, 0.0, 0.0, 0.0, 1.645920671829202E9, 0.0, 2022-02-27 11:11:11.829
26.0, -3529.474559959717, -6186.046443706327, -1862.9955486053884, -11165.053983337162, -1398.772168013116, 158.09388853238684, -5370.654805976726, -2187.4534711186257, -3911.9576110789317, -8163.169999500514, -4519.2321561851695, -3031.4776934954757, -4559.957034582739, -3768.1688389979413, -10473.200437212043, -14634.42470245656, 0.01, -0.10400000000000001, 0.992, 192.0, 0.0, 0.0, 0.0, 0.0, 0.0, 0.0, 0.0, 0.0, 0.0, 1.64592067183525E9, 0.0, 2022-02-27 11:11:11.835
28.0, -3051.7283739719837, -5891.383396552014, -1618.7133334533376, -10866.635843114358, -990.048168903371, 427.65592666339, -5285.628770068738, -2114.2068045385845, -2883.1291655456025, -7399.477946696037, -4440.68812616922, -3092.5203076029193, -4536.1971302267475, -3664.792020892146, -10390.946017616514, -13905.288446579987, 0.01, -0.106, 0.992, 192.0, 0.0, 40.0, 126.0, 88.0, 15.5, 0.0, 0.0, 0.0, 0.0, 1.645920671843166E9, 0.0, 2022-02-27 11:11:11.843
30.0, -3264.516981186507, -5969.614502145589, -1730.3602970075963, -11019.633533910936, -1193.7396161245842, 334.5609110070361, -5320.564546652383, -2227.8207216049104, -5777.054223663119, -8624.510005058051, -4508.838595013452, -3332.131008163811, -4482.977626678661, -3783.9044670944772, -10920.123567595909, -15419.172098537934, 0.01, -0.106, 0.992, 192.0, 0.0, 0.0, 0.0, 0.0, 0.0, 0.0, 0.0, 0.0, 0.0, 1.645920671851298E9, 0.0, 2022-02-27 11:11:11.851
32.0, -3375.582799384928, -6107.860041601663, -1806.982077000389, -11069.835551957554, -1278.2515619101002, 232.10051442390855, -5294.815337039869, -2088.479946670526, -2218.187119744673, -7378.176734230129, -4474.416908552278, -2917.14852060658, -4591.4953460091765, -3680.8852768999673, -10167.316814341166, -13739.550261443885, 0.01, -0.106, 0.992, 192.0, 0.0, 0.0, 0.0, 0.0, 0.0, 0.0, 0.0, 0.0, 0.0, 1.645920671857999E9, 0.0, 2022-02-27 11:11:11.857
34.0, -2923.0046776538707, -5781.993959187742, -1560.8893705474582, -10803.335702816928, -911.4370836540561, 511.6090788375234, -5293.831860283835, -2150.2378166005396, -4835.755209416772, -8077.406356025501, -4458.6589287112865, -3314.5401852774844, -4486.978588936161, -3717.9444692068664, -10799.75942370408, -14825.129786149238, 0.01, -0.106, 0.992, 192.0, 0.0, 0.0, 0.0, 0.0, 0.0, 0.0, 0.0, 0.0, 0.0, 1.645920671865837E9, 0.0, 2022-02-27 11:11:11.865
36.0, -3487.967370506212, -6144.516902508367, -1864.2248945504302, -11157.11911405553, -1407.735217539694, 165.06763280244266, -5333.573261925371, -2195.500099122536, -3951.967233653931, -8164.645214634564, -4503.407121110812, -3011.539937441342, -4556.47016244771, -3762.0668127616423, -10482.387004183174, -14667.035897616852, 0.01, -0.106, 0.992, 192.0, 0.0, 0.0, 0.0, 0.0, 0.0, 0.0, 0.0, 0.0, 0.0, 1.645920671873906E9, 0.0, 2022-02-27 11:11:11.873
38.0, -3019.631268934163, -5868.897541629975, -1620.5908799875833, -10865.898235547333, -997.178375384614, 432.34979299900453, -5293.876563772746, -2083.026121023431, -2829.864958508606, -7377.8414580633, -4431.389800475812, -3061.563141532319, -4543.841426830462, -3653.303224242118, -10382.474706467952, -13898.024129632013, 0.006, -0.10400000000000001, 0.986, 192.0, 0.0, 24.0, 126.0, 96.0, 15.0, 104.0, 0.0, 0.0, 0.0, 1.645920671887554E9, 0.0, 2022-02-27 11:11:11.887
40.0, -3210.5375183269407, -5927.07913244714, -1711.3836659650406, -10998.600542378492, -1191.1244620233133, 341.91463493283214, -5349.621814444282, -2238.482503710092, -5759.798676943622, -8611.389531062787, -4484.385786579345, -3300.011551381535, -4479.356644076901, -3770.5157721657483, -10930.025390389608, -15423.597743940085, 0.006, -0.10400000000000001, 0.986, 192.0, 0.0, 0.0, 0.0, 0.0, 0.0, 0.0, 0.0, 0.0, 0.0, 1.645920671895588E9, 0.0, 2022-02-27 11:11:11.895
42.0, -3343.038659458001, -6071.314939417236, -1795.1580041835314, -11067.019232156186, -1283.7500910461058, 215.42611306024946, -5334.556738681405, -2111.8151678818667, -2201.982105014575, -7385.530458155926, -4456.088478098926, -2877.47417419841, -4585.326264539512, -3674.112698330009, -10175.63166327854, -13756.224662807545, 0.006, -0.10400000000000001, 0.986, 192.0, 0.0, 0.0, 0.0, 0.0, 0.0, 0.0, 0.0, 0.0, 0.0, 1.645920671903656E9, 0.0, 2022-02-27 11:11:11.903
44.0, -2887.5548109477536, -5733.289508019628, -1549.6240913419833, -10794.484412012627, -912.2417464544471, 508.34572414704854, -5339.854102117312, -2185.732386795567, -4777.081880221592, -8033.395771193001, -4441.179864547237, -3295.5635542349287, -4479.714271988186, -3701.9629719213217, -10801.771080705057, -14815.630294755734, 0.006, -0.10400000000000001, 0.986, 192.0, 0.0, 0.0, 0.0, 0.0, 0.0, 0.0, 0.0, 0.0, 0.0, 1.645920671910406E9, 0.0, 2022-02-27 11:11:11.910
46.0, -3469.63894005286, -6121.44990223049, -1858.3463857586844, -11155.44273322138, -1404.4271593603087, 169.56033343795937, -5355.34386102484, -2198.4281776461817, -4094.549011534335, -8195.758842916352, -4498.780310008563, -3021.1511875571236, -4560.068793305015, -3732.7413240362794, -10526.308182037852, -14747.658639867144, 0.008, -0.10500000000000001, 0.988, 192.0, 0.0, 40.0, 126.0, 88.0, 15.0, 120.0, 0.0, 0.0, 0.0, 1.645920671918141E9, 0.0, 2022-02-27 11:11:11.918
48.0, -3026.8732341376826, -5857.58755893559, -1630.336240570097, -10876.001224041132, -1007.1025499227703, 414.6025079014907, -5300.0009417535, -2078.578123876825, -2737.418143441456, -7351.198178672574, -4438.721172657153, -3052.533036772375, -4556.671328147809, -3662.5568464466155, -10355.205578232477, -13854.54998666644, 0.008, -0.10500000000000001, 0.988, 192.0, 0.0, 0.0, 0.0, 0.0, 0.0, 0.0, 0.0, 0.0, 0.0, 1.64592067192619E9, 0.0, 2022-02-27 11:11:11.926
50.0, -3195.271276863966, -5913.712789262866, -1710.7131136313812, -10994.711338843268, -1167.073984989403, 341.24408259917294, -5316.988267539534, -2228.245404749561, -5762.61499674499, -8587.65197845125, -4490.219591882181, -3305.264211328532, -4474.998053908116, -3772.169801255441, -10930.807701445545, -15412.53363043471, 0.008, -0.10500000000000001, 0.988, 192.0, 0.0, 0.0, 0.0, 0.0, 0.0, 0.0, 0.0, 0.0, 0.0, 1.645920671933375E9, 0.0, 2022-02-27 11:11:11.933
52.0, -3365.0104242575676, -6090.515087904345, -1806.4679868779167, -11080.162057895906, -1291.7296638166504, 207.91592692326628, -5315.960087294589, -2103.7461881335007, -2241.1870647891838, -7414.5430224589145, -4470.93003641725, -2891.399310994066, -4586.175630828814, -3683.7463001902465, -10172.413012076977, -13764.181883833633, 0.008, -0.10500000000000001, 0.988, 192.0, 0.0, 0.0, 0.0, 0.0, 0.0, 0.0, 0.0, 0.0, 0.0, 1.64592067193968E9, 0.0, 2022-02-27 11:11:11.939
54.0, -2904.698598944974, -5754.993051885731, -1550.696975075838, -10805.503822029093, -901.7364265604529, 513.3972183939479, -5300.425624898151, -2143.956976408598, -4736.647574501941, -8019.403579163979, -4460.134143845337, -3305.6665427287276, -4483.961103434694, -3703.237021355274, -10785.767231675058, -14776.023003580929, 0.008, -0.10500000000000001, 0.988, 192.0, 0.0, 0.0, 0.0, 0.0, 0.0, 0.0, 0.0, 0.0, 0.0, 1.645920671947858E9, 0.0, 2022-02-27 11:11:11.947
56.0, -3483.675835570793, -6133.542195980811, -1855.2394932793968, -11163.914044369942, -1392.6924935212724, 154.00351929706565, -5325.906613577201, -2193.287276421461, -4137.419657399614, -8227.073636898236, -4516.75111255063, -3040.17252208859, -4555.151409524848, -3754.2884056911953, -10521.211984302043, -14747.34571544477, 0.011, -0.10650000000000001, 0.99, 192.0, 0.0, 56.0, 126.0, 80.0, 15.5, 0.0, 0.0, 0.0, 0.0, 1.645920671955844E9, 0.0, 2022-02-27 11:11:11.955
58.0, -3047.012155891914, -5879.939303390897, -1631.4761795373179, -10889.859305603422, -995.1890701280917, 404.141891496407, -5288.422738125651, -2083.9872460350093, -2725.8846433025174, -7356.048507219375, -4450.0311553515385, -3057.6068827637296, -4547.373002454401, -3648.9893375622437, -10351.115208997157, -13847.151559251733, 0.011, -0.10650000000000001, 0.99, 192.0, 0.0, 0.0, 0.0, 0.0, 0.0, 0.0, 0.0, 0.0, 0.0, 1.645920671962901E9, 0.0, 2022-02-27 11:11:11.962
60.0, -3209.486986337541, -5926.520338835757, -1711.853052598602, -11004.27788547014, -1155.853409272839, 346.72025999072315, -5328.879395589757, -2211.727465597089, -5789.884124980465, -8610.674275240217, -4515.27589741658, -3330.94636570768, -4482.709405745198, -3763.810248829156, -10932.797006702067, -15406.833935598605, 0.011, -0.10650000000000001, 0.99, 192.0, 0.0, 0.0, 0.0, 0.0, 0.0, 0.0, 0.0, 0.0, 0.0, 1.645920671970404E9, 0.0, 2022-02-27 11:11:11.970
62.0, -3370.2183807156543, -6084.524820390323, -1805.3056961662408, -11091.516744079203, -1272.7530327740947, 210.7769502135456, -5309.1428052357205, -2103.4556154555817, -2255.983919618597, -7418.879260883244, -4489.258466870602, -2891.2652005273344, -4590.042482619582, -3669.530590716671, -10171.027203920747, -13763.86895941126, 0.011, -0.10650000000000001, 0.99, 192.0, 0.0, 0.0, 0.0, 0.0, 0.0, 0.0, 0.0, 0.0, 0.0, 1.645920671978484E9, 0.0, 2022-02-27 11:11:11.978
64.0, -2906.889069901594, -5750.656813461401, -1548.1265244634778, -10811.38233082084, -884.860859496696, 513.7101428163222, -5307.95816277959, -2150.4613340450924, -4706.204498553812, -8015.290858184202, -4464.716251458675, -3299.363350792331, -4483.469365056678, -3695.1009863735426, -10776.155981559275, -14758.432180694603, 0.011, -0.10650000000000001, 0.99, 192.0, 0.0, 0.0, 0.0, 0.0, 0.0, 0.0, 0.0, 0.0, 0.0, 1.645920671986407E9, 0.0, 2022-02-27 11:11:11.986
66.0, -3482.468841370206, -6121.785178397319, -1857.4970194693828, -11167.40091650497, -1382.7012637497503, 159.41264145524997, -5338.758866639003, -2209.380532429282, -4158.720869865521, -8234.896747457595, -4524.529519621077, -3041.692440711551, -4555.106706035937, -3751.561492867648, -10530.555013484362, -14756.867558582731, 0.0115, -0.10825000000000001, 0.991, 192.0, 0.0, 48.0, 126.0, 72.0, 15.5, 0.0, 0.0, 0.0, 0.0, 1.645920671992981E9, 0.0, 2022-02-27 11:11:11.992
68.0, -3064.535923544875, -5885.147259848984, -1643.0543831651669, -10895.290779506062, -1005.2473551329798, 402.44315891780366, -5308.159328479687, -2074.420699408138, -2725.951698535883, -7359.825952032323, -4455.484980998634, -3063.4183363221096, -4553.251511246146, -3645.8153898495902, -10356.43492417752, -13842.569451638396, 0.0115, -0.10825000000000001, 0.991, 192.0, 0.0, 0.0, 0.0, 0.0, 0.0, 0.0, 0.0, 0.0, 0.0, 1.645920672001025E9, 0.0, 2022-02-27 11:11:12.001
70.0, -3208.0341229479463, -5914.003361940785, -1708.634401397038, -10994.733690587724, -1150.3548801368333, 366.68036778931236, -5366.877361163779, -2243.9139776127313, -5825.848081809054, -8615.74812123157, -4519.1203974628925, -3341.004650712568, -4492.857097727907, -3763.117344751042, -10952.131265655908, -15417.67453165943, 0.0115, -0.10825000000000001, 0.991, 192.0, 0.0, 0.0, 0.0, 0.0, 0.0, 0.0, 0.0, 0.0, 0.0, 1.645920672015205E9, 0.0, 2022-02-27 11:11:12.015
72.0, -3392.3913112153186, -6094.583105395211, -1816.0121817603329, -11098.870468004998, -1303.2631639555889, 206.9324501672328, -5337.596575927327, -2138.6819647171455, -2307.3929318658033, -7446.818941452378, -4488.722025003675, -2894.2379825398903, -4605.19696536028, -3668.1000790715316, -10193.40130012051, -13805.644369798229, 0.0115, -0.10825000000000001, 0.991, 192.0, 0.0, 0.0, 0.0, 0.0, 0.0, 0.0, 0.0, 0.0, 0.0, 1.645920672022705E9, 0.0, 2022-02-27 11:11:12.022
74.0, -2922.7141049759516, -5756.512970508692, -1555.9049315339246, -10815.38329307834, -898.8083480368076, 510.5585468481239, -5302.727854577048, -2152.249473601517, -4656.427163651844, -7997.409462619957, -4472.472306784667, -3305.6665427287276, -4505.9105164898065, -3693.715178217313, -10777.407679248772, -14738.092093240273, 0.0115, -0.10825000000000001, 0.991, 192.0, 0.0, 0.0, 0.0, 0.0, 0.0, 0.0, 0.0, 0.0, 0.0, 1.6459206720306E9, 0.0, 2022-02-27 11:11:12.030
76.0, -3497.019827010611, -6128.825977900741, -1859.0839933257096, -11172.631224707511, -1401.4543773477528, 172.84603987288952, -5346.671384176181, -2196.572982856391, -4228.659478266177, -8257.673175057553, -4530.363324923912, -3060.758478731928, -4576.609084201942, -3755.0260132582207, -10550.604528260772, -14787.422393253137, 0.01075, -0.107125, 0.9904999999999999, 192.0, 0.0, 40.0, 126.0, 88.0, 15.0, 120.0, 0.0, 0.0, 0.0, 1.645920672039923E9, 0.0, 2022-02-27 11:11:12.039
78.0, -3073.074289926802, -5882.710919703355, -1640.9756709308233, -10899.15763129683, -1018.5019395949769, 409.39455144340417, -5300.9844185095335, -2094.9396008181097, -2714.0158669967495, -7361.122353210731, -4459.687108956231, -3065.4523450675424, -4573.882171378395, -3650.1292765294647, -10358.625395134139, -13842.50239640503, 0.01075, -0.107125, 0.9904999999999999, 192.0, 0.0, 0.0, 0.0, 0.0, 0.0, 0.0, 0.0, 0.0, 0.0, 1.645920672045328E9, 0.0, 2022-02-27 11:11:12.045
80.0, -3203.362608356787, -5907.521356048746, -1701.4818431713395, -10996.521830144147, -1145.102220189836, 365.4733735887258, -5344.637375430748, -2243.8469223793654, -5826.831558565087, -8618.720903244126, -4518.9415835072505, -3336.6013570548726, -4504.2117839112025, -3759.4516586603713, -10955.796951746577, -15425.855270130072, 0.01075, -0.107125, 0.9904999999999999, 192.0, 0.0, 0.0, 0.0, 0.0, 0.0, 0.0, 0.0, 0.0, 0.0, 1.645920672053259E9, 0.0, 2022-02-27 11:11:12.053
82.0, -3389.485584436129, -6090.023349526328, -1815.5651468712267, -11105.084252963574, -1284.0853672129354, 217.7283427391461, -5315.870680316768, -2128.0425343564193, -2302.050864940985, -7453.837389211344, -4497.2827431300575, -2892.092215072181, -4614.2717736091345, -3667.5859889490594, -10186.338148872632, -13808.01365471049, 0.01075, -0.107125, 0.9904999999999999, 192.0, 0.0, 0.0, 0.0, 0.0, 0.0, 0.0, 0.0, 0.0, 0.0, 1.645920672061347E9, 0.0, 2022-02-27 11:11:12.061
84.0, -2916.5897269951975, -5744.577138969557, -1556.3296146785754, -10820.010104180588, -878.1329844156486, 526.7412098337662, -5317.48000591755, -2151.0648311453856, -4629.314497627556, -7988.357006115557, -4473.947521918717, -3302.6043537383503, -4510.805548525518, -3683.1651548344084, -10766.410620976761, -14727.787939046377, 0.01075, -0.107125, 0.9904999999999999, 192.0, 0.0, 0.0, 0.0, 0.0, 0.0, 0.0, 0.0, 0.0, 0.0, 1.645920672068423E9, 0.0, 2022-02-27 11:11:12.068
86.0, -3489.1296612178876, -6119.929983607529, -1859.396917748084, -11170.641919450989, -1384.8246794730044, 180.80326089897883, -5352.616948201293, -2213.023866775497, -4317.32884852038, -8289.92674230656, -4532.1514644803365, -3073.0295864378913, -4578.799555158563, -3765.5760366411255, -10570.922263970646, -14839.479606089546, 0.011375, -0.1045625, 0.99225, 192.0, 0.0, 48.0, 126.0, 104.0, 15.5, 8.0, 0.0, 0.0, 0.0, 1.645920672075066E9, 0.0, 2022-02-27 11:11:12.075
88.0, -3089.078138956802, -5898.804175711176, -1648.7987814901808, -10912.143994825363, -1007.0354946894043, 406.7570455976779, -5299.397444653207, -2092.994999050498, -2633.9966218467503, -7347.487789092993, -4462.682242713242, -3048.956757659526, -4581.705281937752, -3654.4431632093388, -10333.591441344195, -13810.338236133843, 0.011375, -0.1045625, 0.99225, 192.0, 0.0, 0.0, 0.0, 0.0, 0.0, 0.0, 0.0, 0.0, 0.0, 1.645920672082982E9, 0.0, 2022-02-27 11:11:12.082
90.0, -3176.6075702437843, -5888.12004186154, -1690.9318197884345, -10981.993196248199, -1117.8554436988168, 385.61229534295745, -5343.609195185804, -2234.6827071526895, -5806.916154255409, -8601.063025124435, -4511.140824692348, -3343.8209705139366, -4495.807527996008, -3758.334071437606, -10954.612309290447, -15410.56667692264, 0.011375, -0.1045625, 0.99225, 192.0, 0.0, 0.0, 0.0, 0.0, 0.0, 0.0, 0.0, 0.0, 0.0, 1.645920672090773E9, 0.0, 2022-02-27 11:11:12.090
92.0, -3413.156081814299, -6106.608343912166, -1828.8420830776793, -11111.521555366702, -1294.6577423402957, 216.1637206272746, -5330.309907234897, -2125.13680757723, -2339.758257837088, -7484.973369237587, -4493.907629717306, -2890.996979593871, -4613.064779408548, -3670.894047128445, -10196.083509455146, -13831.035951499458, 0.011375, -0.1045625, 0.99225, 192.0, 0.0, 0.0, 0.0, 0.0, 0.0, 0.0, 0.0, 0.0, 0.0, 1.645920672098288E9, 0.0, 2022-02-27 11:11:12.098
94.0, -2921.3282968197223, -5754.5460169966245, -1557.8495333015364, -10812.790490721523, -870.8910192121291, 524.4836836437802, -5313.434340171139, -2133.7422291925227, -4534.565452881509, -7960.216159846325, -4473.992225407627, -3291.4508332551522, -4516.75111255063, -3688.306056059129, -10751.323193469429, -14674.300214564826, 0.011375, -0.1045625, 0.99225, 192.0, 0.0, 0.0, 0.0, 0.0, 0.0, 0.0, 0.0, 0.0, 0.0, 1.64592067210561E9, 0.0, 2022-02-27 11:11:12.105
96.0, -3490.2696001851086, -6112.084521303716, -1860.0004148483772, -11161.29889026867, -1368.12792636489, 189.8780691478335, -5370.990082143555, -2193.6896078216564, -4337.937156908173, -8301.437890701043, -4530.698601090741, -3070.794411992361, -4576.340863268479, -3760.0998592495753, -10577.359566373774, -14842.31827763537, 0.0116875, -0.10328125, 0.993125, 192.0, 0.0, 48.0, 126.0, 104.0, 15.5, 8.0, 0.0, 0.0, 0.0, 1.645920672113533E9, 0.0, 2022-02-27 11:11:12.113
98.0, -3092.5203076029193, -5891.472803529836, -1651.9280257139237, -10906.243134289161, -1017.2502419054797, 401.884365306421, -5301.453805143095, -2093.218516495051, -2619.0880082950603, -7341.385762856694, -4457.854265910896, -3044.441705279554, -4578.866610391929, -3641.8814828254563, -10339.000563502379, -13807.790137265938, 0.0116875, -0.10328125, 0.993125, 192.0, 0.0, 0.0, 0.0, 0.0, 0.0, 0.0, 0.0, 0.0, 0.0, 1.645920672120749E9, 0.0, 2022-02-27 11:11:12.120
100.0, -3174.7300237095387, -5882.532105747713, -1681.8123080506693, -10969.967957731242, -1105.494929015032, 391.8707837904434, -5341.15050329572, -2223.05980003593, -5818.896689283453, -8606.98623740509, -4511.386693881356, -3348.492485105096, -4506.357551378912, -3762.5809028841145, -10957.473332580726, -15415.372301980533, 0.0116875, -0.10328125, 0.993125, 192.0, 0.0, 0.0, 0.0, 0.0, 0.0, 0.0, 0.0, 0.0, 0.0, 1.645920672135916E9, 0.0, 2022-02-27 11:11:12.135
102.0, -3417.4923202386285, -6100.059282786761, -1820.0801992511988, -11109.085215221074, -1294.9483150182148, 210.59813625790315, -5323.738494365036, -2095.118414773752, -2384.6629124478, -7507.794500326455, -4489.4596325707, -2893.5227267173204, -4615.992857932193, -3682.5169542452045, -10195.323550143667, -13851.130169764778, 0.0116875, -0.10328125, 0.993125, 192.0, 0.0, 0.0, 0.0, 0.0, 0.0, 0.0, 0.0, 0.0, 0.0, 1.645920672143287E9, 0.0, 2022-02-27 11:11:12.143
104.0, -2920.277764830323, -5746.655851203901, -1551.0322512426676, -10799.357092303884, -867.9629406884839, 527.1882447228724, -5313.85902331579, -2129.2718803014614, -4463.777478191552, -7928.476682719789, -4461.229379323648, -3288.455699498141, -4519.969763752194, -3690.6082857380256, -10734.782902572502, -14635.922269335064, 0.0116875, -0.10328125, 0.993125, 192.0, 0.0, 0.0, 0.0, 0.0, 0.0, 0.0, 0.0, 0.0, 0.0, 1.645920672150443E9, 0.0, 2022-02-27 11:11:12.150
106.0, -3486.380396649885, -6108.709407890965, -1851.4396967219946, -11151.106494797052, -1360.3942227833538, 186.81588015745643, -5361.825866916879, -2201.691532336656, -4487.090347658437, -8345.761399955916, -4526.56352836651, -3087.334702889288, -4578.598389458464, -3759.228141215818, -10609.993113278522, -14903.89733360974, 0.01184375, -0.10164062500000001, 0.9915625, 192.0, 0.0, 48.0, 126.0, 112.0, 15.0, 120.0, 0.0, 0.0, 0.0, 1.645920672157909E9, 0.0, 2022-02-27 11:11:12.157
108.0, -3104.746711819972, -5900.346446078593, -1662.8133252636583, -10908.29949477905, -1027.0626577213595, 397.7269408377339, -5336.38958172674, -2085.1048332577748, -2538.5323212781336, -7326.857128960744, -4452.802771663996, -3026.180330059568, -4592.702340209763, -3643.3790497039618, -10314.637162046094, -13769.099267613801, 0.01184375, -0.10164062500000001, 0.9915625, 192.0, 0.0, 0.0, 0.0, 0.0, 0.0, 0.0, 0.0, 0.0, 0.0, 1.645920672165902E9, 0.0, 2022-02-27 11:11:12.165
110.0, -3149.7407734085054, -5864.538951461191, -1672.625741079538, -10953.874701723422, -1094.2296498095573, 396.7658158261557, -5375.192210101153, -2245.6797654247007, -5808.950163000842, -8580.387661503275, -4496.746301263131, -3347.3972496267857, -4506.290496145546, -3752.5002661347708, -10965.877588495921, -15397.245037227278, 0.01184375, -0.10164062500000001, 0.9915625, 192.0, 0.0, 0.0, 0.0, 0.0, 0.0, 0.0, 0.0, 0.0, 0.0, 1.645920672174016E9, 0.0, 2022-02-27 11:11:12.174
112.0, -3432.4679890236844, -6112.486852703912, -1831.9489755569668, -11117.847099047554, -1311.8015303375162, 197.38825528481667, -5345.017355086488, -2124.175682565651, -2445.0573259660396, -7537.075285562907, -4483.067033656483, -2893.723892417418, -4618.183328888814, -3686.987303136266, -10206.454718882409, -13895.565437741929, 0.01184375, -0.10164062500000001, 0.9915625, 192.0, 0.0, 0.0, 0.0, 0.0, 0.0, 0.0, 0.0, 0.0, 0.0, 1.645920672180562E9, 0.0, 2022-02-27 11:11:12.180
114.0, -2915.092160116692, -5748.712211693789, -1554.5861786110615, -10803.46981328366, -871.7180337569754, 520.7285905752886, -5352.505189479017, -2132.155255336196, -4405.551183885477, -7903.018045785195, -4456.4237542657565, -3284.097109329356, -4520.796778297041, -3696.39738755195, -10725.685742579191, -14607.759071321378, 0.01184375, -0.10164062500000001, 0.9915625, 192.0, 0.0, 0.0, 0.0, 0.0, 0.0, 0.0, 0.0, 0.0, 0.0, 1.64592067218756E9, 0.0, 2022-02-27 11:11:12.187
116.0, -3488.21323969522, -6107.234192756915, -1855.3065485127627, -11158.214349533839, -1358.583731482474, 182.81491789995647, -5357.713145937103, -2194.4272153886814, -4461.4752485126555, -8339.212338830512, -4515.946449750239, -3090.8215750243157, -4565.589674185476, -3761.17274298343, -10600.650084096203, -14893.302606737925, 0.012, -0.10400000000000001, 0.992, 192.0, 0.0, 48.0, 126.0, 96.0, 15.5, 0.0, 0.0, 0.0, 0.0, 1.645920672195726E9, 0.0, 2022-02-27 11:11:12.195
118.0, -3109.261764199944, -5900.927591434431, -1665.696700298393, -10915.519108238115, -1023.2628611639574, 389.143870966896, -5298.525726619449, -2071.0455859953863, -2558.8277052435524, -7325.158396382141, -4447.818332650463, -3043.7040977125284, -4581.973502871216, -3644.4072299489058, -10312.46904283393, -13774.486038027531, 0.012, -0.10400000000000001, 0.992, 192.0, 0.0, 0.0, 0.0, 0.0, 0.0, 0.0, 0.0, 0.0, 0.0, 1.645920672203676E9, 0.0, 2022-02-27 11:11:12.203
120.0, -3161.7436601810055, -5862.840218882588, -1681.0523487391888, -10962.211902405252, -1084.6631031826857, 390.4849756342144, -5354.941529624645, -2210.3193056964046, -5823.545852130157, -8578.264245780021, -4492.678283772264, -3359.668357332749, -4497.238039641147, -3752.8355423016005, -10959.59674830398, -15397.222685482824, 0.012, -0.10400000000000001, 0.992, 192.0, 0.0, 0.0, 0.0, 0.0, 0.0, 0.0, 0.0, 0.0, 0.0, 1.645920672210346E9, 0.0, 2022-02-27 11:11:12.210
122.0, -3427.1482738433215, -6104.2167072554485, -1832.5077691683496, -11116.327180424594, -1294.613038851385, 197.5447174960038, -5336.6130991712935, -2102.5615456773694, -2414.614250017911, -7520.020904543509, -4482.284722600547, -2900.541174476287, -4612.282468352612, -3671.4751924842826, -10200.06211996819, -13864.429457715685, 0.012, -0.10400000000000001, 0.992, 192.0, 0.0, 0.0, 0.0, 0.0, 0.0, 0.0, 0.0, 0.0, 0.0, 1.645920672218196E9, 0.0, 2022-02-27 11:11:12.218
124.0, -2915.2262705834237, -5746.834665159544, -1555.1673239668994, -10803.738034217124, -860.184533618037, 520.6168318530121, -5307.421720912662, -2118.6548016851907, -4413.351942700379, -7910.572935411088, -4456.446106010211, -3291.3390745328757, -4512.70544680422, -3675.1632303194083, -10722.869422777823, -14605.300379431294, 0.012, -0.10400000000000001, 0.992, 192.0, 0.0, 0.0, 0.0, 0.0, 0.0, 0.0, 0.0, 0.0, 0.0, 1.645920672226276E9, 0.0, 2022-02-27 11:11:12.226
126.0, -3485.3969198938516, -6102.070939787739, -1855.84299037969, -11154.25809076525, -1345.6644231873065, 184.71481617865757, -5343.117456807788, -2190.605067086824, -4567.981310842194, -8372.225865391001, -4521.914365519806, -3117.040171270391, -4558.481819448688, -3766.358347697061, -10619.693770372125, -14938.76605496002, 0.01, -0.108, 0.98, 192.0, 0.0, 40.0, 126.0, 80.0, 15.0, 80.0, 0.0, 0.0, 0.0, 1.645920672232928E9, 0.0, 2022-02-27 11:11:12.232
128.0, -3129.624203398729, -5914.5621555521675, -1677.341959159608, -10925.487986265181, -1030.4377711341108, 377.9456469947871, -5309.500433147005, -2069.5703708613364, -2511.1961378092933, -7327.237108616485, -4449.0923820844155, -3032.394115018143, -4575.692662679275, -3648.274081739674, -10297.828650215704, -13754.257709295478, 0.01, -0.108, 0.98, 192.0, 0.0, 0.0, 0.0, 0.0, 0.0, 0.0, 0.0, 0.0, 0.0, 1.64592067224098E9, 0.0, 2022-02-27 11:11:12.240
130.0, -3142.6329186717176, -5857.766372891232, -1673.788031791214, -10949.516111554636, -1065.7311756290408, 397.7939960710998, -5354.91917788019, -2211.638058619268, -5806.62558157749, -8570.396431731753, -4490.3537023489125, -3367.782040570026, -4482.1953156227255, -3753.8413708020894, -10960.915501226844, -15390.897141801972, 0.01, -0.108, 0.98, 192.0, 0.0, 0.0, 0.0, 0.0, 0.0, 0.0, 0.0, 0.0, 0.0, 1.645920672248918E9, 0.0, 2022-02-27 11:11:12.248
132.0, -3441.7886664615476, -6106.898916590085, -1845.8294088637126, -11120.238735704272, -1312.9861727936475, 186.12297607934192, -5344.726782408569, -2092.4585571835705, -2488.1514892758714, -7569.753535956566, -4482.821164467474, -2912.924040904527, -4594.713997210741, -3679.700634443836, -10207.97463750537, -13909.155298370755, 0.01, -0.108, 0.98, 192.0, 0.0, 0.0, 0.0, 0.0, 0.0, 0.0, 0.0, 0.0, 0.0, 1.645920672262521E9, 0.0, 2022-02-27 11:11:12.262
134.0, -2912.633468226608, -5735.524682465159, -1559.1235827354888, -10798.395967292307, -862.2855975968358, 511.2067474373278, -5321.7044856196035, -2115.1679295501626, -4304.118967547294, -7869.736298291243, -4450.612300707377, -3277.816269137415, -4504.927039733772, -3667.3848232489618, -10698.103689921343, -14551.611489249646, 0.01, -0.108, 0.98, 192.0, 0.0, 0.0, 0.0, 0.0, 0.0, 0.0, 0.0, 0.0, 0.0, 1.645920672270337E9, 0.0, 2022-02-27 11:11:12.270
136.0, -3457.680756769271, -6075.070032485728, -1841.6272809061147, -11143.998640060263, -1340.83644638496, 184.02191210054303, -5360.9765006275775, -2196.86355553431, -4652.917939772361, -8402.646589594673, -4499.897897231329, -3119.5212149049303, -4538.007621527627, -3743.827789286112, -10640.369133993285, -14986.665843327743, 0.018000000000000002, -0.10400000000000001, 0.988, 192.0, 0.0, 72.0, 126.0, 96.0, 15.0, 112.0, 0.0, 0.0, 0.0, 1.645920672278506E9, 0.0, 2022-02-27 11:11:12.278
138.0, -3129.1995202540784, -5908.147204893495, -1674.0115492357672, -10923.699846708758, -1046.0169370194599, 376.8951150053877, -5317.412950684185, -2072.252580195973, -2438.0612299515283, -7304.818308927812, -4430.786303375519, -3017.9995915889253, -4562.482781706189, -3632.7396193432355, -10277.175638339, -13741.159587044667, 0.018000000000000002, -0.10400000000000001, 0.988, 192.0, 0.0, 0.0, 0.0, 0.0, 0.0, 0.0, 0.0, 0.0, 0.0, 1.645920672285518E9, 0.0, 2022-02-27 11:11:12.285
140.0, -3144.175189039134, -5858.615739180535, -1671.7093195568705, -10946.297460353073, -1082.2938182704233, 390.37321691193785, -5351.320547022885, -2187.05113971843, -5781.010482431708, -8564.249702006544, -4480.138955132837, -3367.469116147651, -4478.641388254331, -3739.759771795246, -10956.221634891228, -15368.791266535673, 0.018000000000000002, -0.10400000000000001, 0.988, 192.0, 0.0, 0.0, 0.0, 0.0, 0.0, 0.0, 0.0, 0.0, 0.0, 1.645920672293068E9, 0.0, 2022-02-27 11:11:12.293
142.0, -3438.8158844489917, -6099.701654875476, -1835.9275860700116, -11117.981209514286, -1322.6868298872507, 178.09869981988666, -5338.9600323391005, -2111.144615548207, -2486.631570652911, -7567.697175466678, -4480.787155722041, -2903.446901255477, -4599.631380990909, -3672.212800051308, -10206.767643304784, -13904.729652968605, 0.018000000000000002, -0.10400000000000001, 0.988, 192.0, 0.0, 0.0, 0.0, 0.0, 0.0, 0.0, 0.0, 0.0, 0.0, 1.645920672300437E9, 0.0, 2022-02-27 11:11:12.300
144.0, -2913.3710757936333, -5732.596603941513, -1549.3558704085196, -10799.647664981803, -863.3584813306906, 501.43903511035865, -5306.259430200986, -2119.3030022743947, -4280.426118424669, -7857.509894074189, -4446.007841349583, -3264.807553864426, -4507.072807201482, -3671.25167503973, -10697.321378865407, -14548.012858392342, 0.018000000000000002, -0.10400000000000001, 0.988, 192.0, 0.0, 0.0, 0.0, 0.0, 0.0, 0.0, 0.0, 0.0, 0.0, 1.645920672308414E9, 0.0, 2022-02-27 11:11:12.308
146.0, -3469.996567964145, -6082.759032578353, -1841.1131907836427, -11154.749829143266, -1353.8004581690382, 162.85481010136726, -5361.222369816586, -2204.641962604757, -4658.662338097374, -8402.892458783681, -4506.446958356733, -3118.269517215433, -4550.211674000225, -3757.4847051483043, -10640.302078759918, -14987.917541017241, 0.014, -0.106, 0.99, 192.0, 0.0, 56.0, 126.0, 88.0, 15.0, 120.0, 0.0, 0.0, 0.0, 1.645920672315384E9, 0.0, 2022-02-27 11:11:12.315
148.0, -3136.2850232464107, -5910.225917127838, -1673.2515899242867, -10940.776579472611, -1055.1811522461358, 337.15371336385175, -5320.184566996642, -2069.749184816979, -2462.268169196626, -7323.236146358985, -4436.173073789248, -3024.6827631810625, -4574.709185923241, -3640.696840369325, -10295.437013558987, -13750.524967971442, 0.014, -0.106, 0.99, 192.0, 0.0, 0.0, 0.0, 0.0, 0.0, 0.0, 0.0, 0.0, 0.0, 1.645920672323428E9, 0.0, 2022-02-27 11:11:12.323
150.0, -3132.887558089204, -5841.516654672224, -1661.9416072299014, -10953.584129045503, -1072.6825681546413, 384.3829493979156, -5363.859875662312, -2218.947079056153, -5802.468157108803, -8567.066021807912, -4487.962065692194, -3367.491467892107, -4489.057301170505, -3755.204827213863, -10970.325585642528, -15382.626996353507, 0.014, -0.106, 0.99, 192.0, 0.0, 0.0, 0.0, 0.0, 0.0, 0.0, 0.0, 0.0, 0.0, 1.645920672330104E9, 0.0, 2022-02-27 11:11:12.330
152.0, -3435.485474525151, -6092.169116994038, -1835.1005715251652, -11132.129863754495, -1315.4895681726418, 171.2590660165627, -5350.9405673671445, -2125.8520633997996, -2503.6412481833995, -7570.289977823494, -4475.065109141482, -2905.346799534178, -4603.811157204051, -3682.651064711936, -10222.570326634685, -13929.383627102809, 0.014, -0.106, 0.99, 192.0, 0.0, 0.0, 0.0, 0.0, 0.0, 0.0, 0.0, 0.0, 0.0, 1.64592067233821E9, 0.0, 2022-02-27 11:11:12.338
154.0, -2906.95612513496, -5728.729752150745, -1550.696975075838, -10806.621409251858, -861.5926935187214, 501.81901476609886, -5331.874529346768, -2124.2650895434726, -4224.524405541945, -7846.021097424162, -4437.2906610120135, -3266.103955042834, -4513.085426459959, -3665.3284627590733, -10694.505059064039, -14529.975000616909, 0.014, -0.106, 0.99, 192.0, 0.0, 0.0, 0.0, 0.0, 0.0, 0.0, 0.0, 0.0, 0.0, 1.645920672346019E9, 0.0, 2022-02-27 11:11:12.346
156.0, -3463.4028033498294, -6073.103078973661, -1844.6000629186706, -11154.392201231982, -1353.0404988575576, 164.33002523541754, -5365.335090796362, -2214.052047020441, -4723.929431906871, -8431.14506377519, -4506.22344091218, -3129.9594795655585, -4552.066868790015, -3767.36417619755, -10668.599387240338, -15028.620067670354, 0.014, -0.108, 0.992, 192.0, 0.0, 56.0, 126.0, 80.0, 15.5, 0.0, 0.0, 0.0, 0.0, 1.645920672353098E9, 0.0, 2022-02-27 11:11:12.353
158.0, -3139.6601366591617, -5908.996571182796, -1684.203944707387, -10941.424780061816, -1067.3181494853675, 339.09831513146344, -5325.6383926437375, -2072.9231325296323, -2430.014601947618, -7317.8270242008, -4440.263443024569, -3012.9704490864815, -4586.086223850993, -3640.361564202495, -10287.949179166459, -13744.91468011316, 0.014, -0.108, 0.992, 192.0, 0.0, 0.0, 0.0, 0.0, 0.0, 0.0, 0.0, 0.0, 0.0, 1.645920672360758E9, 0.0, 2022-02-27 11:11:12.360
160.0, -3116.2355084700002, -5824.886956797476, -1663.1038979415773, -10942.92234694032, -1073.330768743845, 380.20317318477316, -5365.49155300755, -2216.086055765874, -5777.054223663119, -8547.999983787535, -4484.609304023898, -3365.457459146674, -4491.136013404848, -3764.0337662737093, -10970.906730998366, -15373.842760782572, 0.014, -0.108, 0.992, 192.0, 0.0, 0.0, 0.0, 0.0, 0.0, 0.0, 0.0, 0.0, 0.0, 1.645920672368639E9, 0.0, 2022-02-27 11:11:12.368
162.0, -3441.095762383433, -6092.973779794429, -1852.2890630112963, -11134.990887044774, -1345.4409057427533, 153.28826347449584, -5364.664538462704, -2141.5876914963355, -2530.26217582967, -7587.657283265267, -4478.1496498763145, -2899.088311086692, -4608.996761917682, -3697.5149747747155, -10230.102864516124, -13956.071609982446, 0.014, -0.108, 0.992, 192.0, 0.0, 0.0, 0.0, 0.0, 0.0, 0.0, 0.0, 0.0, 0.0, 1.645920672382287E9, 0.0, 2022-02-27 11:11:12.382
164.0, -2924.502244532376, -5750.343889039027, -1568.2654462177095, -10813.438691310726, -897.2660776693914, 486.105738414018, -5342.268090518486, -2139.3301653063495, -4178.815088130843, -7835.448722296802, -4449.964100118173, -3270.7978213784486, -4525.602403354932, -3696.1291666184866, -10693.007492185532, -14518.374445244604, 0.014, -0.108, 0.992, 192.0, 0.0, 0.0, 0.0, 0.0, 0.0, 0.0, 0.0, 0.0, 0.0, 1.645920672390375E9, 0.0, 2022-02-27 11:11:12.390
166.0, -3473.572847076994, -6087.162326236049, -1861.5426852157934, -11159.019012334229, -1384.3329410949875, 158.76444086604607, -5392.380701587284, -2237.141399042773, -4784.301493680656, -8456.044907098401, -4524.5742231099875, -3153.786439154916, -4567.1319445528925, -3801.0035516027874, -10693.231009630086, -15062.08062911995, 0.018000000000000002, -0.108, 0.996, 192.0, 0.0, 72.0, 126.0, 80.0, 15.5, 16.0, 0.0, 0.0, 0.0, 1.64592067239829E9, 0.0, 2022-02-27 11:11:12.398
168.0, -3157.34036652331, -5925.134530679528, -1706.5109856737836, -10956.087524424496, -1097.0906730998365, 325.6872684582792, -5337.0824858048545, -2104.1261677892408, -2410.1215493823947, -7314.8765939326995, -4455.462629254178, -3018.1337020556575, -4598.044407134582, -3666.8036778931237, -10298.56625778273, -13748.893290626203, 0.018000000000000002, -0.108, 0.996, 192.0, 0.0, 0.0, 0.0, 0.0, 0.0, 0.0, 0.0, 0.0, 0.0, 1.645920672405417E9, 0.0, 2022-02-27 11:11:12.405
170.0, -3112.8603950572488, -5835.302869713649, -1674.3691771470521, -10946.878605708911, -1079.5445537024204, 385.34407440949377, -5368.084355364365, -2223.417427947215, -5773.634406761456, -8548.02233553199, -4497.327446618968, -3384.6352558893273, -4504.524708333577, -3769.0629087761536, -10983.490763126703, -15375.250920683256, 0.018000000000000002, -0.108, 0.996, 192.0, 0.0, 0.0, 0.0, 0.0, 0.0, 0.0, 0.0, 0.0, 0.0, 1.645920672412941E9, 0.0, 2022-02-27 11:11:12.412
172.0, -3445.7896287190474, -6103.501451432879, -1862.1908858049974, -11148.804265118155, -1362.964673395714, 155.81401059794553, -5366.407974530217, -2141.699450218612, -2608.5379849121555, -7640.563862390979, -4489.83961222644, -2920.2554130858675, -4620.217337634246, -3717.1621581509303, -10251.448780470942, -14004.194915794722, 0.018000000000000002, -0.108, 0.996, 192.0, 0.0, 0.0, 0.0, 0.0, 0.0, 0.0, 0.0, 0.0, 0.0, 1.64592067242097E9, 0.0, 2022-02-27 11:11:12.420
174.0, -2903.1339768331027, -5734.764723153678, -1573.02636778669, -10813.684560499736, -900.6635428265981, 488.5867820485571, -5339.809398628402, -2141.4982845185145, -4093.699645245033, -7803.239858536704, -4449.360603017879, -3258.5267136724847, -4527.077618488982, -3692.083500872076, -10681.898675191245, -14481.918750038, 0.018000000000000002, -0.108, 0.996, 192.0, 0.0, 0.0, 0.0, 0.0, 0.0, 0.0, 0.0, 0.0, 0.0, 1.645920672428953E9, 0.0, 2022-02-27 11:11:12.428
176.0, -3441.2298728501646, -6064.095325958172, -1852.2443595223856, -11154.168683787428, -1378.32032183651, 176.1988015411856, -5380.646035748248, -2224.7138291256224, -4850.842636924104, -8466.594930481308, -4520.662667830309, -3163.8000206708934, -4560.716993894219, -3784.954999083877, -10709.726597038103, -15089.394460844334, 0.014, -0.11, 0.99, 192.0, 0.0, 56.0, 126.0, 72.0, 15.0, 120.0, 0.0, 0.0, 0.0, 1.645920672435087E9, 0.0, 2022-02-27 11:11:12.435
178.0, -3144.085782061313, -5918.920745720952, -1701.4147879379736, -10965.564664073547, -1111.3063825734118, 327.3636492924272, -5338.356535238807, -2093.0173507949535, -2361.1041737919063, -7305.868840917211, -4448.846512895407, -3007.896603095127, -4596.882116422906, -3665.730794159269, -10280.193123840467, -13728.441444449598, 0.014, -0.11, 0.99, 192.0, 0.0, 0.0, 0.0, 0.0, 0.0, 0.0, 0.0, 0.0, 0.0, 1.645920672443092E9, 0.0, 2022-02-27 11:11:12.443
180.0, -3077.7011010290507, -5810.268915923705, -1658.857066495069, -10941.603594017459, -1076.2141437785797, 400.1856327278177, -5367.145582097242, -2223.529186669491, -5725.131121293441, -8517.087521205845, -4476.0932893864265, -3374.331101695431, -4496.120452418381, -3761.686833105902, -10974.617120577946, -15352.027458194192, 0.014, -0.11, 0.99, 192.0, 0.0, 0.0, 0.0, 0.0, 0.0, 0.0, 0.0, 0.0, 0.0, 1.645920672450559E9, 0.0, 2022-02-27 11:11:12.450
182.0, -3431.931547156757, -6084.189544223493, -1860.2686357818409, -11144.624488905012, -1369.4913827766638, 155.45638268666062, -5357.601387214826, -2145.90157817621, -2600.781929586164, -7625.252917439094, -4478.194353365226, -2907.045532112781, -4612.260116608157, -3687.9931316367547, -10242.306916988722, -13998.003482580601, 0.014, -0.11, 0.99, 192.0, 0.0, 0.0, 0.0, 0.0, 0.0, 0.0, 0.0, 0.0, 0.0, 1.64592067245857E9, 0.0, 2022-02-27 11:11:12.458
184.0, -2897.546040719276, -5724.2594032596835, -1570.6570828744273, -10813.751615733101, -901.1552812046149, 494.48764258475813, -5333.081523547355, -2127.1708163226626, -4061.2225605514723, -7777.557704157556, -4440.084629068927, -3243.8863210542586, -4526.94350802225, -3679.0077303657213, -10666.67713721718, -14461.176331183475, 0.013000000000000001, -0.109, 0.991, 192.0, 0.0, 48.0, 126.0, 80.0, 15.5, 0.0, 0.0, 0.0, 0.0, 1.645920672465295E9, 0.0, 2022-02-27 11:11:12.465
186.0, -3433.876148924369, -6046.929186216496, -1851.7973246332795, -11150.659459907945, -1372.8217927005044, 179.61861844284755, -5378.656730491725, -2219.148244756251, -4888.170050164467, -8462.705726946084, -4510.470272358689, -3154.501694977486, -4556.671328147809, -3782.65276940498, -10712.45350986165, -15103.833687762462, 0.013000000000000001, -0.109, 0.991, 192.0, 0.0, 0.0, 0.0, 0.0, 0.0, 0.0, 0.0, 0.0, 0.0, 1.645920672473226E9, 0.0, 2022-02-27 11:11:12.473
188.0, -3135.7485813794833, -5891.159879107461, -1707.9414973189232, -10959.574396559525, -1103.9079551587051, 328.90591965984345, -5336.590747426838, -2089.7763478489337, -2338.059525258485, -7282.131288305675, -4443.3926872483125, -2997.0113035453924, -4586.734424440197, -3657.7512213887244, -10272.548827236751, -13719.299580967378, 0.013000000000000001, -0.109, 0.991, 192.0, 0.0, 0.0, 0.0, 0.0, 0.0, 0.0, 0.0, 0.0, 0.0, 1.645920672481273E9, 0.0, 2022-02-27 11:11:12.481
190.0, -3064.647682267151, -5795.33795062756, -1652.6879850254043, -10925.935021154288, -1054.912931312672, 409.1263305099405, -5369.783087942968, -2223.6409453917677, -5703.695798360801, -8488.343177836321, -4473.142859118326, -3359.7801160550257, -4483.581123778954, -3745.9288532649107, -10975.086507211508, -15342.729132500785, 0.013000000000000001, -0.109, 0.991, 192.0, 0.0, 0.0, 0.0, 0.0, 0.0, 0.0, 0.0, 0.0, 0.0, 1.64592067248793E9, 0.0, 2022-02-27 11:11:12.487
192.0, -3451.221102621687, -6101.623904898633, -1862.1014788271762, -11151.553529686158, -1367.3679670534095, 150.87427507332268, -5364.843352418346, -2141.9453194076204, -2692.1111574305487, -7682.361624522403, -4486.844478469429, -2917.7743694513288, -4605.889869438394, -3713.362361593528, -10265.329213777688, -14048.898404705335, 0.013000000000000001, -0.109, 0.991, 192.0, 0.0, 0.0, 0.0, 0.0, 0.0, 0.0, 0.0, 0.0, 0.0, 1.645920672495875E9, 0.0, 2022-02-27 11:11:12.495
194.0, -2917.9084799180605, -5747.460514004292, -1571.886428819469, -10820.121862902864, -903.9492492615283, 490.01729369369673, -5327.448883944618, -2123.549833720903, -3961.7349459809, -7751.920253267319, -4439.3470215019015, -3240.2429867080436, -4522.182586453269, -3681.332311789073, -10649.958032364611, -14413.23183932684, 0.013500000000000002, -0.1095, 0.9915, 192.0, 0.0, 56.0, 126.0, 72.0, 15.5, 0.0, 0.0, 0.0, 0.0, 1.645920672510805E9, 0.0, 2022-02-27 11:11:12.510
196.0, -3444.0685443959887, -6073.371299907124, -1844.6894698964918, -11150.681811652401, -1352.1464290793454, 196.31537155096194, -5375.505134523527, -2240.2706432665163, -4992.1280136261, -8513.377131626265, -4513.979496238172, -3192.4549570625973, -4547.373002454401, -3789.6265136750358, -10734.089998494388, -15146.771388861107, 0.013500000000000002, -0.1095, 0.9915, 192.0, 0.0, 0.0, 0.0, 0.0, 0.0, 0.0, 0.0, 0.0, 0.0, 1.645920672517583E9, 0.0, 2022-02-27 11:11:12.517
198.0, -3180.653235990195, -5948.849731546608, -1713.7976543662137, -10976.02528047863, -1108.4006557942218, 321.32867828949435, -5365.223332074086, -2132.4681797585704, -2299.8156904954544, -7306.517041506415, -4446.343117516412, -3001.8616320921938, -4585.795651173074, -3661.528666201671, -10257.93078636298, -13715.05274952087, 0.013500000000000002, -0.1095, 0.9915, 192.0, 0.0, 0.0, 0.0, 0.0, 0.0, 0.0, 0.0, 0.0, 0.0, 1.645920672525531E9, 0.0, 2022-02-27 11:11:12.525
200.0, -3097.102415216257, -5838.141541259473, -1658.0747554391332, -10937.379114315405, -1053.6165301342644, 410.62389738844604, -5361.356480283318, -2204.954887027131, -5687.066100486052, -8493.68524476114, -4483.1340888898485, -3386.6245611458494, -4487.626789525365, -3750.2203882003296, -10964.581187317513, -15319.572725245087, 0.013500000000000002, -0.1095, 0.9915, 192.0, 0.0, 0.0, 0.0, 0.0, 0.0, 0.0, 0.0, 0.0, 0.0, 1.645920672533546E9, 0.0, 2022-02-27 11:11:12.533
202.0, -3482.5582483480275, -6140.582995484233, -1874.1714208330418, -11162.572939702624, -1371.7936124555604, 150.0472605284763, -5317.882337317746, -2118.632449940735, -2689.3171893736353, -7684.887371645853, -4495.494603573633, -2934.62758477063, -4617.445721321788, -3713.004733682243, -10250.59941418164, -14033.185128353254, 0.013500000000000002, -0.1095, 0.9915, 192.0, 0.0, 0.0, 0.0, 0.0, 0.0, 0.0, 0.0, 0.0, 0.0, 1.645920672540802E9, 0.0, 2022-02-27 11:11:12.540
204.0, -2928.7043724899736, -5765.207799101806, -1573.5628096536173, -10818.803109980001, -896.9755049914725, 490.2855146271604, -5301.81143305438, -2112.5527754488917, -3962.3160913367383, -7755.585939357989, -4451.9087018857845, -3258.034975294468, -4538.2534907166355, -3688.1048903590313, -10637.306945002907, -14399.172592064453, 0.014750000000000001, -0.10975, 0.99175, 192.0, 0.0, 64.0, 126.0, 72.0, 15.5, 0.0, 0.0, 0.0, 0.0, 1.645920672548148E9, 0.0, 2022-02-27 11:11:12.548
206.0, -3446.6613467528045, -6072.790154551287, -1839.883844838601, -11149.787741874188, -1347.810190655016, 191.68856044871336, -5348.012488843499, -2217.605974388835, -4990.65279849205, -8505.822242000371, -4518.494548618144, -3188.8116227163823, -4545.89778732035, -3786.3855107290165, -10723.428216389206, -15140.46819692471, 0.014750000000000001, -0.10975, 0.99175, 192.0, 0.0, 0.0, 0.0, 0.0, 0.0, 0.0, 0.0, 0.0, 0.0, 1.645920672556097E9, 0.0, 2022-02-27 11:11:12.556
208.0, -3192.3879018292314, -5962.260778219793, -1715.4740352003616, -10980.070946225042, -1110.6358302397527, 328.8165126820222, -5307.175851723654, -2074.1301267302188, -2306.118882431851, -7299.63270421418, -4458.949501389206, -3011.539937441342, -4587.114404095937, -3650.2633869961965, -10241.457550699419, -13698.735976068494, 0.014750000000000001, -0.10975, 0.99175, 192.0, 0.0, 0.0, 0.0, 0.0, 0.0, 0.0, 0.0, 0.0, 0.0, 1.645920672563288E9, 0.0, 2022-02-27 11:11:12.563
210.0, -3080.18214466359, -5827.949145787853, -1646.0271651777227, -10924.437454275781, -1034.2599194359684, 431.4110197318816, -5339.6082329283045, -2205.178404471684, -5686.5743621080355, -8487.449108058108, -4489.884315715351, -3395.6323141613384, -4483.670530756775, -3741.078524718109, -10950.723105755224, -15309.02270186218, 0.014750000000000001, -0.10975, 0.99175, 192.0, 0.0, 0.0, 0.0, 0.0, 0.0, 0.0, 0.0, 0.0, 0.0, 1.645920672570316E9, 0.0, 2022-02-27 11:11:12.570
212.0, -3485.2404576826643, -6139.755980939386, -1865.9906823623994, -11158.01318383374, -1361.8247344284935, 161.64781590078067, -5340.345840495329, -2132.669345458668, -2741.3967539545006, -7703.640485243855, -4497.036873941049, -2940.595500540197, -4604.459357793255, -3701.4265300543943, -10253.862768872115, -14065.215178157709, 0.014750000000000001, -0.10975, 0.99175, 192.0, 0.0, 0.0, 0.0, 0.0, 0.0, 0.0, 0.0, 0.0, 0.0, 1.645920672577691E9, 0.0, 2022-02-27 11:11:12.577
214.0, -2941.6460325295966, -5774.349662584026, -1573.1381265089665, -10819.674828013758, -899.7024178150199, 511.2290991817831, -5313.85902331579, -2102.695656144101, -3910.102416289141, -7737.10104669345, -4457.608396721887, -3256.6268153937835, -4531.458560402222, -3693.402253794939, -10630.512014688495, -14382.140562789507, 0.012375, -0.108875, 0.990875, 192.0, 0.0, 40.0, 126.0, 80.0, 15.0, 120.0, 0.0, 0.0, 0.0, 1.645920672585845E9, 0.0, 2022-02-27 11:11:12.585
216.0, -3431.909195412302, -6054.841703753675, -1828.5068069108495, -11136.354343456549, -1332.7898183810496, 224.43386607573822, -5379.841372947857, -2228.960660572131, -5095.393073009619, -8531.370285912786, -4516.974629995183, -3205.4413205911305, -4534.073714503493, -3786.4749177068375, -10754.094809781887, -15190.156124848858, 0.012375, -0.108875, 0.990875, 192.0, 0.0, 0.0, 0.0, 0.0, 0.0, 0.0, 0.0, 0.0, 0.0, 1.645920672593957E9, 0.0, 2022-02-27 11:11:12.593
218.0, -3214.9631637290913, -5966.865237577586, -1719.430293968951, -10991.872667297444, -1119.6659349996967, 316.54540497605865, -5317.591764639827, -2081.12622274473, -2276.435765795203, -7296.548163479348, -4446.030193094039, -2993.636190132641, -4584.521601739121, -3652.6773753973694, -10242.083399544168, -13699.205362702056, 0.012375, -0.108875, 0.990875, 192.0, 0.0, 0.0, 0.0, 0.0, 0.0, 0.0, 0.0, 0.0, 0.0, 1.645920672600344E9, 0.0, 2022-02-27 11:11:12.600
220.0, -3058.9926909199585, -5803.00459897573, -1622.6248887330162, -10904.67851217729, -1004.1744713991251, 446.9007786394094, -5375.102803123332, -2217.4048086887374, -5654.097277414475, -8460.939939134114, -4476.987359164638, -3389.7761571140477, -4483.625827267865, -3753.8637225465445, -10949.203187132262, -15289.241408019234, 0.012375, -0.108875, 0.990875, 192.0, 0.0, 0.0, 0.0, 0.0, 0.0, 0.0, 0.0, 0.0, 0.0, 1.645920672608396E9, 0.0, 2022-02-27 11:11:12.608
222.0, -3492.057739741533, -6134.078637847739, -1860.201580548475, -11158.773143145221, -1365.2221995857, 167.83924911490072, -5311.132110492243, -2121.4934732310144, -2864.7560316033405, -7743.6277560744, -4482.0835569004485, -2928.503206789876, -4591.584752986998, -3706.5674312791148, -10279.500219762353, -14130.661085922848, 0.012375, -0.108875, 0.990875, 192.0, 0.0, 0.0, 0.0, 0.0, 0.0, 0.0, 0.0, 0.0, 0.0, 1.645920672616544E9, 0.0, 2022-02-27 11:11:12.616
224.0, -2954.63239605813, -5775.757822484711, -1569.0701090181005, -10823.18405189324, -891.5440310888328, 511.38556139297026, -5259.164304633654, -2069.168039461141, -3804.758644671279, -7695.102118861929, -4446.745448916608, -3233.8280360493704, -4524.842444043451, -3681.980512378277, -10585.987339733523, -14318.616905047526, 0.013187500000000001, -0.10743749999999999, 0.9914375, 192.0, 0.0, 56.0, 126.0, 88.0, 15.5, 0.0, 0.0, 0.0, 0.0, 1.645920672630052E9, 0.0, 2022-02-27 11:11:12.630
226.0, -3448.6953554982374, -6062.329538146203, -1830.652574378559, -11140.131788269495, -1328.5876904234517, 228.36777309987227, -5319.692828618626, -2180.1668024261958, -5114.7943871968255, -8535.103027236823, -4520.305039919024, -3207.7882537589376, -4536.286537204568, -3781.2222577598404, -10739.096789252377, -15170.173665305814, 0.013187500000000001, -0.10743749999999999, 0.9914375, 192.0, 0.0, 0.0, 0.0, 0.0, 0.0, 0.0, 0.0, 0.0, 0.0, 1.645920672638002E9, 0.0, 2022-02-27 11:11:12.638
228.0, -3224.172082444678, -5968.5639701561895, -1724.5711951936717, -10987.26820793965, -1128.9866124375596, 319.2946695440614, -5282.007787466978, -2048.1350479286966, -2277.1957251066838, -7295.3858727676725, -4452.0875158414265, -2990.4175389310767, -4582.934627882794, -3668.6141691940034, -10223.062065012702, -13681.61453981573, 0.013187500000000001, -0.10743749999999999, 0.9914375, 192.0, 0.0, 0.0, 0.0, 0.0, 0.0, 0.0, 0.0, 0.0, 0.0, 1.64592067264785E9, 0.0, 2022-02-27 11:11:12.647
230.0, -3079.556295818841, -5815.9462590153535, -1643.2779006097198, -10909.774709913101, -1021.9664599855495, 450.16413332988424, -5315.28953496093, -2172.8577819893103, -5656.332451860006, -8461.610491467773, -4487.090347658437, -3392.6371804043274, -4483.044681912027, -3749.795705055679, -10938.988439916187, -15270.734163610241, 0.013187500000000001, -0.10743749999999999, 0.9914375, 192.0, 0.0, 0.0, 0.0, 0.0, 0.0, 0.0, 0.0, 0.0, 0.0, 1.645920672652732E9, 0.0, 2022-02-27 11:11:12.652
232.0, -3493.2423821976645, -6131.239966301914, -1872.8526679101788, -11158.482570467302, -1370.1842868547783, 179.1268800648308, -5317.077674517354, -2111.770464392956, -2846.2264354498907, -7746.108799708939, -4493.706464017208, -2935.8122272267615, -4597.038578634093, -3724.02414369871, -10257.327289262688, -14104.30837921004, 0.013187500000000001, -0.10743749999999999, 0.9914375, 192.0, 0.0, 0.0, 0.0, 0.0, 0.0, 0.0, 0.0, 0.0, 0.0, 1.645920672660641E9, 0.0, 2022-02-27 11:11:12.660
234.0, -2947.435134343521, -5765.654833990912, -1578.4131382004189, -10822.088816414931, -891.2311066664585, 518.1134364740177, -5293.183659694631, -2086.4682896695485, -3823.6011652471025, -7705.518031778101, -4443.437390737223, -3233.202187204622, -4514.001847982628, -3687.210820580819, -10588.28956941242, -14324.920096983922, 0.013593750000000002, -0.10771875, 0.99171875, 192.0, 0.0, 56.0, 126.0, 80.0, 15.5, 0.0, 0.0, 0.0, 0.0, 1.645920672668721E9, 0.0, 2022-02-27 11:11:12.668
236.0, -3431.350401800919, -6046.839779238675, -1837.9615948154444, -11125.15611948444, -1325.972536322181, 235.05094469200907, -5343.653898674715, -2191.0297502314747, -5184.9341612975795, -8550.056344277424, -4516.862871272907, -3214.5161288399854, -4519.1203974628925, -3791.9734468428433, -10752.84311209239, -15205.332959334011, 0.013593750000000002, -0.10771875, 0.99171875, 192.0, 0.0, 0.0, 0.0, 0.0, 0.0, 0.0, 0.0, 0.0, 0.0, 1.645920672675884E9, 0.0, 2022-02-27 11:11:12.675
238.0, -3235.4150099056974, -5978.5999034166225, -1748.688727460948, -10991.917370786354, -1144.945757978649, 315.338410775472, -5312.562622137382, -2067.2457894379845, -2260.7224894431224, -7301.800823426345, -4457.3625275328795, -2980.694530093018, -4582.2193720602245, -3660.545189445638, -10218.569364377185, -13676.965376969025, 0.013593750000000002, -0.10771875, 0.99171875, 192.0, 0.0, 0.0, 0.0, 0.0, 0.0, 0.0, 0.0, 0.0, 0.0, 1.645920672682295E9, 0.0, 2022-02-27 11:11:12.682
240.0, -3061.2725688544, -5810.62654383499, -1644.7084122548597, -10892.183887026775, -1015.3279918823233, 447.34781352851553, -5339.25060501702, -2188.928686252676, -5613.461805994726, -8442.410342980666, -4482.396481322823, -3381.550715154495, -4476.003882408605, -3758.8705133045332, -10940.396599816871, -15249.477654633243, 0.013593750000000002, -0.10771875, 0.99171875, 192.0, 0.0, 0.0, 0.0, 0.0, 0.0, 0.0, 0.0, 0.0, 0.0, 1.645920672690369E9, 0.0, 2022-02-27 11:11:12.690
242.0, -3500.3949404233626, -6140.672402462054, -1889.2364965959189, -11155.822712877121, -1379.5273160370966, 159.68086238871365, -5336.478988704561, -2115.726723161545, -2938.472084816943, -7785.090242038995, -4500.3896356093455, -2937.980346438926, -4596.010398389149, -3732.3389926360837, -10287.055109388246, -14149.101275098477, 0.013593750000000002, -0.10771875, 0.99171875, 192.0, 0.0, 0.0, 0.0, 0.0, 0.0, 0.0, 0.0, 0.0, 0.0, 1.6459206726985E9, 0.0, 2022-02-27 11:11:12.698
244.0, -2954.3865268691216, -5783.715043510801, -1598.149728554455, -10818.937220446733, -902.0493509828271, 492.9677239617973, -5307.131148234743, -2081.796775078389, -3735.982326982299, -7677.846572142431, -4448.466533239667, -3220.394637631731, -4524.328353920979, -3675.274989041685, -10584.243903666009, -14278.987262128267, 0.013796875, -0.106859375, 0.992859375, 192.0, 0.0, 56.0, 126.0, 88.0, 15.5, 8.0, 0.0, 0.0, 0.0, 1.645920672705477E9, 0.0, 2022-02-27 11:11:12.705
246.0, -3433.674983224271, -6060.072011956217, -1848.198693775975, -11121.24456420476, -1328.2747660010775, 229.26184287808454, -5350.24766328903, -2190.247439175539, -5199.7310161269925, -8559.2205595041, -4519.455673629722, -3216.751303285516, -4524.663630087809, -3805.8315284051337, -10773.27260652454, -15205.578828523021, 0.013796875, -0.106859375, 0.992859375, 192.0, 0.0, 0.0, 0.0, 0.0, 0.0, 0.0, 0.0, 0.0, 0.0, 1.645920672712926E9, 0.0, 2022-02-27 11:11:12.712
