%OpenBCI Raw EEG Data
%Number of channels = 16
%Sample Rate = 125 Hz
%Board = OpenBCI_GUI$BoardCytonSerialDaisy
Sample Index, EXG Channel 0, EXG Channel 1, EXG Channel 2, EXG Channel 3, EXG Channel 4, EXG Channel 5, EXG Channel 6, EXG Channel 7, EXG Channel 8, EXG Channel 9, EXG Channel 10, EXG Channel 11, EXG Channel 12, EXG Channel 13, EXG Channel 14, EXG Channel 15, Accel Channel 0, Accel Channel 1, Accel Channel 2, Other, Other, Other, Other, Other, Other, Other, Analog Channel 0, Analog Channel 1, Analog Channel 2, Timestamp, Other, Timestamp (Formatted)
198.0, -3235.25854769451, -6197.624647334176, -1492.2695150696654, -10455.766076536904, -784.479175147912, 589.6613704754557, -5334.57909042586, -2643.6749271958984, -4471.488830028633, -7961.311395324636, -4056.4392872380363, -2949.5138465778646, -4634.410695363366, -3856.1900086629403, -11297.510420979312, -14333.302001154661, 0.0, 0.0, 0.0, 192.0, 0.0, 0.0, 0.0, 0.0, 0.0, 0.0, 0.0, 0.0, 0.0, 1.645920488818245E9, 0.0, 2022-02-27 11:08:08.818
200.0, -3561.7281272087253, -6381.9147803681835, -1609.5491182266617, -10632.143692033731, -1062.5795796608425, 393.9718477692423, -5301.118528976265, -2636.7905899036637, -3707.6403150129695, -7977.024671676716, -4083.0825666287624, -2718.0391809987045, -4653.499085128198, -3833.011249662787, -11036.933784119343, -14176.884493456424, 0.0, 0.0, 0.0, 192.0, 0.0, 0.0, 0.0, 0.0, 0.0, 0.0, 0.0, 0.0, 0.0, 1.645920488818248E9, 0.0, 2022-02-27 11:08:08.818
0.0, -1707.6062211520937, -3168.9185701511587, -794.15748049706, -5290.0097119819775, -553.0492130576627, 231.87699697935548, -2685.316227116135, -1341.1046673184237, -1863.1520108165755, -3818.3261535556503, -2015.9261841685993, -1434.0655725080458, -2309.784568522521, -1900.3900170791171, -5570.680567107269, -6982.662616093471, 0.01, -0.108, 0.984, 192.0, 0.0, 40.0, 126.0, 80.0, 15.0, 96.0, 0.0, 0.0, 0.0, 1.645920488899287E9, 0.0, 2022-02-27 11:08:08.899
2.0, -3406.4058549887964, -6279.834363440796, -1567.5948938840502, -10593.18460144813, -1121.6105367673083, 486.01633143619677, -5391.106652153332, -2789.9894464003382, -5181.35788218473, -8272.4029746536, -4231.252280622993, -3240.2429867080436, -4755.154818910935, -3925.9945065968645, -11463.31566134878, -14701.211714889017, 0.01, -0.108, 0.984, 192.0, 0.0, 0.0, 0.0, 0.0, 0.0, 0.0, 0.0, 0.0, 0.0, 1.645920488906811E9, 0.0, 2022-02-27 11:08:08.906
4.0, -3755.003661513765, -6517.209889556157, -1747.4370297714509, -10776.75947865957, -1400.6944180362723, 248.59610183192515, -5378.92495142519, -2746.716469134864, -3404.6847706657377, -7921.726455894287, -4242.137580172727, -2893.947409861971, -4823.104122055069, -3914.6398204135685, -10997.706472600279, -14039.711837734205, 0.01, -0.108, 0.984, 192.0, 0.0, 0.0, 0.0, 0.0, 0.0, 0.0, 0.0, 0.0, 0.0, 1.645920488915344E9, 0.0, 2022-02-27 11:08:08.915
6.0, -3350.213569428154, -6274.201723838059, -1560.1070594915223, -10542.624955490226, -1044.497018396499, 521.5779568645903, -5373.716994967102, -2708.740855305297, -3621.9437267713224, -7655.114848031384, -4195.087158094306, -3066.659339268129, -4778.199467444357, -3875.680729827968, -11139.550642913657, -13918.94536244218, 0.01, -0.108, 0.984, 192.0, 0.0, 0.0, 0.0, 0.0, 0.0, 0.0, 0.0, 0.0, 0.0, 1.645920488922824E9, 0.0, 2022-02-27 11:08:08.922
8.0, -3648.7211166287802, -6425.947716945138, -1677.1854969484207, -10726.848033290868, -1318.3058879740106, 347.03318441309744, -5382.992968916055, -2788.2907138217347, -5037.926738015025, -8414.470662411532, -4259.527237358956, -3123.1869009956004, -4783.89916228046, -3944.6358614725905, -11362.375183388613, -14762.656660396655, 0.014, -0.11, 0.978, 192.0, 0.0, 56.0, 126.0, 72.0, 15.0, 72.0, 0.0, 0.0, 0.0, 1.64592048893009E9, 0.0, 2022-02-27 11:08:08.930
10.0, -3566.667862733348, -6427.311173356912, -1658.6111973060606, -10662.452657515129, -1238.264291079556, 374.7940510265888, -5370.453640276628, -2671.6369595094875, -2535.3807253099353, -7450.641089754235, -4201.412701775158, -2861.9397118019715, -4819.52784294222, -3854.4242208509713, -10852.844816785433, -13514.95993315696, 0.014, -0.11, 0.978, 192.0, 0.0, 0.0, 0.0, 0.0, 0.0, 0.0, 0.0, 0.0, 0.0, 1.645920488937414E9, 0.0, 2022-02-27 11:08:08.937
12.0, -3394.9617618276793, -6272.123011603715, -1554.1614954664108, -10579.862961752768, -1099.4823097565545, 504.7694450341994, -5378.500268280539, -2770.2975595352127, -5140.2083206425095, -8245.737343518418, -4225.418475320158, -3232.35282091532, -4751.198560142346, -3921.2782885167944, -11451.402181554102, -14672.154447097117, 0.014, -0.11, 0.978, 192.0, 0.0, 0.0, 0.0, 0.0, 0.0, 0.0, 0.0, 0.0, 0.0, 1.6459204889448E9, 0.0, 2022-02-27 11:08:08.944
14.0, -3747.2252544433186, -6514.751197666073, -1733.8024656537136, -10770.411583234261, -1389.9432289532697, 257.6038548474139, -5363.234026817564, -2730.220881726847, -3437.094800125933, -7925.526252451689, -4233.420399835158, -2887.823031881217, -4814.699866139873, -3895.8420033266552, -11000.947475546298, -14048.697239005238, 0.014, -0.11, 0.978, 192.0, 0.0, 0.0, 0.0, 0.0, 0.0, 0.0, 0.0, 0.0, 0.0, 1.645920488952719E9, 0.0, 2022-02-27 11:08:08.952
16.0, -3346.9502147376797, -6273.106488359748, -1552.5298181211733, -10542.177920601122, -1048.5426841429096, 516.5488143621462, -5371.0124338880105, -2701.5659453351436, -3551.669842203837, -7627.1528157177945, -4181.184373043105, -3049.962586160015, -4773.550304597653, -3858.3134243861946, -11126.988962529775, -13884.546027725462, 0.014, -0.112, 0.979, 192.0, 0.0, 56.0, 126.0, 56.0, 15.0, 80.0, 0.0, 0.0, 0.0, 1.645920488967003E9, 0.0, 2022-02-27 11:08:08.967
18.0, -3636.2264914782636, -6416.738798229551, -1669.272979411242, -10720.790710543479, -1306.0571320125023, 337.42193429731543, -5380.310759581418, -2795.353865069612, -5059.272653969843, -8418.918659558138, -4251.346498888314, -3124.148026007179, -4779.227647689301, -3944.3229370502163, -11374.646291094577, -14774.368974491237, 0.014, -0.112, 0.979, 192.0, 0.0, 0.0, 0.0, 0.0, 0.0, 0.0, 0.0, 0.0, 0.0, 1.645920488974531E9, 0.0, 2022-02-27 11:08:08.974
20.0, -3570.4900110352055, -6432.407371092721, -1664.020319464245, -10661.402125525728, -1229.971793886637, 367.61914105643524, -5382.568285771405, -2690.6582940409535, -2522.103789103483, -7453.345650833327, -4193.343722026792, -2849.5791971181866, -4813.3140579836445, -3849.775058004267, -10850.833159784455, -13522.693636738497, 0.014, -0.112, 0.979, 192.0, 0.0, 0.0, 0.0, 0.0, 0.0, 0.0, 0.0, 0.0, 0.0, 1.645920488982491E9, 0.0, 2022-02-27 11:08:08.982
22.0, -3393.9559333271905, -6279.76730820743, -1564.8009258271368, -10582.545171087406, -1093.7826149204511, 505.1270729454843, -5364.418669273695, -2779.327664295157, -5111.240459828432, -8232.683924756519, -4226.1560828871825, -3225.3343731563536, -4756.160647411424, -3915.802111125244, -11449.390524553124, -14662.230272558962, 0.014, -0.112, 0.979, 192.0, 0.0, 0.0, 0.0, 0.0, 0.0, 0.0, 0.0, 0.0, 0.0, 1.645920488989595E9, 0.0, 2022-02-27 11:08:08.989
24.0, -3755.8753795475222, -6529.033962373014, -1751.9967856403334, -10785.633121208326, -1401.543784325574, 244.50573259660396, -5362.407012272717, -2744.794219111707, -3496.7516060771477, -7959.299738323658, -4244.931548229641, -2909.1018926026695, -4829.206148291368, -3908.4036837105377, -11018.650057154902, -14090.383242414386, 0.014, -0.112, 0.979, 192.0, 0.0, 0.0, 0.0, 0.0, 0.0, 0.0, 0.0, 0.0, 0.0, 1.645920488997026E9, 0.0, 2022-02-27 11:08:08.997
26.0, -3359.37778465483, -6290.093814145782, -1567.7513560952373, -10555.56661552985, -1065.9993965625044, 518.1357882184731, -5361.9152738947005, -2704.6951895588863, -3510.5649841505274, -7628.449216896202, -4192.784928415409, -3062.4125078216207, -4788.213048960334, -3870.0927937141414, -11117.91415428092, -13877.214655544121, 0.015, -0.11, 0.9824999999999999, 192.0, 0.0, 64.0, 126.0, 80.0, 15.0, 104.0, 0.0, 0.0, 0.0, 1.645920489004952E9, 0.0, 2022-02-27 11:08:09.004
28.0, -3631.3761629314617, -6413.475443539077, -1676.0902614701108, -10728.770283314025, -1304.6713238562731, 357.76202175164485, -5388.335035840873, -2811.2683071217907, -5099.639904456128, -8430.094531785791, -4260.756583303998, -3140.9341860931145, -4791.811679817639, -3958.5609982682467, -11388.102041256672, -14793.83734391181, 0.015, -0.11, 0.9824999999999999, 192.0, 0.0, 0.0, 0.0, 0.0, 0.0, 0.0, 0.0, 0.0, 0.0, 1.645920489013063E9, 0.0, 2022-02-27 11:08:09.013
30.0, -3587.119708909954, -6444.387906120766, -1675.531467858728, -10677.49538153355, -1238.4431050351984, 366.434498600304, -5369.000776887033, -2665.6019885065543, -2534.5090072761786, -7449.52350253147, -4201.077425608329, -2852.574330875198, -4827.105084312569, -3862.1579244325076, -10860.667927344792, -13531.835500220717, 0.015, -0.11, 0.9824999999999999, 192.0, 0.0, 0.0, 0.0, 0.0, 0.0, 0.0, 0.0, 0.0, 0.0, 1.645920489019211E9, 0.0, 2022-02-27 11:08:09.019
32.0, -3386.0434157900117, -6276.369843050224, -1559.3247484355866, -10583.841572265814, -1082.6514461817083, 514.7606748057217, -5375.68394847917, -2787.150774854514, -5087.81583163927, -8218.445863538487, -4229.151216644194, -3230.6317365922614, -4763.693185292863, -3927.9614601089315, -11447.870605930162, -14649.065095074786, 0.015, -0.11, 0.9824999999999999, 192.0, 0.0, 0.0, 0.0, 0.0, 0.0, 0.0, 0.0, 0.0, 0.0, 1.645920489026764E9, 0.0, 2022-02-27 11:08:09.026
34.0, -3757.238835959296, -6529.257479817567, -1744.10661984761, -10782.906208384778, -1393.2736388771104, 253.60289258991392, -5385.764585228513, -2751.343280237112, -3540.449266487273, -7973.314282097135, -4237.8907487262195, -2902.217555310435, -4826.903918612471, -3913.812805868722, -11031.815234639078, -14123.88850735289, 0.015, -0.11, 0.9824999999999999, 192.0, 0.0, 0.0, 0.0, 0.0, 0.0, 0.0, 0.0, 0.0, 0.0, 1.645920489034599E9, 0.0, 2022-02-27 11:08:09.034
36.0, -3368.765517326059, -6300.129747406215, -1565.6055886275278, -10555.18663587411, -1059.6738528816525, 509.08333171407367, -5386.25632360653, -2694.4357388539006, -3462.642844038349, -7616.312219656971, -4191.06384409235, -3045.8275134357827, -4792.929267040404, -3870.495125114337, -11109.465194876813, -13858.483893690574, 0.014499999999999999, -0.11, 0.98625, 192.0, 0.0, 56.0, 126.0, 72.0, 15.0, 120.0, 0.0, 0.0, 0.0, 1.645920489042698E9, 0.0, 2022-02-27 11:08:09.042
38.0, -3630.14681698642, -6418.303420341423, -1665.4508311093846, -10723.69643732267, -1294.9483150182148, 347.5919780244801, -5407.311666883429, -2810.5306995547653, -5126.39494256913, -8440.666906913151, -4258.476705369557, -3143.437581472109, -4793.130432740501, -3961.779649469811, -11400.641369896099, -14814.915038933164, 0.014499999999999999, -0.11, 0.98625, 192.0, 0.0, 0.0, 0.0, 0.0, 0.0, 0.0, 0.0, 0.0, 0.0, 1.645920489049539E9, 0.0, 2022-02-27 11:08:09.049
40.0, -3606.051636463599, -6461.554045862442, -1677.341959159608, -10686.011396171021, -1252.0553174084805, 353.96222519424265, -5381.785974715469, -2686.7020352723644, -2534.5760625095445, -7474.780973765966, -4203.692579709599, -2849.4674383959104, -4838.973860618336, -3869.1093169581077, -10864.7135930912, -13551.505035341388, 0.014499999999999999, -0.11, 0.98625, 192.0, 0.0, 0.0, 0.0, 0.0, 0.0, 0.0, 0.0, 0.0, 0.0, 1.645920489057246E9, 0.0, 2022-02-27 11:08:09.057
42.0, -3390.1337850253326, -6287.791584466885, -1557.3354431790642, -10585.272083910953, -1088.3511410178114, 498.0862734420626, -5362.116439594798, -2794.7727197137738, -5057.529217902329, -8213.14850010258, -4230.537024800423, -3229.380038902764, -4787.140165226479, -3936.321012535216, -11447.02123964086, -14646.47229271797, 0.014499999999999999, -0.11, 0.98625, 192.0, 0.0, 0.0, 0.0, 0.0, 0.0, 0.0, 0.0, 0.0, 0.0, 1.645920489065223E9, 0.0, 2022-02-27 11:08:09.065
44.0, -3765.754850596768, -6537.929956666227, -1741.4691140018838, -10786.191914819708, -1406.3270576390098, 261.9400932717435, -5363.949282640134, -2732.746628850297, -3604.576421329549, -7994.257866651758, -4247.07731569735, -2911.3370670482004, -4848.853331667582, -3918.9313553489874, -11046.18740632384, -14148.184853575809, 0.014499999999999999, -0.11, 0.98625, 192.0, 0.0, 0.0, 0.0, 0.0, 0.0, 0.0, 0.0, 0.0, 0.0, 1.645920489072469E9, 0.0, 2022-02-27 11:08:09.072
46.0, -3368.2514272035874, -6307.639933543198, -1562.632806614972, -10559.545226042894, -1063.4065942056889, 504.7917967786547, -5372.577055999882, -2699.2413639117917, -3408.9092503677907, -7600.822460749443, -4189.141594069194, -3036.8644639092045, -4797.6454851204735, -3870.4727733698815, -11102.223229673295, -13837.048570757936, 0.01525, -0.109, 0.989125, 192.0, 0.0, 64.0, 126.0, 80.0, 15.5, 0.0, 0.0, 0.0, 0.0, 1.645920489086825E9, 0.0, 2022-02-27 11:08:09.086
48.0, -3621.8096163045907, -6422.662010510208, -1664.981444475823, -10715.40394012975, -1288.935695759737, 344.44038205628186, -5386.412785817717, -2799.3324755826566, -5150.288957391854, -8448.177093050133, -4257.895560013719, -3149.629014686229, -4789.442394905376, -3966.0935361496854, -11410.274971756337, -14820.279457602437, 0.01525, -0.109, 0.989125, 192.0, 0.0, 0.0, 0.0, 0.0, 0.0, 0.0, 0.0, 0.0, 0.0, 1.64592048909497E9, 0.0, 2022-02-27 11:08:09.094
50.0, -3604.956400985289, -6459.274167928001, -1683.8463167961022, -10681.87632344679, -1262.5606373024748, 347.01083266864214, -5363.479896006572, -2677.873096212518, -2529.0551816290836, -7479.318377890394, -4200.675094208133, -2837.5316068567763, -4835.598747205585, -3866.672976812479, -10863.216026212696, -13549.135750429125, 0.01525, -0.109, 0.989125, 192.0, 0.0, 0.0, 0.0, 0.0, 0.0, 0.0, 0.0, 0.0, 0.0, 1.645920489102066E9, 0.0, 2022-02-27 11:08:09.102
52.0, -3375.560447640473, -6269.485505757989, -1560.6435013584498, -10567.100115668789, -1079.0304635799484, 515.5206341172021, -5378.92495142519, -2762.9885390983272, -5008.243621378377, -8187.376938745611, -4216.902460682686, -3209.911669482192, -4769.37052838451, -3922.39587573956, -11445.45661752899, -14615.51512664737, 0.01525, -0.109, 0.989125, 192.0, 0.0, 0.0, 0.0, 0.0, 0.0, 0.0, 0.0, 0.0, 0.0, 1.645920489109484E9, 0.0, 2022-02-27 11:08:09.109
54.0, -3746.442943387383, -6519.176843068224, -1740.373878523574, -10778.167638560253, -1385.5399352955742, 259.8390292929446, -5366.832657674869, -2718.6873815879085, -3633.7230960992692, -8007.199526691381, -4230.805245733886, -2898.1048343306584, -4825.853386623071, -3900.3570557066273, -11053.697592460823, -14162.08763862701, 0.01525, -0.109, 0.989125, 192.0, 0.0, 0.0, 0.0, 0.0, 0.0, 0.0, 0.0, 0.0, 0.0, 1.645920489117619E9, 0.0, 2022-02-27 11:08:09.117
56.0, -3358.2378456876095, -6300.017988683938, -1567.5725421395948, -10554.024345162434, -1041.7477538284963, 515.9229655173976, -5357.959015126111, -2678.6330555239983, -3334.0532581869675, -7579.387137816804, -4168.555637425857, -3015.563251443297, -4777.260694177234, -3861.420316865482, -11078.57508403958, -13805.86788724278, 0.013625, -0.10650000000000001, 0.9905625, 192.0, 0.0, 48.0, 126.0, 96.0, 15.5, 0.0, 0.0, 0.0, 0.0, 1.645920489124764E9, 0.0, 2022-02-27 11:08:09.124
58.0, -3598.2285259042415, -6406.948734158127, -1668.4459648663958, -10704.965675469122, -1266.2710268820558, 371.9106759918542, -5378.075585135888, -2785.3849870425447, -5161.241312174954, -8440.443389468597, -4235.119132413761, -3138.0955145472903, -4776.590141843574, -3942.221873071417, -11410.476137456435, -14815.965570922563, 0.013625, -0.10650000000000001, 0.9905625, 192.0, 0.0, 0.0, 0.0, 0.0, 0.0, 0.0, 0.0, 0.0, 0.0, 1.645920489132149E9, 0.0, 2022-02-27 11:08:09.132
60.0, -3598.0944154375097, -6453.03803122497, -1694.4410436679177, -10676.623663499793, -1248.9260731847373, 358.1643531518404, -5346.760791154003, -2660.416383792923, -2520.40505652488, -7485.733328549067, -4183.710120166555, -2828.859130008117, -4821.718313898839, -3854.0218894507757, -10848.106246960908, -13544.084256182225, 0.013625, -0.10650000000000001, 0.9905625, 192.0, 0.0, 0.0, 0.0, 0.0, 0.0, 0.0, 0.0, 0.0, 0.0, 1.6459204891392E9, 0.0, 2022-02-27 11:08:09.139
62.0, -3373.8840668063244, -6271.452459270055, -1561.8504955590363, -10558.13706614221, -1060.299701726401, 522.5614336206238, -5367.257340819519, -2754.383117483034, -4962.26608303381, -8165.986319301882, -4202.440882020102, -3203.4073118456977, -4759.51340907972, -3909.4989191888476, -11421.674361428542, -14576.26546338385, 0.013625, -0.10650000000000001, 0.9905625, 192.0, 0.0, 0.0, 0.0, 0.0, 0.0, 0.0, 0.0, 0.0, 0.0, 1.645920489147115E9, 0.0, 2022-02-27 11:08:09.147
64.0, -3757.328242937117, -6524.608316970864, -1744.173675080976, -10771.79739139049, -1375.6828159907839, 264.7340613286569, -5377.49443978005, -2732.031373027727, -3690.474175271294, -8038.715486373364, -4226.804283476386, -2911.7393984483956, -4821.628906921018, -3914.483358202381, -11061.47599953127, -14179.432592324329, 0.013625, -0.10650000000000001, 0.9905625, 192.0, 0.0, 0.0, 0.0, 0.0, 0.0, 0.0, 0.0, 0.0, 0.0, 1.645920489154361E9, 0.0, 2022-02-27 11:08:09.154
66.0, -3368.0949649924, -6304.197764897081, -1567.3490246950419, -10548.257595092964, -1040.9877945170158, 504.3671136340039, -5339.876453861768, -2680.6000090360653, -3295.6753129572053, -7579.185972116706, -4164.7558408684545, -3014.6244781761743, -4782.669816335419, -3868.1481919465296, -11062.794752454132, -13779.939863674625, 0.012812500000000001, -0.10825000000000001, 0.99228125, 192.0, 0.0, 48.0, 126.0, 72.0, 15.5, 8.0, 0.0, 0.0, 0.0, 1.645920489161829E9, 0.0, 2022-02-27 11:08:09.161
68.0, -3592.461775834772, -6395.88462065275, -1657.6500722944825, -10695.376777097796, -1238.0631253794581, 368.69202479029, -5354.673308691181, -2781.7863561852405, -5176.865181549213, -8452.312165774365, -4225.463178809068, -3149.6737181751396, -4764.2743306487, -3950.380259797604, -11405.983436820918, -14822.671094259154, 0.012812500000000001, -0.10825000000000001, 0.99228125, 192.0, 0.0, 0.0, 0.0, 0.0, 0.0, 0.0, 0.0, 0.0, 0.0, 1.645920489169869E9, 0.0, 2022-02-27 11:08:09.169
70.0, -3614.590002845526, -6460.525865617498, -1696.8997355580016, -10682.077489146888, -1238.4878085241091, 351.9729199377203, -5347.72191616558, -2652.548569744655, -2525.7918269386087, -7502.29597119045, -4181.027910831918, -2836.5481301007426, -4814.386941717499, -3863.387270377549, -10842.920642247278, -13546.788817261317, 0.012812500000000001, -0.10825000000000001, 0.99228125, 192.0, 0.0, 0.0, 0.0, 0.0, 0.0, 0.0, 0.0, 0.0, 0.0, 1.645920489177855E9, 0.0, 2022-02-27 11:08:09.177
72.0, -3375.359281940375, -6272.9723778930165, -1566.2761409611871, -10559.90285395418, -1053.30360571189, 519.7674655637104, -5364.664538462704, -2748.2140360133694, -4932.78413209726, -8156.844455819662, -4208.788777445409, -3216.5277858409627, -4757.233531145279, -3920.2724600163056, -11415.862907870163, -14558.339364330694, 0.012812500000000001, -0.10825000000000001, 0.99228125, 192.0, 0.0, 0.0, 0.0, 0.0, 0.0, 0.0, 0.0, 0.0, 0.0, 1.645920489184452E9, 0.0, 2022-02-27 11:08:09.184
74.0, -3765.978368041321, -6524.2059855706675, -1753.4496490299284, -10779.262874038563, -1373.738214223172, 250.51835185508156, -5366.162105341209, -2732.2995939611906, -3748.655766088458, -8061.73778316233, -4240.952937716596, -2937.5556632942753, -4816.510357440753, -3924.7204571629118, -11066.795714711632, -14209.115708960977, 0.012812500000000001, -0.10825000000000001, 0.99228125, 192.0, 0.0, 0.0, 0.0, 0.0, 0.0, 0.0, 0.0, 0.0, 0.0, 1.645920489192448E9, 0.0, 2022-02-27 11:08:09.192
76.0, -3389.1056047803886, -6312.266744645446, -1582.6152661580165, -10558.494694053496, -1048.050945764893, 494.3535321180263, -5358.607215715315, -2684.6903782713866, -3255.464524682108, -7565.797277187977, -4178.032777074906, -3023.341658513744, -4782.155726212946, -3870.204552436418, -11053.384668038449, -13759.420962264654, 0.013406250000000001, -0.10612500000000001, 0.991140625, 192.0, 0.0, 56.0, 126.0, 96.0, 15.0, 120.0, 0.0, 0.0, 0.0, 1.645920489200438E9, 0.0, 2022-02-27 11:08:09.200
78.0, -3613.76298830068, -6411.597897004831, -1663.886208997513, -10702.574038812405, -1249.6413290073071, 362.433536342804, -5357.3331662813625, -2780.735824195841, -5219.17703380311, -8461.141104834212, -4241.332917372336, -3174.1935818426114, -4771.94097899687, -3966.004129171864, -11417.606343937678, -14825.487414060524, 0.013406250000000001, -0.10612500000000001, 0.991140625, 192.0, 0.0, 0.0, 0.0, 0.0, 0.0, 0.0, 0.0, 0.0, 0.0, 1.64592048921405E9, 0.0, 2022-02-27 11:08:09.214
80.0, -3636.6288228784592, -6479.390737937777, -1700.855994326591, -10695.466184075616, -1256.5703697884524, 329.6658789713239, -5354.069811590888, -2666.8983896849622, -2547.1824463823377, -7523.574831911902, -4189.745091169488, -2851.4567436524326, -4820.891299353993, -3883.526192131781, -10844.619374825881, -13555.796570276807, 0.013406250000000001, -0.10612500000000001, 0.991140625, 192.0, 0.0, 0.0, 0.0, 0.0, 0.0, 0.0, 0.0, 0.0, 0.0, 1.645920489222051E9, 0.0, 2022-02-27 11:08:09.222
82.0, -3378.6673401197604, -6278.090927373282, -1564.9797397827792, -10565.066106923356, -1052.9012743116946, 515.587689350568, -5363.032861117466, -2752.617329671065, -4892.506288588797, -8152.239996461868, -4207.246507077993, -3222.0486667214236, -4752.249092131745, -3930.39780025456, -11406.408119965568, -14536.792282675779, 0.013406250000000001, -0.10612500000000001, 0.991140625, 192.0, 0.0, 0.0, 0.0, 0.0, 0.0, 0.0, 0.0, 0.0, 0.0, 1.645920489230093E9, 0.0, 2022-02-27 11:08:09.230
84.0, -3764.5031529072708, -6528.408113528266, -1752.6002827406269, -10784.917865385756, -1380.4660893042194, 253.26761642308432, -5347.833674887857, -2736.769942852252, -3807.1502813279967, -8085.631797985054, -4235.968498703062, -2942.115419163158, -4811.749435871772, -3942.0654108602303, -11077.748069494733, -14230.014590026689, 0.013406250000000001, -0.10612500000000001, 0.991140625, 192.0, 0.0, 0.0, 0.0, 0.0, 0.0, 0.0, 0.0, 0.0, 0.0, 1.645920489237375E9, 0.0, 2022-02-27 11:08:09.237
86.0, -3388.0774245354446, -6312.982000468016, -1586.0127313152232, -10562.85328422228, -1054.3317859568342, 502.17664267738377, -5352.080506334366, -2680.3988433359677, -3215.2760881514655, -7556.566006727935, -4173.294207250382, -3010.221184518479, -4781.216952945823, -3888.0635962562083, -11043.527548733658, -13737.516252698453, 0.016, -0.106, 0.986, 192.0, 0.0, 64.0, 126.0, 88.0, 15.0, 104.0, 0.0, 0.0, 0.0, 1.645920489246114E9, 0.0, 2022-02-27 11:08:09.246
88.0, -3595.635723547426, -6398.388016031745, -1658.4100316059628, -10697.20962014313, -1243.136971370813, 371.73186203621174, -5364.821000673891, -2790.995274900827, -5238.041906123389, -8459.062392599868, -4233.487455068524, -3171.846648674804, -4774.310263909133, -3974.2519228758724, -11429.408065010079, -14830.002466440495, 0.016, -0.106, 0.986, 192.0, 0.0, 0.0, 0.0, 0.0, 0.0, 0.0, 0.0, 0.0, 0.0, 1.645920489252738E9, 0.0, 2022-02-27 11:08:09.252
90.0, -3642.887311325945, -6488.465546186632, -1701.0348082822334, -10704.898620235756, -1275.0552624529914, 317.90886138783236, -5363.34578553984, -2668.708880985842, -2563.2086471567927, -7536.427084973703, -4185.699425423077, -2847.5898918616645, -4822.5900319325965, -3890.455232912926, -10850.363773150895, -13572.515675129376, 0.016, -0.106, 0.986, 192.0, 0.0, 0.0, 0.0, 0.0, 0.0, 0.0, 0.0, 0.0, 0.0, 1.645920489260001E9, 0.0, 2022-02-27 11:08:09.260
92.0, -3376.543924396506, -6288.037453655894, -1556.374318167486, -10566.586025546316, -1061.6184546492643, 511.944355004353, -5376.957997913122, -2756.774754139752, -4857.123477116046, -8139.544205611254, -4203.781986687421, -3224.820283033882, -4756.98766195627, -3941.238396315384, -11402.518916430345, -14527.650419193556, 0.016, -0.106, 0.986, 192.0, 0.0, 0.0, 0.0, 0.0, 0.0, 0.0, 0.0, 0.0, 0.0, 1.645920489266318E9, 0.0, 2022-02-27 11:08:09.266
94.0, -3765.1513534964747, -6531.045619373992, -1746.207683826409, -10784.51553398556, -1388.065682419024, 247.56792158698102, -5367.257340819519, -2750.9185970924614, -3859.1851424199517, -8112.27507737578, -4233.26393762397, -2956.532294336831, -4811.011828304748, -3951.319033064727, -11087.33696786606, -14270.20302655733, 0.016, -0.106, 0.986, 192.0, 0.0, 0.0, 0.0, 0.0, 0.0, 0.0, 0.0, 0.0, 0.0, 1.645920489274433E9, 0.0, 2022-02-27 11:08:09.274
96.0, -3398.8509653629026, -6333.836178044818, -1589.633713916983, -10562.339194099808, -1065.9323413291386, 492.4536338393252, -5369.514867009505, -2672.0169391652275, -3165.431698016131, -7557.191855572683, -4172.422489216625, -3015.07151306528, -4785.75435707025, -3881.715700830901, -11031.904641616899, -13728.977886316525, 0.014, -0.108, 0.988, 192.0, 0.0, 56.0, 126.0, 80.0, 15.0, 112.0, 0.0, 0.0, 0.0, 1.645920489282612E9, 0.0, 2022-02-27 11:08:09.282
98.0, -3583.1410983969095, -6399.8185276768845, -1651.2574733802646, -10686.950169438145, -1219.2206048036344, 388.1603942108625, -5376.153335112731, -2788.9389144109387, -5255.968005176545, -8468.494828760007, -4236.907271970185, -3184.944770925614, -4773.37149064201, -3978.8787339781206, -11430.659762699577, -14838.160853166683, 0.014, -0.108, 0.988, 192.0, 0.0, 0.0, 0.0, 0.0, 0.0, 0.0, 0.0, 0.0, 0.0, 1.645920489289652E9, 0.0, 2022-02-27 11:08:09.289
100.0, -3632.2255292207637, -6480.351862949356, -1695.6480378685044, -10695.376777097796, -1266.7851170045278, 334.2703383291171, -5362.608177972816, -2667.0772036406047, -2559.7441267662202, -7539.176349541706, -4176.222285774027, -2840.482037124877, -4814.319886484133, -3891.6622271135125, -10844.373505636871, -13579.377660677155, 0.014, -0.108, 0.988, 192.0, 0.0, 0.0, 0.0, 0.0, 0.0, 0.0, 0.0, 0.0, 0.0, 1.645920489296902E9, 0.0, 2022-02-27 11:08:09.296
102.0, -3341.2058164126656, -6259.293110286369, -1546.9195302628912, -10546.245938091986, -1041.9936230175047, 534.877244815498, -5379.327282825385, -2743.87779758904, -4780.61345584553, -8097.277056846268, -4172.578951427812, -3200.9933234445243, -4727.818635442095, -3927.3356112641827, -11386.135087744606, -14497.475564178892, 0.014, -0.108, 0.988, 192.0, 0.0, 0.0, 0.0, 0.0, 0.0, 0.0, 0.0, 0.0, 0.0, 1.645920489305004E9, 0.0, 2022-02-27 11:08:09.305
104.0, -3768.884094820511, -6542.646174746296, -1746.073573359677, -10779.687557183213, -1380.8237172155043, 263.3259014279725, -5357.48962849255, -2743.2966522332017, -3905.5426604202585, -8116.968943711394, -4219.115283383761, -2951.6819657900296, -4797.779595587206, -3935.4045910125487, -11098.512840093714, -14286.408041287428, 0.014, -0.108, 0.988, 192.0, 0.0, 0.0, 0.0, 0.0, 0.0, 0.0, 0.0, 0.0, 0.0, 1.645920489313111E9, 0.0, 2022-02-27 11:08:09.313
106.0, -3406.2717445220646, -6341.055791503882, -1584.604571414539, -10564.373202845241, -1063.697166883608, 495.4040641074257, -5353.622776701782, -2679.772994491219, -3128.037229542402, -7550.620442702823, -4167.885085092197, -3010.3105914963, -4779.294702922667, -3888.510631145314, -11019.141795532918, -13706.08969999429, 0.014, -0.106, 0.986, 192.0, 0.0, 56.0, 126.0, 88.0, 15.0, 104.0, 0.0, 0.0, 0.0, 1.645920489319771E9, 0.0, 2022-02-27 11:08:09.319
108.0, -3574.960359926267, -6395.303475296912, -1644.3507843435748, -10682.569227524904, -1227.2225293186343, 398.7104175937674, -5387.016282918011, -2795.5550307697094, -5280.979607222033, -8464.829142669338, -4227.0948561543055, -3191.6726460066616, -4758.060545690125, -3973.2907978642943, -11435.264222057369, -14848.554414338401, 0.014, -0.106, 0.986, 192.0, 0.0, 0.0, 0.0, 0.0, 0.0, 0.0, 0.0, 0.0, 0.0, 1.645920489334794E9, 0.0, 2022-02-27 11:08:09.334
110.0, -3652.565616675093, -6498.121499791325, -1702.7335408608367, -10710.59831507186, -1284.0406637240249, 320.70282944474576, -5360.864741905301, -2686.858497483551, -2594.1434614829377, -7555.515474738536, -4182.570181199334, -2850.5179703853096, -4813.00113356127, -3894.031512025775, -10852.554244107514, -13603.651655155618, 0.014, -0.106, 0.986, 192.0, 0.0, 0.0, 0.0, 0.0, 0.0, 0.0, 0.0, 0.0, 0.0, 1.645920489342084E9, 0.0, 2022-02-27 11:08:09.342
112.0, -3353.3651653963525, -6270.312520302835, -1545.9807569957684, -10550.001031160478, -1035.9586520145717, 525.8918435444646, -5368.754907698025, -2756.417126228467, -4766.397746371955, -8094.751309722818, -4182.972512599529, -3212.370361372276, -4742.011993171214, -3934.197596811962, -11382.089421998195, -14485.651491362036, 0.014, -0.106, 0.986, 192.0, 0.0, 0.0, 0.0, 0.0, 0.0, 0.0, 0.0, 0.0, 0.0, 1.645920489349275E9, 0.0, 2022-02-27 11:08:09.349
114.0, -3747.761696310246, -6515.019418599537, -1741.9608523799006, -10767.639966921803, -1374.1181938789123, 267.90800904131044, -5376.376852557284, -2750.2480447588023, -3966.384108827604, -8129.977658984382, -4216.45542579358, -2959.058041460281, -4791.029368761703, -3937.0809718466967, -11115.701331579845, -14323.601344061059, 0.014, -0.106, 0.986, 192.0, 0.0, 0.0, 0.0, 0.0, 0.0, 0.0, 0.0, 0.0, 0.0, 1.645920489357362E9, 0.0, 2022-02-27 11:08:09.357
116.0, -3393.9782850716456, -6325.588384340809, -1588.8066993721366, -10561.467476066051, -1065.3288442288451, 490.6654942829006, -5377.226218846586, -2697.8108522666516, -3075.689444028073, -7514.723541107601, -4158.542055909879, -2993.1221000101687, -4773.550304597653, -3865.5106861008035, -11012.503327429691, -13698.780679557405, 0.01, -0.10400000000000001, 0.988, 192.0, 0.0, 40.0, 126.0, 96.0, 15.0, 112.0, 0.0, 0.0, 0.0, 1.645920489365306E9, 0.0, 2022-02-27 11:08:09.365
118.0, -3555.89432190589, -6374.382242486745, -1644.6860605104043, -10675.617834999304, -1222.9533461276706, 402.6443246179014, -5393.9229719547, -2804.674542507475, -5295.105909717788, -8453.407401252676, -4227.497187554502, -3193.9525239411028, -4754.685432277373, -3965.5347425383025, -11445.054286128794, -14857.584519098345, 0.01, -0.10400000000000001, 0.988, 192.0, 0.0, 0.0, 0.0, 0.0, 0.0, 0.0, 0.0, 0.0, 0.0, 1.645920489371972E9, 0.0, 2022-02-27 11:08:09.371
120.0, -3639.467494424283, -6480.173048993713, -1708.1873665079318, -10711.984123228089, -1282.7666142900723, 321.03810561157536, -5375.7063002236255, -2676.867267712029, -2601.7207028532866, -7553.079134592907, -4184.49243122249, -2849.690955840463, -4806.608534647052, -3883.4367851539596, -10856.890482531844, -13612.413538982099, 0.01, -0.10400000000000001, 0.988, 192.0, 0.0, 0.0, 0.0, 0.0, 0.0, 0.0, 0.0, 0.0, 0.0, 1.645920489380023E9, 0.0, 2022-02-27 11:08:09.380
122.0, -3337.2719093885316, -6255.850941640251, -1560.151762980433, -10550.984507916512, -1042.01597476196, 527.4341139118808, -5372.264131577508, -2756.64064367302, -4716.4639492587985, -8061.134286062037, -4192.583762715311, -3209.330524126354, -4740.1791501258795, -3917.5678989372136, -11379.608378363655, -14458.561177082203, 0.01, -0.10400000000000001, 0.988, 192.0, 0.0, 0.0, 0.0, 0.0, 0.0, 0.0, 0.0, 0.0, 0.0, 1.645920489387032E9, 0.0, 2022-02-27 11:08:09.387
124.0, -3739.245681672774, -6517.0981308338805, -1751.6391577290485, -10775.50778097007, -1380.577848026496, 253.82641003446702, -5382.21065786012, -2769.0458618457155, -4017.167272230062, -8148.2166824599135, -4226.871338709752, -2971.0385764883254, -4796.5278978977085, -3952.302509820761, -11139.125959769006, -14352.658611852958, 0.01, -0.10400000000000001, 0.988, 192.0, 0.0, 0.0, 0.0, 0.0, 0.0, 0.0, 0.0, 0.0, 0.0, 1.645920489395009E9, 0.0, 2022-02-27 11:08:09.395
126.0, -3391.609000159383, -6325.700143063086, -1606.6880949363822, -10560.998089432489, -1075.4765362115547, 491.93954371685317, -5375.035747889966, -2696.5591545771545, -3033.466998751998, -7506.989837526065, -4164.2864542348925, -2983.309684194289, -4777.081880221592, -3880.4416513969486, -11016.303123987094, -13688.856505019248, 0.012, -0.106, 0.988, 192.0, 0.0, 48.0, 126.0, 88.0, 15.0, 112.0, 0.0, 0.0, 0.0, 1.645920489401595E9, 0.0, 2022-02-27 11:08:09.401
128.0, -3537.2306152857086, -6365.68741389363, -1652.6209297920384, -10660.753924936525, -1207.038904075492, 400.14092923890706, -5384.244666605552, -2804.674542507475, -5301.9231917766565, -8445.740752904505, -4222.8703764522525, -3186.1964686151114, -4754.528970066187, -3976.621207788135, -11462.198074126014, -14859.663231332688, 0.012, -0.106, 0.988, 192.0, 0.0, 0.0, 0.0, 0.0, 0.0, 0.0, 0.0, 0.0, 0.0, 1.645920489409634E9, 0.0, 2022-02-27 11:08:09.409
130.0, -3647.4247154503723, -6486.498592674565, -1724.4147329824846, -10712.609972072838, -1284.9123817577818, 314.48904448617037, -5367.413803030706, -2699.8225092676294, -2629.034534577672, -7564.031489376008, -4189.8792016362195, -2835.318784155701, -4809.402502703965, -3899.574744650691, -10861.33847967845, -13629.378513023677, 0.012, -0.106, 0.988, 192.0, 0.0, 0.0, 0.0, 0.0, 0.0, 0.0, 0.0, 0.0, 0.0, 1.645920489417502E9, 0.0, 2022-02-27 11:08:09.417
132.0, -3342.61397631335, -6265.596302222765, -1566.477306661285, -10554.694897496092, -1039.2220067050466, 537.4923989167689, -5379.573152014394, -2763.9049606209946, -4684.009216309692, -8046.404486465989, -4200.87625990823, -3205.2178031465774, -4738.502769291731, -3940.612547470635, -11371.852323037663, -14443.47374957487, 0.012, -0.106, 0.988, 192.0, 0.0, 0.0, 0.0, 0.0, 0.0, 0.0, 0.0, 0.0, 0.0, 1.645920489424648E9, 0.0, 2022-02-27 11:08:09.424
134.0, -3738.753943294757, -6510.86199413085, -1756.4447827869396, -10779.642853694302, -1378.0744526475016, 268.4220991637825, -5395.085262666376, -2782.0992806076147, -4084.155450362617, -8163.684089622986, -4237.667231281666, -2982.9073527940936, -4794.069206007624, -3961.2879110917943, -11150.927680841409, -14381.559417433671, 0.012, -0.106, 0.988, 192.0, 0.0, 0.0, 0.0, 0.0, 0.0, 0.0, 0.0, 0.0, 0.0, 1.645920489432211E9, 0.0, 2022-02-27 11:08:09.432
136.0, -3399.320351996464, -6330.237547187513, -1613.7735979287147, -10569.357641858775, -1083.6796264266522, 490.46432858280286, -5370.140715854253, -2691.2394393967916, -2996.7654343563836, -7492.327093163382, -4165.15817226865, -2977.5205823803644, -4776.813659288127, -3886.7001398444345, -11001.573324391047, -13673.456153089543, 0.016, -0.098, 0.986, 192.0, 0.0, 64.0, 126.0, 120.0, 15.0, 104.0, 0.0, 0.0, 0.0, 1.645920489440188E9, 0.0, 2022-02-27 11:08:09.440
138.0, -3520.6679726443263, -6354.377431199245, -1642.56264478715, -10661.312718547908, -1214.459683234654, 420.97275507125323, -5379.282579336475, -2809.5025193098213, -5317.524709406461, -8443.840854625805, -4217.21538510506, -3204.323733368365, -4748.382240340977, -3970.742698996389, -11457.750076979408, -14861.026687744463, 0.016, -0.098, 0.986, 192.0, 0.0, 0.0, 0.0, 0.0, 0.0, 0.0, 0.0, 0.0, 0.0, 1.645920489447446E9, 0.0, 2022-02-27 11:08:09.447
140.0, -3636.9417473008334, -6479.211923982135, -1720.9949160808226, -10712.319399394919, -1299.9104022872928, 323.0721143570083, -5365.983291385566, -2695.1733464209256, -2637.975232359795, -7572.92748366922, -4171.573122927323, -2841.443162136455, -4802.831089834105, -3895.998465537842, -10862.903101790322, -13641.56021375182, 0.016, -0.098, 0.986, 192.0, 0.0, 0.0, 0.0, 0.0, 0.0, 0.0, 0.0, 0.0, 0.0, 1.645920489461833E9, 0.0, 2022-02-27 11:08:09.461
142.0, -3309.2875253304874, -6243.333964745279, -1552.9768530102795, -10538.51223451045, -1027.8002652883847, 546.5448554211683, -5375.2369135900635, -2761.2451030308134, -4618.3174393555455, -8014.597954106088, -4174.702367151066, -3196.500622809008, -4737.407533813422, -3927.559128708736, -11359.737677542887, -14412.605990482092, 0.016, -0.098, 0.986, 192.0, 0.0, 0.0, 0.0, 0.0, 0.0, 0.0, 0.0, 0.0, 0.0, 1.645920489469873E9, 0.0, 2022-02-27 11:08:09.469
144.0, -3715.0387424276764, -6491.818307854928, -1744.754820436814, -10766.65649016577, -1368.3290920649877, 276.15580274531874, -5376.913294424212, -2759.0546320741933, -4127.920166006108, -8171.708365882441, -4215.315486826359, -2975.1289457236467, -4784.23443844729, -3950.6037772421573, -11150.212425018839, -14396.780955407734, 0.016, -0.098, 0.986, 192.0, 0.0, 0.0, 0.0, 0.0, 0.0, 0.0, 0.0, 0.0, 0.0, 1.645920489476983E9, 0.0, 2022-02-27 11:08:09.476
146.0, -3382.1095087658778, -6317.407645870167, -1601.4130832449298, -10567.860074980268, -1079.9245333581607, 480.7636714891996, -5381.473050293094, -2699.286067400702, -2947.636300043619, -7476.077374944374, -4153.490561662979, -2965.7859165413283, -4768.901141750949, -3880.3745961635827, -10978.79689679109, -13649.115103377713, 0.012, -0.108, 0.992, 192.0, 0.0, 48.0, 126.0, 80.0, 15.5, 0.0, 0.0, 0.0, 0.0, 1.645920489484393E9, 0.0, 2022-02-27 11:08:09.484
148.0, -3494.3376176759743, -6338.306526935879, -1631.3644208150413, -10655.925948134178, -1205.4519302191652, 413.3731619564488, -5383.283541593974, -2806.8426617196396, -5317.547061150916, -8427.501729428976, -4209.414626290158, -3200.2110123885886, -4742.302565849133, -3969.200428628973, -11456.900710690106, -14856.802208042409, 0.012, -0.108, 0.992, 192.0, 0.0, 0.0, 0.0, 0.0, 0.0, 0.0, 0.0, 0.0, 0.0, 1.645920489492362E9, 0.0, 2022-02-27 11:08:09.492
150.0, -3623.2848314386406, -6457.709545816129, -1719.1173695465768, -10706.709111536637, -1313.2543937271112, 317.48417824318153, -5388.469146307605, -2706.706846559864, -2650.2463400657584, -7573.978015658619, -4166.856904847254, -2835.4975981113435, -4801.75820610025, -3889.0023695233313, -10864.557130880015, -13651.149112123147, 0.012, -0.108, 0.992, 192.0, 0.0, 0.0, 0.0, 0.0, 0.0, 0.0, 0.0, 0.0, 0.0, 1.645920489500501E9, 0.0, 2022-02-27 11:08:09.500
152.0, -3306.806481695948, -6234.348563474246, -1555.435544900363, -10531.672600707127, -1048.2968149539013, 540.3981256959588, -5382.411823560217, -2780.936989895939, -4572.406956244345, -7968.933340183895, -4174.59060842879, -3177.7475092110053, -4746.169417639901, -3916.517366947814, -11357.882482753097, -14378.027841809731, 0.012, -0.108, 0.992, 192.0, 0.0, 0.0, 0.0, 0.0, 0.0, 0.0, 0.0, 0.0, 0.0, 1.645920489507024E9, 0.0, 2022-02-27 11:08:09.507
154.0, -3706.746245234757, -6479.23427572659, -1738.7422011783365, -10762.387306974806, -1389.1162144084233, 268.71267184170154, -5401.88019298079, -2807.8261384756734, -4185.587666700801, -8173.3400432276785, -4220.322277584348, -2980.7168818374735, -4801.892316566982, -3943.3394602941826, -11177.526256743224, -14424.608877254592, 0.013000000000000001, -0.107, 0.99, 192.0, 0.0, 56.0, 126.0, 88.0, 15.0, 112.0, 0.0, 0.0, 0.0, 1.645920489514071E9, 0.0, 2022-02-27 11:08:09.514
156.0, -3392.458366448685, -6318.078198203826, -1606.9786676143012, -10570.944615715101, -1110.6581819842079, 470.07953763956283, -5377.785012457969, -2688.19960215087, -2915.2709740723344, -7450.641089754235, -4151.30009070636, -2951.1008204341915, -4786.760185570739, -3865.9577209899094, -10984.340129416005, -13633.759454936917, 0.013000000000000001, -0.107, 0.99, 192.0, 0.0, 0.0, 0.0, 0.0, 0.0, 0.0, 0.0, 0.0, 0.0, 1.645920489523279E9, 0.0, 2022-02-27 11:08:09.523
158.0, -3501.668989857315, -6342.553358382387, -1634.18074061641, -10659.837503413857, -1218.1477210697797, 400.8561850614769, -5386.658655006726, -2812.832929233662, -5341.0163928289885, -8425.735941617006, -4219.249393850493, -3210.805739260404, -4768.163534183924, -3969.5357047958023, -11472.457524831001, -14858.679754576655, 0.013000000000000001, -0.107, 0.99, 192.0, 0.0, 0.0, 0.0, 0.0, 0.0, 0.0, 0.0, 0.0, 0.0, 1.645920489530094E9, 0.0, 2022-02-27 11:08:09.530
160.0, -3647.916453828389, -6484.352825206855, -1721.464302714384, -10723.159995455742, -1328.3641729788988, 289.38803546286056, -5381.6965677376475, -2716.832186798118, -2698.5037563447663, -7601.984751461119, -4185.364149256247, -2851.926130285994, -4825.004020333769, -3902.838099341166, -10875.375375196383, -13677.926501980604, 0.013000000000000001, -0.107, 0.99, 192.0, 0.0, 0.0, 0.0, 0.0, 0.0, 0.0, 0.0, 0.0, 0.0, 1.645920489536742E9, 0.0, 2022-02-27 11:08:09.536
162.0, -3309.868670686325, -6244.5633106903215, -1550.3169954200978, -10537.282888565409, -1052.9236260561497, 528.7528668347438, -5396.761643500525, -2772.3539200251007, -4527.502301633633, -7971.14616288497, -4179.217419531038, -3193.326675096354, -4757.948786967849, -3919.11016930463, -11346.639555292077, -14362.51573115775, 0.013000000000000001, -0.107, 0.99, 192.0, 0.0, 0.0, 0.0, 0.0, 0.0, 0.0, 0.0, 0.0, 0.0, 1.645920489544724E9, 0.0, 2022-02-27 11:08:09.544
164.0, -3703.2817248441847, -6478.407261181744, -1737.468151744384, -10762.901397097277, -1390.2785051200992, 270.567866631492, -5381.830678204379, -2791.2411440898354, -4242.763429017476, -8196.295284783278, -4219.40585606168, -2992.049216276314, -4799.679493865907, -3947.228663829406, -11182.756564945767, -14446.848862987623, 0.0145, -0.1065, 0.99, 192.0, 0.0, 64.0, 126.0, 88.0, 15.0, 120.0, 0.0, 0.0, 0.0, 1.64592048955277E9, 0.0, 2022-02-27 11:08:09.552
166.0, -3391.0502065480005, -6317.385294125712, -1603.469443734818, -10571.95044421559, -1113.7874262079508, 474.1922586193393, -5396.582829544882, -2716.452207142378, -2879.955217832949, -7441.767447205478, -4154.049355274362, -2935.8792824601273, -4796.371435686521, -3864.326043644672, -10969.699736797778, -13621.443643742043, 0.0145, -0.1065, 0.99, 192.0, 0.0, 0.0, 0.0, 0.0, 0.0, 0.0, 0.0, 0.0, 0.0, 1.645920489559327E9, 0.0, 2022-02-27 11:08:09.559
168.0, -3484.771071049103, -6332.562128610865, -1624.927118411913, -10644.77242765098, -1209.7881686434948, 421.5762521715465, -5398.035692934477, -2821.5054060823213, -5336.72485789357, -8408.323932686322, -4208.766425700954, -3193.594896029818, -4752.316147365111, -3957.845742445677, -11474.849161487718, -14860.199673199615, 0.0145, -0.1065, 0.99, 192.0, 0.0, 0.0, 0.0, 0.0, 0.0, 0.0, 0.0, 0.0, 0.0, 1.645920489567383E9, 0.0, 2022-02-27 11:08:09.567
170.0, -3668.681224427369, -6507.039845828992, -1733.7354104203475, -10728.74793156957, -1335.5614346935076, 296.60764892192475, -5357.44492500364, -2715.6251925975316, -2741.4191056989557, -7612.490071355113, -4186.660550434655, -2842.806618548229, -4829.653183180473, -3891.9975032803422, -10875.19656124074, -13686.84484801827, 0.0145, -0.1065, 0.99, 192.0, 0.0, 0.0, 0.0, 0.0, 0.0, 0.0, 0.0, 0.0, 0.0, 1.645920489582596E9, 0.0, 2022-02-27 11:08:09.582
172.0, -3323.614993526339, -6268.412622024134, -1554.6979373333381, -10541.70853396756, -1045.30168119689, 531.8374075695763, -5379.371986314295, -2759.8816466190397, -4496.589839051943, -7967.122848883016, -4180.06678582034, -3202.356779856298, -4764.408441115433, -3921.166529794518, -11329.33930508367, -14336.297134911674, 0.0145, -0.1065, 0.99, 192.0, 0.0, 0.0, 0.0, 0.0, 0.0, 0.0, 0.0, 0.0, 0.0, 1.645920489589013E9, 0.0, 2022-02-27 11:08:09.589
174.0, -3729.232100156796, -6514.14770056578, -1745.1348000925543, -10775.70894667017, -1390.3455603534653, 265.00228226212056, -5371.280654821474, -2789.3412458111343, -4316.658296186722, -8234.516767801853, -4226.021972420451, -3027.7002486825286, -4810.162462015446, -3957.801038956766, -11192.88190518402, -14473.469790633893, 0.01625, -0.10725, 0.99, 192.0, 0.0, 72.0, 126.0, 80.0, 15.0, 120.0, 0.0, 0.0, 0.0, 1.64592048959787E9, 0.0, 2022-02-27 11:08:09.597
176.0, -3434.189073346743, -6368.794306372918, -1623.2507375777648, -10592.983435748034, -1129.7912752379507, 450.85703740799875, -5366.676195463681, -2696.290933643691, -2878.323540487712, -7468.09780217383, -4166.342814724781, -2969.7421753099175, -4811.6153254050405, -3881.2463141973394, -10959.97672795972, -13616.101576817224, 0.01625, -0.10725, 0.99, 192.0, 0.0, 0.0, 0.0, 0.0, 0.0, 0.0, 0.0, 0.0, 0.0, 1.645920489605018E9, 0.0, 2022-02-27 11:08:09.605
178.0, -3504.798234081058, -6364.25690224849, -1628.9951359027787, -10654.093105088843, -1196.8241568594167, 421.66565914936774, -5380.266056092508, -2836.6822405674748, -5378.947303169644, -8437.71647664505, -4222.602155518789, -3232.6657453376947, -4770.175191184901, -3971.54736179678, -11470.825847485763, -14865.89936803572, 0.01625, -0.10725, 0.99, 192.0, 0.0, 0.0, 0.0, 0.0, 0.0, 0.0, 0.0, 0.0, 0.0, 1.645920489612175E9, 0.0, 2022-02-27 11:08:09.612
180.0, -3678.985378621266, -6515.891136633294, -1733.5789482091604, -10733.55355662746, -1332.968632336692, 289.5221459295924, -5364.955111140623, -2714.552308863677, -2776.8242689161625, -7640.496807157613, -4186.951123112574, -2856.597644877153, -4828.602651191074, -3899.4182824395043, -10874.973043796188, -13714.829232076316, 0.01625, -0.10725, 0.99, 192.0, 0.0, 0.0, 0.0, 0.0, 0.0, 0.0, 0.0, 0.0, 0.0, 1.645920489619664E9, 0.0, 2022-02-27 11:08:09.619
182.0, -3334.030906442512, -6279.566142507332, -1559.6600246024161, -10543.586080501806, -1045.1675707301583, 531.7032971028444, -5361.803515172424, -2766.1848385554363, -4453.115696086371, -7943.273537549203, -4180.200896287071, -3192.209087873589, -4770.08578420708, -3916.427959969993, -11315.838851432663, -14316.202916646353, 0.01625, -0.10725, 0.99, 192.0, 0.0, 0.0, 0.0, 0.0, 0.0, 0.0, 0.0, 0.0, 0.0, 1.645920489627694E9, 0.0, 2022-02-27 11:08:09.627
184.0, -3742.173760196419, -6528.095189105891, -1742.653756458015, -10780.22399905014, -1383.41651957232, 268.35504393041657, -5368.710204209114, -2793.1410423685365, -4378.4161661167345, -8260.690660559017, -4233.26393762397, -3042.6088622342186, -4812.934078327904, -3958.4715912904253, -11201.509678543769, -14506.706834638935, 0.016125, -0.107625, 0.989, 192.0, 0.0, 64.0, 126.0, 80.0, 15.0, 112.0, 0.0, 0.0, 0.0, 1.645920489634658E9, 0.0, 2022-02-27 11:08:09.634
186.0, -3466.219123151198, -6391.682492695152, -1626.6705544794268, -10598.90664802869, -1125.723257747085, 456.40027003291493, -5363.546951239938, -2695.553326076666, -2841.4878656253654, -7473.57397956538, -4171.953102583063, -2972.8043643002948, -4806.496775924776, -3878.7652705628007, -10945.381038830405, -13605.573905178775, 0.016125, -0.107625, 0.989, 192.0, 0.0, 0.0, 0.0, 0.0, 0.0, 0.0, 0.0, 0.0, 0.0, 1.64592048964194E9, 0.0, 2022-02-27 11:08:09.641
188.0, -3528.1781587813093, -6378.4055564887, -1635.3206795836306, -10650.002735853523, -1198.52288943802, 443.63742394893455, -5386.770413729002, -2797.991370915338, -5388.200925374142, -8431.949726575582, -4236.169664403161, -3240.175931474678, -4776.61249358803, -3964.327748337716, -11474.089202176237, -14861.630184844755, 0.016125, -0.107625, 0.989, 192.0, 0.0, 0.0, 0.0, 0.0, 0.0, 0.0, 0.0, 0.0, 0.0, 1.645920489649299E9, 0.0, 2022-02-27 11:08:09.649
190.0, -3722.4148180979278, -6543.137913124313, -1745.1348000925543, -10739.65558286376, -1347.4749144881862, 296.20531752172917, -5353.131038323765, -2703.3317331471126, -2828.0991706966365, -7665.307243503004, -4213.21442284756, -2862.8337815801838, -4839.286785040711, -3898.5018609168364, -10881.879732832878, -13737.00216257598, 0.016125, -0.107625, 0.989, 192.0, 0.0, 0.0, 0.0, 0.0, 0.0, 0.0, 0.0, 0.0, 0.0, 1.645920489657341E9, 0.0, 2022-02-27 11:08:09.657
192.0, -3356.382650897819, -6293.737148491997, -1561.604626370028, -10544.390743302196, -1038.3726404157449, 549.5399891781794, -5344.480913219561, -2744.123666778048, -4415.251840979081, -7925.660362918421, -4193.1649080711495, -3182.776651713449, -4769.147010939957, -3916.5620704367248, -11305.534697238767, -14295.59460825856, 0.016125, -0.107625, 0.989, 192.0, 0.0, 0.0, 0.0, 0.0, 0.0, 0.0, 0.0, 0.0, 0.0, 1.645920489664421E9, 0.0, 2022-02-27 11:08:09.664
194.0, -3757.976443526321, -6538.600508999885, -1746.7664774377915, -10777.854714137879, -1385.383473084387, 290.1256430298857, -5353.175741812675, -2779.8864579065394, -4449.472361740156, -8269.273730429857, -4243.74690577351, -3047.950929159037, -4806.653238135963, -3952.3695650541267, -11213.93724846092, -14533.595983218669, 0.0160625, -0.1088125, 0.9884999999999999, 192.0, 0.0, 64.0, 126.0, 72.0, 15.0, 112.0, 0.0, 0.0, 0.0, 1.645920489672106E9, 0.0, 2022-02-27 11:08:09.672
196.0, -3483.407614637329, -6409.31801907039, -1636.661784250949, -10613.547040646916, -1130.3500688493334, 448.84538040702114, -5339.205901528108, -2679.4600700688447, -2825.7522375288295, -7460.319395103383, -4176.468154963035, -2972.8714195336606, -4805.960334057848, -3868.7740407912784, -10934.853367191956, -13597.303759730312, 0.0160625, -0.1088125, 0.9884999999999999, 192.0, 0.0, 0.0, 0.0, 0.0, 0.0, 0.0, 0.0, 0.0, 0.0, 1.645920489680008E9, 0.0, 2022-02-27 11:08:09.680
198.0, -3527.664068658837, -6386.139260070237, -1636.7735429732256, -10656.842369656846, -1189.202212000157, 430.7404673982224, -5362.876398906279, -2804.6521907630195, -5397.342788856362, -8431.681505642116, -4234.761504502476, -3265.902789342736, -4770.6445778184625, -3973.9613501979534, -11472.79280099783, -14863.574786612367, 0.0160625, -0.1088125, 0.9884999999999999, 192.0, 0.0, 0.0, 0.0, 0.0, 0.0, 0.0, 0.0, 0.0, 0.0, 1.645920489688004E9, 0.0, 2022-02-27 11:08:09.688
200.0, -3738.6421845724803, -6555.833703974928, -1758.1882188544535, -10751.993745803089, -1352.1017255904349, 285.7447011166455, -5348.124247565776, -2708.003247738272, -2861.7161943574183, -7690.564714737501, -4208.587611745312, -2883.0397585677815, -4836.67163093944, -3910.7282651338896, -10888.495849191648, -13756.358773274276, 0.0160625, -0.1088125, 0.9884999999999999, 192.0, 0.0, 0.0, 0.0, 0.0, 0.0, 0.0, 0.0, 0.0, 0.0, 1.645920489694583E9, 0.0, 2022-02-27 11:08:09.694
202.0, -3369.748994082093, -6307.639933543198, -1575.2615422322206, -10546.268289836442, -1037.5456258708984, 548.780029866699, -5359.031898859966, -2745.822399356651, -4371.86710499133, -7914.640952901955, -4197.50114649548, -3192.3431983403207, -4779.339406411577, -3919.5795559381913, -11302.830136159675, -14271.767648669202, 0.0160625, -0.1088125, 0.9884999999999999, 192.0, 0.0, 0.0, 0.0, 0.0, 0.0, 0.0, 0.0, 0.0, 0.0, 1.645920489709629E9, 0.0, 2022-02-27 11:08:09.709
204.0, -3756.009490014254, -6528.653982717274, -1754.4778292748726, -10768.42227797774, -1381.673083504806, 294.41717796530463, -5371.72768971058, -2784.893248664528, -4499.3391036199455, -8284.383509681644, -4247.546702330912, -3046.4533622805316, -4812.151767271968, -3953.330690065705, -11238.099484217106, -14556.327707329716, 0.01603125, -0.10740625000000001, 0.98925, 192.0, 0.0, 64.0, 126.0, 88.0, 15.0, 120.0, 0.0, 0.0, 0.0, 1.645920489717617E9, 0.0, 2022-02-27 11:08:09.717
206.0, -3491.8789257858907, -6405.138242857247, -1646.4294965779181, -10603.801680064402, -1132.0264496834816, 456.6461392219233, -5347.967785354589, -2679.10244215756, -2789.74357721133, -7443.33206931735, -4174.59060842879, -2938.9414714505047, -4815.593935918086, -3862.2249796658734, -10940.083675394497, -13578.394183921122, 0.01603125, -0.10740625000000001, 0.98925, 192.0, 0.0, 0.0, 0.0, 0.0, 0.0, 0.0, 0.0, 0.0, 0.0, 1.645920489724278E9, 0.0, 2022-02-27 11:08:09.724
208.0, -3513.090731273977, -6370.247169762513, -1631.6773452374155, -10646.024125340477, -1172.974845525604, 456.3108630550937, -5368.978425142578, -2805.1662808854917, -5385.026977661488, -8393.437670879088, -4230.6487835227, -3245.361536188309, -4768.074127206102, -3961.1538006250626, -11479.006585956406, -14847.347420137814, 0.01603125, -0.10740625000000001, 0.98925, 192.0, 0.0, 0.0, 0.0, 0.0, 0.0, 0.0, 0.0, 0.0, 0.0, 1.645920489732221E9, 0.0, 2022-02-27 11:08:09.732
210.0, -3738.463370616838, -6557.979471442637, -1758.6799572324703, -10758.229882506119, -1359.7460221941499, 289.09746278494157, -5351.655823189714, -2712.2724309292357, -2889.5664679487313, -7701.315903820504, -4212.722684469543, -2879.955217832949, -4831.95541285937, -3905.944991820454, -10897.324788251495, -13773.81548569387, 0.01603125, -0.10740625000000001, 0.98925, 192.0, 0.0, 0.0, 0.0, 0.0, 0.0, 0.0, 0.0, 0.0, 0.0, 1.645920489740358E9, 0.0, 2022-02-27 11:08:09.740
212.0, -3364.4739823906402, -6304.622448041731, -1572.4005189419413, -10552.660888750659, -1039.8925590387057, 547.2824629881934, -5351.186436556153, -2748.191684268914, -4300.52033668999, -7894.636141614455, -4194.126033082728, -3182.843706946815, -4773.796173786661, -3917.2996780037497, -11285.842810373642, -14239.402322697917, 0.01603125, -0.10740625000000001, 0.98925, 192.0, 0.0, 0.0, 0.0, 0.0, 0.0, 0.0, 0.0, 0.0, 0.0, 1.645920489747462E9, 0.0, 2022-02-27 11:08:09.747
214.0, -3752.299100434673, -6527.983430383615, -1740.4185820124844, -10774.837228636412, -1369.513734521119, 298.99928557864257, -5358.383698270763, -2791.3081993232013, -4535.571281381998, -8302.555477923808, -4244.663327296177, -3054.209417606523, -4797.4666711648315, -3963.679547748512, -11236.065475471672, -14567.391820835093, 0.015015625000000001, -0.10570312500000001, 0.988625, 192.0, 0.0, 56.0, 126.0, 96.0, 15.0, 112.0, 0.0, 0.0, 0.0, 1.645920489754785E9, 0.0, 2022-02-27 11:08:09.754
216.0, -3500.5514026345495, -6408.848632436828, -1638.6734412519268, -10614.061130769389, -1144.7669440230065, 445.269101294172, -5358.115477337298, -2704.2034511808697, -2755.2995390057017, -7447.645955997224, -4177.9657218415405, -2939.6567272730745, -4804.351008457066, -3877.9159042734987, -10921.844651918967, -13573.610910607686, 0.015015625000000001, -0.10570312500000001, 0.988625, 192.0, 0.0, 0.0, 0.0, 0.0, 0.0, 0.0, 0.0, 0.0, 0.0, 1.645920489761833E9, 0.0, 2022-02-27 11:08:09.761
218.0, -3509.8720800724127, -6359.048945790404, -1627.2964033241753, -10641.82199738288, -1163.721223321107, 466.4809067822584, -5364.664538462704, -2797.566687770687, -5379.237875847563, -8402.71364482804, -4233.97919344654, -3243.327527442876, -4760.340423624566, -3965.199466371473, -11480.928835979563, -14841.178338668149, 0.015015625000000001, -0.10570312500000001, 0.988625, 192.0, 0.0, 0.0, 0.0, 0.0, 0.0, 0.0, 0.0, 0.0, 0.0, 1.645920489769983E9, 0.0, 2022-02-27 11:08:09.769
220.0, -3735.9376234933884, -6542.4003055572875, -1757.9870531543559, -10759.436876706706, -1347.02787959908, 302.4861577136705, -5343.609195185804, -2718.5309193767216, -2920.4789305304207, -7705.942714922752, -4216.0530943933845, -2866.834743837684, -4822.925308099426, -3892.8692213140994, -10900.386977241871, -13786.198352122112, 0.015015625000000001, -0.10570312500000001, 0.988625, 192.0, 0.0, 0.0, 0.0, 0.0, 0.0, 0.0, 0.0, 0.0, 0.0, 1.6459204897764E9, 0.0, 2022-02-27 11:08:09.776
222.0, -3363.6022643568836, -6298.8556979722625, -1579.731891123282, -10550.626880005228, -1023.6428408196975, 552.3339572350928, -5352.862817390302, -2724.901166546484, -4246.183245919138, -7867.590530823533, -4200.988018630507, -3170.371433540754, -4759.044022446158, -3909.588326166669, -11278.109106792106, -14206.277037415151, 0.015015625000000001, -0.10570312500000001, 0.988625, 192.0, 0.0, 0.0, 0.0, 0.0, 0.0, 0.0, 0.0, 0.0, 0.0, 1.64592048978453E9, 0.0, 2022-02-27 11:08:09.784
224.0, -3754.64603360248, -6529.212776328657, -1753.3378903076518, -10782.034490351021, -1359.0754698604906, 294.81950936550015, -5359.501285493528, -2798.550164526721, -4595.786880944595, -8318.559326953808, -4258.74492630302, -3069.9897491919696, -4793.666874607429, -3965.8029634717664, -11256.293804203726, -14586.971948977942, 0.014507812500000002, -0.1058515625, 0.9883124999999999, 192.0, 0.0, 56.0, 126.0, 88.0, 15.0, 112.0, 0.0, 0.0, 0.0, 1.645920489792488E9, 0.0, 2022-02-27 11:08:09.792
226.0, -3529.1616355373426, -6434.486083327065, -1669.8094212781693, -10632.814244367391, -1145.169275423202, 430.5169499536693, -5309.120453491265, -2674.5873897775878, -2748.102277291093, -7466.3767178507715, -4198.082291851317, -2959.2592071603785, -4801.5793921446075, -3890.812860824211, -10916.524936738604, -13568.87234078316, 0.014507812500000002, -0.1058515625, 0.9883124999999999, 192.0, 0.0, 0.0, 0.0, 0.0, 0.0, 0.0, 0.0, 0.0, 0.0, 1.645920489799596E9, 0.0, 2022-02-27 11:08:09.799
228.0, -3522.2996499895635, -6373.622283175264, -1644.2613773657536, -10646.58291895186, -1169.4209181572103, 445.5149704831804, -5334.824959614869, -2783.999178886316, -5394.884096966279, -8418.136348502201, -4254.8557227677975, -3273.8153068799147, -4768.208237672834, -3991.5745248287353, -11479.140696423137, -14833.489338575524, 0.014507812500000002, -0.1058515625, 0.9883124999999999, 192.0, 0.0, 0.0, 0.0, 0.0, 0.0, 0.0, 0.0, 0.0, 0.0, 1.645920489807039E9, 0.0, 2022-02-27 11:08:09.807
230.0, -3758.8034580711674, -6559.119410409858, -1773.7450329953472, -10765.494199454093, -1351.74409767915, 276.0663957674975, -5320.743360608025, -2703.2646779137467, -2980.7615853263837, -7741.794913029064, -4232.056943423384, -2889.387653993089, -4828.848520380083, -3931.425980499504, -10906.06432033352, -13805.622018053773, 0.014507812500000002, -0.1058515625, 0.9883124999999999, 192.0, 0.0, 0.0, 0.0, 0.0, 0.0, 0.0, 0.0, 0.0, 0.0, 1.645920489815184E9, 0.0, 2022-02-27 11:08:09.815
232.0, -3375.4933924071065, -6302.946067207583, -1589.4548999613405, -10549.486941038007, -1033.7681810579516, 534.7431343487661, -5337.775389882969, -2737.8651783305622, -4215.606059504278, -7850.916129459874, -4204.7878151879095, -3172.9642358975693, -4765.011938215725, -3925.838044385677, -11266.910882819997, -14180.974862691744, 0.014507812500000002, -0.1058515625, 0.9883124999999999, 192.0, 0.0, 0.0, 0.0, 0.0, 0.0, 0.0, 0.0, 0.0, 0.0, 1.645920489829319E9, 0.0, 2022-02-27 11:08:09.829
234.0, -3754.7354405803017, -6518.707456434662, -1754.7684019527915, -10774.390193747306, -1361.7353274506722, 284.0012650491315, -5346.1796457981645, -2788.5812864996537, -4661.277492198646, -8329.243460803445, -4264.377565905758, -3079.265723140922, -4802.361703200544, -3978.7222717669338, -11271.314176477692, -14608.586085866224, 0.014, -0.10400000000000001, 0.99, 192.0, 0.0, 56.0, 126.0, 96.0, 15.0, 120.0, 0.0, 0.0, 0.0, 1.64592048983678E9, 0.0, 2022-02-27 11:08:09.836
236.0, -3526.993516325178, -6418.057551152415, -1667.7977642771918, -10630.422607710672, -1153.3053104049338, 417.0835515360298, -5336.121360793276, -2683.4386805818895, -2729.215053226358, -7443.846159439821, -4196.182393572616, -2938.4273813280324, -4803.14401425648, -3889.8964393015435, -10914.535631482082, -13553.919023742561, 0.014, -0.10400000000000001, 0.99, 192.0, 0.0, 0.0, 0.0, 0.0, 0.0, 0.0, 0.0, 0.0, 0.0, 1.645920489844722E9, 0.0, 2022-02-27 11:08:09.844
238.0, -3504.7758823366025, -6349.3482886968, -1639.433400563407, -10639.475064215072, -1158.0885837183696, 446.9901856172306, -5360.752983183024, -2798.0807778931594, -5393.6100475323265, -8388.296769654366, -4248.977213976052, -3260.337204973365, -4761.726231780795, -3974.5871990427017, -11490.160106439604, -14823.498108804002, 0.014, -0.10400000000000001, 0.99, 192.0, 0.0, 0.0, 0.0, 0.0, 0.0, 0.0, 0.0, 0.0, 0.0, 1.645920489852709E9, 0.0, 2022-02-27 11:08:09.852
240.0, -3765.687795363402, -6549.932843438726, -1778.327140608685, -10768.84696112239, -1362.450583273242, 269.8526108089222, -5340.569357939882, -2713.1217972185373, -3028.9295946275706, -7750.377982899903, -4233.509806812979, -2886.504278958354, -4830.010811091758, -3919.065465815719, -10921.934058896788, -13824.196317696133, 0.014, -0.10400000000000001, 0.99, 192.0, 0.0, 0.0, 0.0, 0.0, 0.0, 0.0, 0.0, 0.0, 0.0, 1.645920489859323E9, 0.0, 2022-02-27 11:08:09.859
242.0, -3372.453555161185, -6295.882915959706, -1584.7163301368155, -10551.252728849975, -1038.0373642489153, 533.8490645705539, -5342.312794007396, -2733.998326539794, -4167.326291480815, -7831.336001317025, -4205.614829732755, -3172.360738797276, -4762.508542836731, -3915.7350558918783, -11254.505664647302, -14151.403504777374, 0.014, -0.10400000000000001, 0.99, 192.0, 0.0, 0.0, 0.0, 0.0, 0.0, 0.0, 0.0, 0.0, 0.0, 1.645920489867435E9, 0.0, 2022-02-27 11:08:09.867
244.0, -3742.4419811298826, -6501.027226570514, -1757.9870531543559, -10767.438801221706, -1356.2815018035772, 286.7728813615896, -5350.024145844477, -2787.284885321246, -4714.072312602081, -8344.330888310777, -4260.220141437071, -3088.8099180233385, -4788.637732104985, -3969.9827396849087, -11274.979862568363, -14622.645333128612, 0.01, -0.108, 0.99, 192.0, 0.0, 40.0, 126.0, 80.0, 15.0, 120.0, 0.0, 0.0, 0.0, 1.645920489875329E9, 0.0, 2022-02-27 11:08:09.875
246.0, -3532.1120658054433, -6414.123644128281, -1687.0649679976664, -10623.20299425161, -1160.457868630632, 415.2283567462393, -5347.900730121223, -2681.650541025465, -2714.507605374766, -7446.394258307727, -4196.003579616974, -2931.4536370579767, -4803.769863101228, -3883.034453753764, -10903.471517976704, -13542.474930581444, 0.01, -0.108, 0.99, 192.0, 0.0, 0.0, 0.0, 0.0, 0.0, 0.0, 0.0, 0.0, 0.0, 1.645920489882477E9, 0.0, 2022-02-27 11:08:09.882
248.0, -3477.149126189843, -6326.057770974371, -1641.2885953531977, -10614.530517402949, -1140.2518916430345, 465.2068573483059, -5369.1348873537645, -2805.5686122856873, -5376.622721746293, -8372.047051435358, -4234.180359146638, -3244.4451146656415, -4751.019746186704, -3964.5065622933585, -11478.671309789575, -14806.421376040147, 0.01, -0.108, 0.99, 192.0, 0.0, 0.0, 0.0, 0.0, 0.0, 0.0, 0.0, 0.0, 0.0, 1.645920489889142E9, 0.0, 2022-02-27 11:08:09.889
250.0, -3765.1960569853854, -6550.53634053902, -1792.1181669376097, -10762.052030807976, -1359.7236704496945, 255.0557559795089, -5320.9445263081225, -2702.0800354576154, -3058.2327316084784, -7763.29729119507, -4218.735303728021, -2874.9707788194155, -4815.169252773435, -3919.2666315158167, -10916.25671580514, -13839.2166899701, 0.01, -0.108, 0.99, 192.0, 0.0, 0.0, 0.0, 0.0, 0.0, 0.0, 0.0, 0.0, 0.0, 1.645920489897066E9, 0.0, 2022-02-27 11:08:09.897
252.0, -3381.148383754299, -6304.465985830544, -1604.1623478129325, -10548.347002070786, -1031.0189164899489, 514.492453872258, -5336.031953815455, -2730.1091230045704, -4114.285601888371, -7822.060027368073, -4198.596381973789, -3159.5308374799297, -4763.804944015139, -3926.642707186068, -11239.41823713997, -14125.877812609413, 0.01, -0.108, 0.99, 192.0, 0.0, 0.0, 0.0, 0.0, 0.0, 0.0, 0.0, 0.0, 0.0, 1.64592048990501E9, 0.0, 2022-02-27 11:08:09.905
254.0, -3753.8413708020894, -6513.633610443308, -1765.720756735892, -10768.489333211104, -1350.224179056189, 276.6251893788802, -5342.91629110769, -2788.9165626664835, -4765.1236969380025, -8365.095658909757, -4260.600121092811, -3101.148080962668, -4789.174173971913, -3985.807774759266, -11289.508496464312, -14644.99707758392, 0.012, -0.108, 0.988, 192.0, 0.0, 48.0, 126.0, 80.0, 15.0, 112.0, 0.0, 0.0, 0.0, 1.645920489911696E9, 0.0, 2022-02-27 11:08:09.911
0.0, -3557.302481806574, -6438.218824651101, -1701.14656700451, -10639.564471192894, -1164.3470721658555, 394.79886231408864, -5328.186491511642, -2673.2686368547247, -2703.443491869389, -7465.125020161274, -4197.009408117462, -2945.088201175714, -4801.802909589161, -3900.9605528069205, -10899.627017930392, -13538.786892746317, 0.012, -0.108, 0.988, 192.0, 0.0, 0.0, 0.0, 0.0, 0.0, 0.0, 0.0, 0.0, 0.0, 1.645920489919688E9, 0.0, 2022-02-27 11:08:09.919
2.0, -3483.474669870695, -6338.373582169245, -1641.020374419734, -10632.143692033731, -1127.198472881135, 447.2584065506943, -5346.872549876279, -2791.93404816795, -5371.660634477214, -8385.547505086364, -4238.427190593146, -3274.7317284025826, -4753.65725203243, -3979.057547933763, -11482.426402858067, -14801.191067837604, 0.012, -0.108, 0.988, 192.0, 0.0, 0.0, 0.0, 0.0, 0.0, 0.0, 0.0, 0.0, 0.0, 1.645920489927658E9, 0.0, 2022-02-27 11:08:09.927
4.0, -3777.0648332911533, -6555.699593508196, -1793.235754160375, -10781.430993250728, -1358.4943245046527, 247.38910763133856, -5344.056230074911, -2716.96629726485, -3099.717569317528, -7784.978483316718, -4218.690600239111, -2887.800680136762, -4809.581316659608, -3932.6553264445456, -10927.879622921899, -13871.93964385267, 0.012, -0.108, 0.988, 192.0, 0.0, 0.0, 0.0, 0.0, 0.0, 0.0, 0.0, 0.0, 0.0, 1.645920489934741E9, 0.0, 2022-02-27 11:08:09.934
6.0, -3372.4759069056404, -6294.5194595479325, -1602.7765396567036, -10552.79499921739, -1024.2910414089015, 524.1484074769506, -5354.5168464799945, -2747.7893528687187, -4070.0738513557735, -7804.648018437389, -4193.410777260158, -3159.106154335279, -4755.646557288952, -3928.0955705756633, -11228.532937590235, -14104.062510021033, 0.012, -0.108, 0.988, 192.0, 0.0, 0.0, 0.0, 0.0, 0.0, 0.0, 0.0, 0.0, 0.0, 1.645920489942373E9, 0.0, 2022-02-27 11:08:09.942
8.0, -3733.3001176476623, -6499.19438352518, -1759.5516752662272, -10766.678841910225, -1341.2164260407003, 285.3200179719947, -5373.918160667201, -2804.1381006405477, -4801.959371800348, -8358.658356506628, -4240.014164449473, -3092.7885285363827, -4767.89531325046, -3981.5385915683023, -11295.5658192117, -14666.342993538738, 0.012, -0.108, 0.986, 192.0, 0.0, 48.0, 126.0, 80.0, 15.0, 104.0, 0.0, 0.0, 0.0, 1.645920489957261E9, 0.0, 2022-02-27 11:08:09.957
10.0, -3554.955548638767, -6435.000173449537, -1694.4186919234626, -10647.789913152446, -1175.3217786934113, 398.68806584931207, -5338.133017794254, -2667.8595146965404, -2670.7652414757304, -7448.718839731078, -4178.859791619753, -2928.883186445616, -4797.421967675921, -3899.1500615060404, -10890.172230025797, -13533.087197910214, 0.012, -0.108, 0.986, 192.0, 0.0, 0.0, 0.0, 0.0, 0.0, 0.0, 0.0, 0.0, 0.0, 1.645920489964528E9, 0.0, 2022-02-27 11:08:09.964
12.0, -3478.087899456966, -6331.221023943547, -1642.1156098980439, -10624.588802407838, -1133.4793130730764, 444.9561768717977, -5348.325413265874, -2794.280981335757, -5356.77437266998, -8364.98390018748, -4220.1658153731605, -3262.1700480187, -4741.475551304287, -3977.939960710998, -11472.926911464563, -14790.194009565594, 0.012, -0.108, 0.986, 192.0, 0.0, 0.0, 0.0, 0.0, 0.0, 0.0, 0.0, 0.0, 0.0, 1.645920489971854E9, 0.0, 2022-02-27 11:08:09.971
14.0, -3773.8685338340447, -6548.994070171603, -1802.6905420649698, -10776.357147259372, -1374.542877023563, 239.8565697499001, -5339.474122461573, -2738.9827655533277, -3157.3850700122202, -7810.8170999070535, -4210.30869606837, -2888.694749914974, -4810.363627715544, -3938.4667800029256, -10935.568623014526, -13898.001777887557, 0.012, -0.108, 0.986, 192.0, 0.0, 0.0, 0.0, 0.0, 0.0, 0.0, 0.0, 0.0, 0.0, 1.645920489979946E9, 0.0, 2022-02-27 11:08:09.979
16.0, -3368.8549243038806, -6290.093814145782, -1608.5656414706282, -10544.167225857644, -1033.1870357021137, 502.5789740775793, -5355.097991835832, -2740.770905109752, -4004.65029533509, -7767.924102297319, -4176.646968918678, -3136.307374990866, -4760.675699791396, -3923.558166451236, -11215.188946150416, -14081.978986499189, 0.012, -0.108, 0.986, 192.0, 0.0, 0.0, 0.0, 0.0, 0.0, 0.0, 0.0, 0.0, 0.0, 1.645920489987921E9, 0.0, 2022-02-27 11:08:09.987
18.0, -3716.7821784951902, -6479.793069337973, -1759.1493438660318, -10751.323193469429, -1346.5584929655188, 280.9837795476651, -5365.737422196558, -2800.539469783243, -4843.4889129983085, -8377.076193937803, -4233.353344601792, -3104.4561391420534, -4779.831144789594, -3983.93022822502, -11306.719339694899, -14685.699604237034, 0.012, -0.11, 0.986, 192.0, 0.0, 48.0, 126.0, 72.0, 15.0, 104.0, 0.0, 0.0, 0.0, 1.645920489994588E9, 0.0, 2022-02-27 11:08:09.994
20.0, -3540.60572869846, -6411.061455137904, -1702.0853402716327, -10629.57324142137, -1187.0787962769027, 384.24883893118374, -5343.855064374812, -2694.5251458317216, -2644.323127785102, -7431.418589522671, -4165.716965880032, -2906.5090902458537, -4796.103214753058, -3892.6680556140013, -10879.845724087445, -13532.908383954571, 0.012, -0.11, 0.986, 192.0, 0.0, 0.0, 0.0, 0.0, 0.0, 0.0, 0.0, 0.0, 0.0, 1.645920490002651E9, 0.0, 2022-02-27 11:08:10.002
22.0, -3451.712840999704, -6305.650628286676, -1633.599595260572, -10607.132089988243, -1130.9088624607161, 457.3613950444931, -5360.685927949658, -2810.0389611767487, -5327.0465525444215, -8321.97914385547, -4205.011332632463, -3234.7221058275827, -4739.575653025586, -3968.1275448951183, -11470.579978296755, -14784.15903856266, 0.012, -0.11, 0.986, 192.0, 0.0, 0.0, 0.0, 0.0, 0.0, 0.0, 0.0, 0.0, 0.0, 1.645920490009559E9, 0.0, 2022-02-27 11:08:10.009
24.0, -3751.9638242678434, -6530.91150890726, -1789.9947512143556, -10767.997594833088, -1378.2756183475994, 238.80603776050066, -5357.623738959282, -2745.6212336565536, -3176.071128376857, -7814.549841231089, -4192.427300504124, -2868.220551993913, -4802.898145067471, -3932.811788655733, -10936.574451515015, -13922.700455510672, 0.012, -0.11, 0.986, 192.0, 0.0, 0.0, 0.0, 0.0, 0.0, 0.0, 0.0, 0.0, 0.0, 1.645920490016644E9, 0.0, 2022-02-27 11:08:10.016
26.0, -3348.492485105096, -6272.994729637472, -1599.826109388603, -10541.552071756372, -1040.1384282277143, 504.3447618895486, -5366.832657674869, -2757.9146931069727, -3920.048942571753, -7740.543215339568, -4155.144590752672, -3114.3579619357542, -4752.874940976494, -3921.702971661445, -11197.709881986366, -14063.963480468212, 0.012, -0.11, 0.986, 192.0, 0.0, 0.0, 0.0, 0.0, 0.0, 0.0, 0.0, 0.0, 0.0, 1.645920490024703E9, 0.0, 2022-02-27 11:08:10.024
28.0, -3690.854154927034, -6460.816438295417, -1750.007480383811, -10746.495216667083, -1336.5225597050858, 283.48717492665946, -5369.447811776139, -2827.2945078962457, -4857.81638119416, -8364.782734487384, -4211.716855969054, -3094.822537281816, -4766.576560327597, -3980.622170045635, -11316.129424110582, -14713.214601661517, 0.016, -0.108, 0.992, 192.0, 0.0, 64.0, 126.0, 80.0, 15.5, 0.0, 0.0, 0.0, 0.0, 1.645920490032233E9, 0.0, 2022-02-27 11:08:10.032
30.0, -3534.5931094399825, -6415.285934839957, -1695.4915756573173, -10637.530462447461, -1185.8941538207714, 376.917466749843, -5355.097991835832, -2704.739893047797, -2605.9898860442504, -7427.641144709724, -4149.623709872211, -2891.5334214607983, -4796.192621730879, -3883.682654342968, -10876.850590330434, -13536.149386900592, 0.016, -0.108, 0.992, 192.0, 0.0, 0.0, 0.0, 0.0, 0.0, 0.0, 0.0, 0.0, 0.0, 1.645920490040135E9, 0.0, 2022-02-27 11:08:10.040
32.0, -3435.77604720307, -6297.313427604846, -1625.374153301019, -10596.090328227321, -1124.0915804018475, 463.8657526809875, -5384.579942772382, -2819.5608043147095, -5293.742453306014, -8304.79065236934, -4189.92390512513, -3237.426666906675, -4737.541644280153, -3959.812695957744, -11472.636338786644, -14775.464209969547, 0.016, -0.108, 0.992, 192.0, 0.0, 0.0, 0.0, 0.0, 0.0, 0.0, 0.0, 0.0, 0.0, 1.645920490046839E9, 0.0, 2022-02-27 11:08:10.046
34.0, -3752.2096934568517, -6532.520834508042, -1790.0841581921768, -10762.432010463717, -1386.4563568182418, 235.02859294755376, -5365.782125685469, -2752.7737918822518, -3214.4714253510747, -7822.864690168463, -4184.760652155955, -2873.696729385463, -4808.821357348127, -3926.910928119532, -10957.853312236466, -13949.94723200169, 0.016, -0.108, 0.992, 192.0, 0.0, 0.0, 0.0, 0.0, 0.0, 0.0, 0.0, 0.0, 0.0, 1.645920490055019E9, 0.0, 2022-02-27 11:08:10.055
36.0, -3346.905511248769, -6277.107450617248, -1590.0136935727232, -10532.812539674347, -1029.9683845005495, 501.684904299367, -5361.7364599390585, -2750.695079647908, -3859.140438931041, -7716.112758649917, -4144.125180736206, -3101.461005385042, -4756.674737533896, -3904.6709423865013, -11183.695338212889, -14034.369770809386, 0.016, -0.108, 0.992, 192.0, 0.0, 0.0, 0.0, 0.0, 0.0, 0.0, 0.0, 0.0, 0.0, 1.645920490064244E9, 0.0, 2022-02-27 11:08:10.064
38.0, -3678.8959716434447, -6457.351917904844, -1733.6236516980712, -10736.347524684374, -1325.0561147995134, 300.20627977922913, -5355.813247658401, -2804.4286733184667, -4899.569439836674, -8366.392060088165, -4206.285382066415, -3087.692330800573, -4767.448278361354, -3964.5289140378136, -11318.878688678586, -14722.244706421461, 0.01, -0.108, 0.988, 192.0, 0.0, 40.0, 126.0, 80.0, 15.0, 112.0, 0.0, 0.0, 0.0, 1.645920490076897E9, 0.0, 2022-02-27 11:08:10.076
40.0, -3529.4969117041724, -6406.591106246842, -1686.170898219454, -10631.428436211161, -1187.0340927879922, 384.3829493979156, -5347.163122554198, -2691.328846374613, -2580.620656087477, -7420.354476017294, -4142.828779557798, -2874.5237439303096, -4788.23540070479, -3869.779869291767, -10857.71749707669, -13521.352532071178, 0.01, -0.108, 0.988, 192.0, 0.0, 0.0, 0.0, 0.0, 0.0, 0.0, 0.0, 0.0, 0.0, 1.645920490084551E9, 0.0, 2022-02-27 11:08:10.084
42.0, -3420.778026673559, -6292.7536717359635, -1620.4344177763962, -10584.735642044025, -1115.2626413420012, 466.8832381824539, -5371.3030065659295, -2809.055484420715, -5255.409211565163, -8277.253303200401, -4181.832573632309, -3224.5073586115077, -4741.2967373486445, -3944.904082406054, -11455.604309511698, -14748.217433478527, 0.01, -0.108, 0.988, 192.0, 0.0, 0.0, 0.0, 0.0, 0.0, 0.0, 0.0, 0.0, 0.0, 1.645920490092527E9, 0.0, 2022-02-27 11:08:10.092
44.0, -3737.2563764162514, -6518.774511668028, -1785.4126436010176, -10754.698306882181, -1377.0239206581023, 242.53877908453694, -5364.686890207158, -2750.4492104589, -3247.5743588893843, -7831.000725150196, -4186.1241085677275, -2855.9494442879495, -4812.040008549691, -3915.3103727472276, -10955.573434302025, -13959.960813517668, 0.01, -0.108, 0.988, 192.0, 0.0, 0.0, 0.0, 0.0, 0.0, 0.0, 0.0, 0.0, 0.0, 1.645920490099672E9, 0.0, 2022-02-27 11:08:10.099
46.0, -3325.8501679718697, -6264.255197555447, -1589.8572313615362, -10528.521004738928, -1027.8673205217506, 512.1008172155401, -5360.082430849366, -2744.213073755869, -3783.211563016363, -7672.593912195434, -4138.313727177826, -3072.5154963154196, -4758.775801512695, -3880.039319996753, -11168.362041516548, -13993.57783717845, 0.011, -0.108, 0.987, 192.0, 0.0, 48.0, 126.0, 80.0, 15.0, 104.0, 0.0, 0.0, 0.0, 1.645920490107147E9, 0.0, 2022-02-27 11:08:10.107
48.0, -3649.6598898959032, -6430.149844902736, -1723.8782911155572, -10725.484576879095, -1317.3000594735217, 303.8719658698995, -5381.003663659533, -2814.3304961121676, -4918.948402279425, -8354.545635526852, -4203.334951798314, -3076.2035341505452, -4771.449240618854, -3951.989585398386, -11326.05359864874, -14725.82098553431, 0.011, -0.108, 0.987, 192.0, 0.0, 0.0, 0.0, 0.0, 0.0, 0.0, 0.0, 0.0, 0.0, 1.645920490115077E9, 0.0, 2022-02-27 11:08:10.115
50.0, -3523.707809890248, -6407.149899858225, -1683.2204679513536, -10636.68109615816, -1188.4199009442211, 369.273170146128, -5350.985270856056, -2703.5999540805765, -2553.418583085368, -7394.806432104878, -4134.983317253986, -2846.7181738279073, -4793.555115885153, -3861.5991308211246, -10851.302546418017, -13519.452633792476, 0.011, -0.108, 0.987, 192.0, 0.0, 0.0, 0.0, 0.0, 0.0, 0.0, 0.0, 0.0, 0.0, 1.645920490122179E9, 0.0, 2022-02-27 11:08:10.122
52.0, -3405.355322999397, -6286.137555377192, -1605.056417591145, -10586.9484647451, -1107.0371993824483, 466.9055899269092, -5355.969709869589, -2807.960248942405, -5226.016667606434, -8258.20961692448, -4176.557561940856, -3214.5161288399854, -4740.872054203994, -3940.1208090926184, -11443.467312272467, -14732.951192015553, 0.011, -0.108, 0.987, 192.0, 0.0, 0.0, 0.0, 0.0, 0.0, 0.0, 0.0, 0.0, 0.0, 1.645920490128678E9, 0.0, 2022-02-27 11:08:10.128
54.0, -3733.0542484586535, -6523.110750092358, -1772.9850736838669, -10761.537940685505, -1373.514696778619, 240.214197661185, -5364.329262295873, -2759.3005012632016, -3290.132080332289, -7836.007515908184, -4179.418585231136, -2864.1078310141365, -4812.263525994244, -3906.8390615986664, -10951.21484413324, -13984.145401018312, 0.011, -0.108, 0.987, 192.0, 0.0, 0.0, 0.0, 0.0, 0.0, 0.0, 0.0, 0.0, 0.0, 1.645920490136868E9, 0.0, 2022-02-27 11:08:10.136
56.0, -3343.1057146913668, -6282.315407075335, -1588.7172923943153, -10528.252783805465, -1031.5330066124209, 514.3136399166156, -5378.634378747271, -2744.6601086449755, -3723.2194808983186, -7650.845664840421, -4125.461474116025, -3059.7750019758946, -4755.691260777862, -3867.9023227575212, -11145.742076127777, -13970.667299111761, 0.0115, -0.10600000000000001, 0.9884999999999999, 192.0, 0.0, 48.0, 126.0, 96.0, 15.0, 120.0, 0.0, 0.0, 0.0, 1.645920490144676E9, 0.0, 2022-02-27 11:08:10.144
58.0, -3690.2953613156515, -6472.126420989803, -1730.2261865408643, -10724.165823956231, -1317.5235769180747, 314.77961716408936, -5337.618927671781, -2799.7124552383966, -4967.608149958629, -8368.26960662241, -4203.781986687421, -3087.334702889288, -4783.273313435711, -3942.6912597049786, -11327.059427149228, -14733.733503071488, 0.0115, -0.10600000000000001, 0.9884999999999999, 192.0, 0.0, 0.0, 0.0, 0.0, 0.0, 0.0, 0.0, 0.0, 0.0, 1.645920490151873E9, 0.0, 2022-02-27 11:08:10.151
60.0, -3609.8737847654565, -6484.553990906953, -1699.8725175705574, -10638.357476992307, -1204.7366743965954, 372.7823940256112, -5345.933776609156, -2699.6883988008976, -2568.3719001259688, -7421.203842306596, -4152.127105251206, -2861.5597321462315, -4817.449130707876, -3860.6380058095465, -10839.612584067892, -13512.568296500242, 0.0115, -0.10600000000000001, 0.9884999999999999, 192.0, 0.0, 0.0, 0.0, 0.0, 0.0, 0.0, 0.0, 0.0, 0.0, 1.645920490159462E9, 0.0, 2022-02-27 11:08:10.159
62.0, -3507.6145538824267, -6394.588219474343, -1617.9086706529465, -10581.561694331373, -1102.8127196803953, 483.51293605720235, -5348.2360062880525, -2796.1808796144583, -5232.163397331643, -8277.968559022971, -4197.2105738175605, -3238.901882040725, -4761.6591765474295, -3930.6883729324786, -11438.438169770023, -14710.331226626782, 0.0115, -0.10600000000000001, 0.9884999999999999, 192.0, 0.0, 0.0, 0.0, 0.0, 0.0, 0.0, 0.0, 0.0, 0.0, 1.645920490167305E9, 0.0, 2022-02-27 11:08:10.167
64.0, -3893.137442247563, -6672.621568753907, -1801.818824031213, -10765.65066166528, -1381.2931038490658, 256.6874333247463, -5327.538290922438, -2733.059553272671, -3390.960799570179, -7902.369845195991, -4222.289231096414, -2901.14467157658, -4837.588052462108, -3901.2511254848396, -10961.83192274951, -14002.29501751602, 0.0115, -0.10600000000000001, 0.9884999999999999, 192.0, 0.0, 0.0, 0.0, 0.0, 0.0, 0.0, 0.0, 0.0, 0.0, 1.645920490175364E9, 0.0, 2022-02-27 11:08:10.175
66.0, -3530.905071604857, -6467.544313376465, -1606.8222054031141, -10540.210967089053, -1025.498035609488, 531.6138901250232, -5327.247718244519, -2704.471672114333, -3749.0357457441983, -7700.846517186942, -4194.774233671932, -3108.211232210545, -4786.6037233595525, -3871.7244710593786, -11130.609945131535, -13933.80927250496, 0.012750000000000001, -0.10400000000000001, 0.99025, 192.0, 0.0, 56.0, 126.0, 104.0, 15.5, 0.0, 0.0, 0.0, 0.0, 1.645920490182056E9, 0.0, 2022-02-27 11:08:10.182
68.0, -3859.498066842326, -6652.88497839987, -1733.3107272756968, -10733.0841699939, -1298.3457801754214, 339.16537036482936, -5337.238948016042, -2781.920466651972, -5067.341633718209, -8444.846683126294, -4262.142391460227, -3157.452125245586, -4781.70869132384, -3939.4502567589593, -11331.641534762566, -14741.958945031041, 0.012750000000000001, -0.10400000000000001, 0.99025, 192.0, 0.0, 0.0, 0.0, 0.0, 0.0, 0.0, 0.0, 0.0, 0.0, 1.645920490190044E9, 0.0, 2022-02-27 11:08:10.190
70.0, -3774.6284931455248, -6654.784876678572, -1706.823910096158, -10656.10476208982, -1199.9981045720704, 384.7182255647452, -5321.659782130692, -2676.3755293340123, -2622.1501972854376, -7482.425270369682, -4208.587611745312, -2913.572241493731, -4822.187700532401, -3860.5933023206358, -10836.058656699499, -13506.779194686318, 0.012750000000000001, -0.10400000000000001, 0.99025, 192.0, 0.0, 0.0, 0.0, 0.0, 0.0, 0.0, 0.0, 0.0, 0.0, 1.645920490204969E9, 0.0, 2022-02-27 11:08:10.204
72.0, -3610.633744076937, -6502.010703326548, -1612.0972170945665, -10589.340101401818, -1083.210239793091, 513.6430875829564, -5338.58005268336, -2758.0041000847937, -5254.358679575763, -8297.369873210177, -4243.925719729152, -3278.643283682261, -4758.105249179036, -3912.069369801208, -11426.5470417198, -14685.90076993713, 0.012750000000000001, -0.10400000000000001, 0.99025, 192.0, 0.0, 0.0, 0.0, 0.0, 0.0, 0.0, 0.0, 0.0, 0.0, 1.645920490211666E9, 0.0, 2022-02-27 11:08:10.211
74.0, -3948.8826929190986, -6736.525206151629, -1786.4408238459616, -10772.065612323953, -1368.418499042809, 278.2345149796623, -5307.444072657117, -2711.87009952904, -3469.773050519592, -7955.187017343881, -4251.1006296993055, -2939.4332098285213, -4824.579337189119, -3904.425073197493, -10957.31687036954, -14016.48837524514, 0.012750000000000001, -0.10400000000000001, 0.99025, 192.0, 0.0, 0.0, 0.0, 0.0, 0.0, 0.0, 0.0, 0.0, 0.0, 1.645920490219652E9, 0.0, 2022-02-27 11:08:10.219
76.0, -3534.146074550876, -6468.751307577051, -1600.69782742236, -10540.210967089053, -1026.950898999083, 549.1153060335286, -5320.34102920783, -2696.514451088244, -3698.498451530749, -7684.060357101007, -4196.674131950633, -3093.146156447668, -4778.512391866731, -3867.947026246432, -11104.43605237437, -13904.573190757417, 0.012375, -0.10300000000000001, 0.9901249999999999, 192.0, 0.0, 48.0, 126.0, 104.0, 15.0, 120.0, 0.0, 0.0, 0.0, 1.645920490227644E9, 0.0, 2022-02-27 11:08:10.227
78.0, -3829.166749616474, -6620.676114639773, -1731.589642952638, -10722.869422777823, -1287.840460281427, 368.5579143235582, -5327.582994411349, -2756.0371465727267, -5108.312381304787, -8441.516273202453, -4264.846952539319, -3149.1149245637566, -4791.498755395264, -3943.16064633854, -11336.089531909172, -14743.322401442814, 0.012375, -0.10300000000000001, 0.9901249999999999, 192.0, 0.0, 0.0, 0.0, 0.0, 0.0, 0.0, 0.0, 0.0, 0.0, 1.645920490234263E9, 0.0, 2022-02-27 11:08:10.234
80.0, -3743.5148648637373, -6616.473986682176, -1719.698514902415, -10660.262186558508, -1205.6083924303523, 408.1205020094517, -5279.839668254813, -2646.8935783974625, -2617.9257175833845, -7486.895619260743, -4207.335914055814, -2895.623790696119, -4831.038991336703, -3850.2220928933734, -10822.267630370574, -13496.028005603315, 0.012375, -0.10300000000000001, 0.9901249999999999, 192.0, 0.0, 0.0, 0.0, 0.0, 0.0, 0.0, 0.0, 0.0, 0.0, 1.645920490242271E9, 0.0, 2022-02-27 11:08:10.242
82.0, -3565.5502755105827, -6454.490894614565, -1623.5636620001392, -10583.886275754723, -1083.5678677043759, 521.8238260535987, -5301.9231917766565, -2747.476428446344, -5226.821330406825, -8290.552591151309, -4241.467027839069, -3270.998987078546, -4773.997339486759, -3922.0829513171857, -11413.270105513348, -14661.80558941431, 0.012375, -0.10300000000000001, 0.9901249999999999, 192.0, 0.0, 0.0, 0.0, 0.0, 0.0, 0.0, 0.0, 0.0, 0.0, 1.645920490250282E9, 0.0, 2022-02-27 11:08:10.250
84.0, -3904.3133144752164, -6683.640978770373, -1796.4991088508498, -10776.535961215015, -1379.8625922039262, 275.82052657848914, -5291.954313749589, -2703.510547102755, -3515.4600161862395, -7956.729287711298, -4250.005394220995, -2926.9385846780046, -4845.634680466018, -3901.6087533961245, -10966.16816117384, -14037.54371852204, 0.012375, -0.10300000000000001, 0.9901249999999999, 192.0, 0.0, 0.0, 0.0, 0.0, 0.0, 0.0, 0.0, 0.0, 0.0, 1.645920490257364E9, 0.0, 2022-02-27 11:08:10.257
86.0, -3492.415367652818, -6429.501644313532, -1612.7677694282258, -10542.0885136233, -1040.4960561389992, 548.3553467220481, -5304.448938900106, -2687.2384771392917, -3634.416000177384, -7663.51910394658, -4192.673169693133, -3091.268609913422, -4799.768900843728, -3855.7429737738344, -11090.041528945152, -13876.678213677194, 0.0111875, -0.10250000000000001, 0.9890625, 192.0, 0.0, 40.0, 126.0, 104.0, 15.0, 112.0, 0.0, 0.0, 0.0, 1.64592049026395E9, 0.0, 2022-02-27 11:08:10.263
88.0, -3767.7441558532905, -6560.415811588266, -1726.1805207944537, -10716.11919595232, -1290.8802975273488, 362.7911642540889, -5322.799721097913, -2772.4656787473773, -5125.970259424479, -8444.734924404016, -4258.767278047476, -3155.2169508000557, -4800.730025855306, -3936.879806146599, -11338.548223799256, -14756.800503349365, 0.0111875, -0.10250000000000001, 0.9890625, 192.0, 0.0, 0.0, 0.0, 0.0, 0.0, 0.0, 0.0, 0.0, 0.0, 1.645920490271946E9, 0.0, 2022-02-27 11:08:10.271
90.0, -3691.1894310938637, -6557.82300923145, -1712.9482880769121, -10660.150427836232, -1216.8289681469164, 383.9359145088094, -5317.234136728542, -2661.4669157823228, -2587.974380013273, -7475.451526099626, -4193.410777260158, -2873.0485287962592, -4834.637622194007, -3845.885854469044, -10821.373560592361, -13500.81127891675, 0.0111875, -0.10250000000000001, 0.9890625, 192.0, 0.0, 0.0, 0.0, 0.0, 0.0, 0.0, 0.0, 0.0, 0.0, 1.64592049027995E9, 0.0, 2022-02-27 11:08:10.279
92.0, -3497.288047944075, -6383.635864691242, -1603.4023885014522, -10571.90574072668, -1079.723367658063, 519.9686312638082, -5325.794854854925, -2764.8213821436625, -5164.996405243445, -8249.313622631267, -4220.255222350982, -3239.818303563393, -4768.990548728771, -3914.170433780007, -11415.348817747692, -14644.706504906, 0.0111875, -0.10250000000000001, 0.9890625, 192.0, 0.0, 0.0, 0.0, 0.0, 0.0, 0.0, 0.0, 0.0, 0.0, 1.645920490287034E9, 0.0, 2022-02-27 11:08:10.287
94.0, -3855.4524010959153, -6632.12020780089, -1784.339759867163, -10771.41741173475, -1378.8567637034373, 270.6572736093132, -5318.284668717942, -2726.0858090026154, -3537.387077496896, -7959.880883679496, -4237.331955114836, -2908.341933291189, -4840.247910052289, -3893.696235858946, -10982.976673004232, -14063.561149068017, 0.0111875, -0.10250000000000001, 0.9890625, 192.0, 0.0, 0.0, 0.0, 0.0, 0.0, 0.0, 0.0, 0.0, 0.0, 1.645920490294621E9, 0.0, 2022-02-27 11:08:10.294
96.0, -3449.209445620709, -6386.854515892806, -1602.307153023142, -10545.32951656932, -1026.950898999083, 522.069695242607, -5319.715180363081, -2699.6883988008976, -3556.8777986619234, -7634.685353599233, -4187.576971957323, -3068.4251270800983, -4799.18775548789, -3864.9518924894205, -11081.458459074314, -13856.941623323159, 0.01159375, -0.10525000000000001, 0.98953125, 192.0, 0.0, 48.0, 126.0, 80.0, 15.0, 120.0, 0.0, 0.0, 0.0, 1.645920490302568E9, 0.0, 2022-02-27 11:08:10.302
98.0, -3717.4527308288493, -6520.137968079802, -1714.691724144426, -10713.571097084416, -1286.4770038696533, 360.3771758529158, -5338.401238727718, -2790.6152952450866, -5138.420181086085, -8439.750485390483, -4256.710917557588, -3147.974985596536, -4808.307267225655, -3942.579500982702, -11354.417962362524, -14767.484637199002, 0.01159375, -0.10525000000000001, 0.98953125, 192.0, 0.0, 0.0, 0.0, 0.0, 0.0, 0.0, 0.0, 0.0, 0.0, 1.645920490310552E9, 0.0, 2022-02-27 11:08:10.310
100.0, -3655.896026598934, -6525.345924537889, -1709.1708432639653, -10660.306890047419, -1227.5578054854639, 374.1234986929296, -5319.67047687417, -2650.134581343482, -2560.593493055522, -7465.080316672364, -4189.20864930256, -2857.6481768665526, -4833.073000082136, -3857.776982519267, -10824.86043272739, -13509.349645298678, 0.01159375, -0.10525000000000001, 0.98953125, 192.0, 0.0, 0.0, 0.0, 0.0, 0.0, 0.0, 0.0, 0.0, 0.0, 1.645920490324147E9, 0.0, 2022-02-27 11:08:10.324
102.0, -3447.890692697846, -6344.430904916633, -1593.5452691966618, -10561.623938277238, -1067.3852047187336, 535.6595558714338, -5329.773465367969, -2747.6328906575313, -5107.842994671225, -8218.24469783839, -4211.694504224599, -3227.9271755131695, -4764.2743306487, -3913.6563436575348, -11406.45282345448, -14618.219687726461, 0.01159375, -0.10525000000000001, 0.98953125, 192.0, 0.0, 0.0, 0.0, 0.0, 0.0, 0.0, 0.0, 0.0, 0.0, 1.645920490332332E9, 0.0, 2022-02-27 11:08:10.332
104.0, -3817.4097320329824, -6594.792794560528, -1779.7353005093696, -10761.001498818578, -1373.805269456538, 259.1461252148301, -5309.522784891461, -2717.0780559871264, -3567.316063322552, -7968.978043672806, -4227.36307708777, -2905.8161861677395, -4837.118665828546, -3900.513517917814, -10991.000949263687, -14089.042137747067, 0.01159375, -0.10525000000000001, 0.98953125, 192.0, 0.0, 0.0, 0.0, 0.0, 0.0, 0.0, 0.0, 0.0, 0.0, 1.645920490340358E9, 0.0, 2022-02-27 11:08:10.340
106.0, -3413.804282403503, -6354.73505911053, -1597.1439000539663, -10525.347057026274, -1044.7205358410522, 529.781047079688, -5301.878488287746, -2680.8011747361634, -3486.4698036277064, -7609.2490684090935, -4179.105660808761, -3044.441705279554, -4799.411272932443, -3858.201665663918, -11060.648984986423, -13822.989323495547, 0.011796875, -0.10262500000000001, 0.986765625, 192.0, 0.0, 48.0, 126.0, 112.0, 15.0, 96.0, 0.0, 0.0, 0.0, 1.645920490346854E9, 0.0, 2022-02-27 11:08:10.346
108.0, -3674.0456430966433, -6473.71339484613, -1698.0396745252222, -10695.555591053439, -1280.0173497220696, 351.79410598207784, -5321.257450730497, -2788.6930452219303, -5145.595091056239, -8427.211156751056, -4239.544777815911, -3138.0508110583796, -4791.118775739525, -3929.68254443199, -11354.14974142906, -14771.217378523039, 0.011796875, -0.10262500000000001, 0.986765625, 192.0, 0.0, 0.0, 0.0, 0.0, 0.0, 0.0, 0.0, 0.0, 0.0, 1.645920490354846E9, 0.0, 2022-02-27 11:08:10.354
110.0, -3638.0369827791433, -6504.000008583071, -1705.1698810064652, -10654.808360911413, -1225.1214653398354, 370.10018469097434, -5306.214726712075, -2658.4717820253113, -2547.070687660061, -7464.834447483355, -4183.307788766359, -2850.0709354962037, -4824.6463924224845, -3850.266796382284, -10816.389121578828, -13510.91426741055, 0.011796875, -0.10262500000000001, 0.986765625, 192.0, 0.0, 0.0, 0.0, 0.0, 0.0, 0.0, 0.0, 0.0, 0.0, 1.645920490362819E9, 0.0, 2022-02-27 11:08:10.362
112.0, -3423.6837534527485, -6325.901308763184, -1587.0632633046228, -10550.738638727504, -1058.466858681066, 514.1124742165177, -5321.570375152872, -2772.778603169752, -5069.420345952552, -8198.150479573069, -4212.990905403007, -3224.820283033882, -4768.1188306950135, -3910.884727345077, -11399.747300117886, -14608.697844588502, 0.011796875, -0.10262500000000001, 0.986765625, 192.0, 0.0, 0.0, 0.0, 0.0, 0.0, 0.0, 0.0, 0.0, 0.0, 1.645920490370911E9, 0.0, 2022-02-27 11:08:10.370
114.0, -3799.7742056577454, -6577.023157718559, -1775.555524296227, -10754.36303071535, -1375.3922433128648, 270.277293953573, -5317.927040806656, -2712.7865210517075, -3618.9038895254007, -7989.720462527331, -4233.912138213174, -2911.7841019373063, -4829.295555269188, -3895.909058560021, -10998.041748767107, -14112.444414191774, 0.011796875, -0.10262500000000001, 0.986765625, 192.0, 0.0, 0.0, 0.0, 0.0, 0.0, 0.0, 0.0, 0.0, 0.0, 1.645920490376943E9, 0.0, 2022-02-27 11:08:10.376
116.0, -3406.539965455528, -6347.649556118197, -1595.0875395640778, -10528.096321594277, -1045.0558120078817, 520.460369641825, -5320.050456529911, -2679.325959602113, -3421.470930751673, -7589.177201888228, -4175.887009607197, -3032.5729289737856, -4789.352987927555, -3856.212360407396, -11053.51877850518, -13800.615227295784, 0.014, -0.10200000000000001, 0.986, 192.0, 0.0, 56.0, 126.0, 104.0, 15.0, 104.0, 0.0, 0.0, 0.0, 1.645920490384558E9, 0.0, 2022-02-27 11:08:10.384
118.0, -3658.6899946558474, -6459.609444094831, -1702.5770786496496, -10688.626550272293, -1273.9823787191367, 359.75132700816715, -5333.10387529181, -2788.3354173106454, -5174.764117570415, -8442.611508680762, -4243.948071473607, -3148.3773169967317, -4785.933171025893, -3941.327803293205, -11360.6317473211, -14789.456401998568, 0.014, -0.10200000000000001, 0.986, 192.0, 0.0, 0.0, 0.0, 0.0, 0.0, 0.0, 0.0, 0.0, 0.0, 1.645920490392663E9, 0.0, 2022-02-27 11:08:10.392
120.0, -3641.4120961918948, -6501.161337037246, -1728.4380469844398, -10662.229140070574, -1241.7288114701284, 354.0516321720639, -5315.535404149939, -2666.5184100292217, -2557.9559872097957, -7481.441793613648, -4192.494355737491, -2848.4616098954216, -4834.592918705096, -3858.0228517082755, -10813.885726199833, -13519.877316937127, 0.014, -0.10200000000000001, 0.986, 192.0, 0.0, 0.0, 0.0, 0.0, 0.0, 0.0, 0.0, 0.0, 0.0, 1.645920490399065E9, 0.0, 2022-02-27 11:08:10.399
122.0, -3415.5253667265615, -6320.514538349455, -1603.60355420155, -10550.313955582853, -1069.4862686975323, 516.0794277285847, -5342.469256218584, -2756.0818500616374, -5038.597290348684, -8191.914342870038, -4219.78583571742, -3228.6647830801944, -4772.298606908155, -3917.433788470482, -11397.534477416812, -14588.245998411894, 0.014, -0.10200000000000001, 0.986, 192.0, 0.0, 0.0, 0.0, 0.0, 0.0, 0.0, 0.0, 0.0, 0.0, 1.645920490407099E9, 0.0, 2022-02-27 11:08:10.407
124.0, -3796.1979265448963, -6574.20683791719, -1791.9617047264226, -10758.542806928494, -1382.835374216482, 255.18986644624073, -5341.508131207005, -2726.3987334249896, -3668.435355238361, -8013.815643050152, -4234.7838562469315, -2917.2379275844014, -4833.609441949063, -3914.170433780007, -11012.70449312979, -14142.105179083967, 0.014, -0.10200000000000001, 0.986, 192.0, 0.0, 0.0, 0.0, 0.0, 0.0, 0.0, 0.0, 0.0, 0.0, 1.645920490415235E9, 0.0, 2022-02-27 11:08:10.415
126.0, -3413.5360614700394, -6345.347326439301, -1619.3838857869966, -10533.863071663747, -1038.7079165825744, 510.5808985925792, -5327.8065118559025, -2691.060625441149, -3383.1376890108218, -7583.6563210077675, -4184.090099822295, -3030.9412516285483, -4794.80681357465, -3864.393098878038, -11040.979449865754, -13785.505448043998, 0.012, -0.10400000000000001, 0.992, 192.0, 0.0, 48.0, 126.0, 96.0, 15.5, 0.0, 0.0, 0.0, 0.0, 1.645920490422271E9, 0.0, 2022-02-27 11:08:10.422
128.0, -3652.140933530442, -6451.294595157457, -1708.9920293083228, -10689.990006684066, -1258.3361576004218, 359.1925333967845, -5343.788009141446, -2783.21686783038, -5207.732940641992, -8441.069238313346, -4250.117152943272, -3152.6465001876954, -4786.760185570739, -3951.0508121312637, -11364.699764811965, -14797.234809069016, 0.012, -0.10400000000000001, 0.992, 192.0, 0.0, 0.0, 0.0, 0.0, 0.0, 0.0, 0.0, 0.0, 0.0, 1.64592049042973E9, 0.0, 2022-02-27 11:08:10.429
130.0, -3657.4606487108053, -6510.973752853126, -1730.0920760741326, -10668.957015151622, -1232.6763549657292, 349.89420770337676, -5313.657857615693, -2661.5339710156886, -2567.7013477923097, -7489.6225320842905, -4198.864602907253, -2847.5004848838435, -4832.268337281745, -3862.359090132605, -10804.699159228703, -13519.76555821485, 0.012, -0.10400000000000001, 0.992, 192.0, 0.0, 0.0, 0.0, 0.0, 0.0, 0.0, 0.0, 0.0, 0.0, 1.645920490437684E9, 0.0, 2022-02-27 11:08:10.437
132.0, -3431.708029712204, -6336.049000745893, -1601.9718768563125, -10552.347964328286, -1046.5533788863872, 521.4885498867691, -5328.633526400748, -2750.404506969989, -5012.557508058251, -8173.921188583517, -4219.0482281503955, -3227.5471958574294, -4770.108135951536, -3913.835157613177, -11374.288663183292, -14558.674640497524, 0.012, -0.10400000000000001, 0.992, 192.0, 0.0, 0.0, 0.0, 0.0, 0.0, 0.0, 0.0, 0.0, 0.0, 1.645920490451551E9, 0.0, 2022-02-27 11:08:10.451
134.0, -3831.714848484379, -6610.908402312804, -1791.4252628594952, -10762.074382552431, -1363.7022809627392, 263.3035496835172, -5316.0047907835, -2729.125646248537, -3743.581920097103, -8042.694096886408, -4247.144370930716, -2934.2029016259794, -4830.659011680962, -3906.9061168320322, -11007.27301922715, -14159.025449636632, 0.012, -0.10400000000000001, 0.992, 192.0, 0.0, 0.0, 0.0, 0.0, 0.0, 0.0, 0.0, 0.0, 0.0, 1.645920490459393E9, 0.0, 2022-02-27 11:08:10.459
136.0, -3486.7156728167147, -6419.935097686661, -1619.3391822980861, -10533.930126897112, -1032.270614179446, 520.0580382416294, -5318.53053790695, -2683.639846281987, -3351.509970606562, -7583.410451818759, -4193.678998193622, -3036.1268563421795, -4794.605647874552, -3852.099639427619, -11014.716150130767, -13751.977831361037, 0.014, -0.108, 0.986, 192.0, 0.0, 56.0, 126.0, 80.0, 15.0, 104.0, 0.0, 0.0, 0.0, 1.645920490467677E9, 0.0, 2022-02-27 11:08:10.467
138.0, -3766.760679097257, -6575.279721651044, -1709.886099086535, -10689.40886132823, -1241.7511632145838, 385.4111296428597, -5332.120398535776, -2779.1041468506037, -5266.51802855945, -8473.211046840077, -4276.067528255883, -3184.2742185919547, -4787.453089648854, -3938.936166636487, -11359.111828698138, -14792.630349711222, 0.014, -0.108, 0.986, 192.0, 0.0, 0.0, 0.0, 0.0, 0.0, 0.0, 0.0, 0.0, 0.0, 1.645920490474738E9, 0.0, 2022-02-27 11:08:10.474
140.0, -3841.1025811556083, -6695.576810309507, -1753.2484833298306, -10683.396242069752, -1232.3410787988996, 363.2829026321057, -5296.022331240455, -2648.748773187253, -2626.6652496654096, -7544.473712977614, -4244.640975551722, -2886.8842586140945, -4840.382020519021, -3857.7099272859014, -10790.684615455224, -13521.441939048998, 0.014, -0.108, 0.986, 192.0, 0.0, 0.0, 0.0, 0.0, 0.0, 0.0, 0.0, 0.0, 0.0, 1.645920490482019E9, 0.0, 2022-02-27 11:08:10.482
142.0, -3633.2313577212526, -6537.259404332567, -1628.659859735949, -10559.27700510943, -1032.8070560463734, 545.0249367982074, -5320.452787930106, -2736.702887618886, -5051.9859852774125, -8209.39340703409, -4283.041272525939, -3274.262341769021, -4783.653293091452, -3902.815747596711, -11363.783343289299, -14531.472567495415, 0.014, -0.108, 0.986, 192.0, 0.0, 0.0, 0.0, 0.0, 0.0, 0.0, 0.0, 0.0, 0.0, 1.645920490489982E9, 0.0, 2022-02-27 11:08:10.489
144.0, -4029.9971735474082, -6806.754387230205, -1814.6040218596486, -10776.692423426202, -1357.6226064708958, 282.1907737482517, -5328.186491511642, -2736.63583238552, -3878.4970496293367, -8112.722112264885, -4311.249174028537, -2989.6128761306854, -4843.95829963187, -3901.1170150181074, -11025.109711302484, -14182.76300224817, 0.014, -0.108, 0.986, 192.0, 0.0, 0.0, 0.0, 0.0, 0.0, 0.0, 0.0, 0.0, 0.0, 1.645920490498108E9, 0.0, 2022-02-27 11:08:10.498
146.0, -3663.987358091755, -6605.611038876897, -1654.9678629598454, -10560.819275476846, -1030.303660667379, 522.136750475973, -5307.377017423752, -2684.936247460395, -3382.8918198218134, -7631.354943675393, -4260.041327481428, -3083.110223187235, -4812.352932972066, -3855.3853458625495, -11010.55872566208, -13733.872918352237, 0.014, -0.108, 0.988, 192.0, 0.0, 56.0, 126.0, 80.0, 15.0, 112.0, 0.0, 0.0, 0.0, 1.64592049050425E9, 0.0, 2022-02-27 11:08:10.504
148.0, -3864.5272093447697, -6673.470935043209, -1737.6693174444817, -10703.646922546259, -1233.6374799773073, 397.68223734882326, -5319.1787384961535, -2757.892341362517, -5350.851160389324, -8523.077788719867, -4325.219014313104, -3243.349879187331, -4797.421967675921, -3942.870073660621, -11372.366413160136, -14794.843172412298, 0.014, -0.108, 0.988, 192.0, 0.0, 0.0, 0.0, 0.0, 0.0, 0.0, 0.0, 0.0, 0.0, 1.645920490511674E9, 0.0, 2022-02-27 11:08:10.511
150.0, -3877.8935525290435, -6721.795406555582, -1777.142498152554, -10696.851992231846, -1243.1146196263576, 358.03024268510853, -5309.81335756938, -2646.5583022306328, -2677.9848549347944, -7572.234579591105, -4271.217199709082, -2912.1417298485912, -4850.641471224007, -3863.4990290998257, -10802.240467338619, -13526.828709462729, 0.014, -0.108, 0.988, 192.0, 0.0, 0.0, 0.0, 0.0, 0.0, 0.0, 0.0, 0.0, 0.0, 1.645920490519733E9, 0.0, 2022-02-27 11:08:10.519
152.0, -3597.625028803948, -6505.028188828014, -1636.0359354062005, -10562.227435377532, -1036.5174456259545, 542.7674106082214, -5323.313811220385, -2736.904053318984, -5008.645952778573, -8193.277799281812, -4273.27356019897, -3270.5296004449847, -4777.663025577429, -3915.4444832139593, -11359.424753120513, -14511.691273652468, 0.014, -0.108, 0.988, 192.0, 0.0, 0.0, 0.0, 0.0, 0.0, 0.0, 0.0, 0.0, 0.0, 1.645920490527772E9, 0.0, 2022-02-27 11:08:10.527
154.0, -3972.9331699530094, -6740.660278875862, -1826.070466765221, -10786.728356686635, -1367.9491124092476, 270.74668058713445, -5310.618020369771, -2720.162596721959, -3920.8536053721436, -8140.840606789662, -4299.2909907449475, -3007.1589955281015, -4835.3305262721215, -3922.9546693509424, -11031.144682305418, -14215.754177064202, 0.014, -0.108, 0.988, 192.0, 0.0, 0.0, 0.0, 0.0, 0.0, 0.0, 0.0, 0.0, 0.0, 1.645920490534371E9, 0.0, 2022-02-27 11:08:10.534
156.0, -3587.119708909954, -6522.037866358503, -1660.7346130293147, -10565.781362745925, -1050.1520097436917, 505.4176456234033, -5320.206918741098, -2651.676851710898, -3318.6305545128057, -7595.726263013633, -4235.320298113858, -3059.529132786886, -4806.317961969133, -3868.8410960246442, -10993.929027787332, -13718.00317978897, 0.014, -0.11, 0.986, 192.0, 0.0, 56.0, 126.0, 72.0, 15.0, 104.0, 0.0, 0.0, 0.0, 1.645920490542295E9, 0.0, 2022-02-27 11:08:10.542
158.0, -3771.7674698552455, -6582.946369999215, -1729.0638958291884, -10692.962788696623, -1240.0524306359805, 387.6686558328457, -5340.591709684338, -2768.911751378984, -5355.813247658401, -8499.809622741894, -4297.458147699613, -3212.236250905544, -4793.7115780963395, -3948.2568440743503, -11381.173000475526, -14812.389291809714, 0.014, -0.11, 0.986, 192.0, 0.0, 0.0, 0.0, 0.0, 0.0, 0.0, 0.0, 0.0, 0.0, 1.645920490549781E9, 0.0, 2022-02-27 11:08:10.549
160.0, -3807.5526127281923, -6657.444734268754, -1775.1308411515763, -10706.954980725644, -1263.0747274249468, 331.20814933874004, -5283.795927023402, -2656.2142558353253, -2665.780802462197, -7564.880855665309, -4239.343612115814, -2886.861906869639, -4843.421857764943, -3875.3007501722277, -10801.033473138032, -13549.53808182932, 0.014, -0.11, 0.986, 192.0, 0.0, 0.0, 0.0, 0.0, 0.0, 0.0, 0.0, 0.0, 0.0, 1.645920490557738E9, 0.0, 2022-02-27 11:08:10.557
162.0, -3513.5601179075384, -6428.7640367465065, -1623.6530689779604, -10566.049583679389, -1045.1899224746135, 524.9754220217969, -5309.031046513444, -2740.189759753914, -4946.753972381827, -8163.952310556449, -4250.251263410004, -3255.106896770823, -4779.294702922667, -3921.099474561152, -11352.38395361709, -14504.002273559843, 0.014, -0.11, 0.986, 192.0, 0.0, 0.0, 0.0, 0.0, 0.0, 0.0, 0.0, 0.0, 0.0, 1.645920490571733E9, 0.0, 2022-02-27 11:08:10.571
164.0, -3888.130651489574, -6668.151219862845, -1813.2629171923302, -10781.22982755063, -1380.577848026496, 256.75448855811226, -5316.675343117159, -2739.4298004424336, -3955.4764575334143, -8126.803711271729, -4271.910103787196, -2986.1930592290237, -4836.403410005976, -3929.548433965258, -11042.208795810795, -14249.415904213894, 0.014, -0.11, 0.986, 192.0, 0.0, 0.0, 0.0, 0.0, 0.0, 0.0, 0.0, 0.0, 0.0, 1.645920490579352E9, 0.0, 2022-02-27 11:08:10.579
166.0, -3500.707864845737, -6443.9632229761155, -1645.4460198218846, -10559.701688254081, -1061.8643238382726, 501.81901476609886, -5321.078636774854, -2680.8682299695292, -3246.657937366717, -7554.554349726957, -4200.295114552393, -3033.332888285266, -4806.116796269035, -3856.234712151851, -10987.22350445074, -13708.168412228635, 0.016, -0.112, 0.986, 192.0, 0.0, 64.0, 126.0, 64.0, 15.0, 104.0, 0.0, 0.0, 0.0, 1.645920490587445E9, 0.0, 2022-02-27 11:08:10.587
168.0, -3671.4081372509168, -6501.474261459621, -1711.0707415426662, -10686.123154893297, -1239.0242503910365, 382.12542320792954, -5325.616040899282, -2784.6473794755198, -5335.29434624843, -8469.72417470505, -4259.169609447671, -3200.5462885554184, -4790.492926894775, -3948.167437096529, -11385.285721455302, -14824.816861726864, 0.016, -0.112, 0.986, 192.0, 0.0, 0.0, 0.0, 0.0, 0.0, 0.0, 0.0, 0.0, 0.0, 1.64592049059539E9, 0.0, 2022-02-27 11:08:10.595
170.0, -3719.6655535299246, -6580.7335472981395, -1763.7090997349144, -10698.371910854807, -1269.1096984278797, 325.06141961353063, -5316.228308228053, -2670.2735030977137, -2643.4737614958003, -7544.205492044151, -4208.967591401051, -2858.5869501336756, -4841.00786936377, -3863.09669769963, -10801.458156282682, -13561.07158196826, 0.016, -0.112, 0.986, 192.0, 0.0, 0.0, 0.0, 0.0, 0.0, 0.0, 0.0, 0.0, 0.0, 1.645920490601987E9, 0.0, 2022-02-27 11:08:10.601
172.0, -3421.6944481962264, -6351.583463142331, -1611.8736996500136, -10548.302298581875, -1042.9323962846277, 520.7285905752886, -5328.789988611936, -2759.3452047521123, -4877.038881425725, -8100.540411536743, -4215.06961763735, -3221.1545969432113, -4777.037176732681, -3908.8507185996436, -11349.120598926616, -14483.595130872147, 0.016, -0.112, 0.986, 192.0, 0.0, 0.0, 0.0, 0.0, 0.0, 0.0, 0.0, 0.0, 0.0, 1.645920490610017E9, 0.0, 2022-02-27 11:08:10.610
174.0, -3801.0035516027874, -6589.048396235514, -1796.8567367621347, -10770.232769278618, -1379.0579294035351, 258.2073519477072, -5341.172855040176, -2760.932178608439, -3973.3355013532046, -8106.173051139481, -4237.756638259487, -2967.574056097753, -4826.47923546782, -3917.433788470482, -11063.37589780997, -14276.997956871744, 0.016, -0.112, 0.986, 192.0, 0.0, 0.0, 0.0, 0.0, 0.0, 0.0, 0.0, 0.0, 0.0, 1.645920490617953E9, 0.0, 2022-02-27 11:08:10.617
176.0, -3429.092875610933, -6380.506620467499, -1636.5276737842173, -10552.079743394821, -1069.083937297337, 488.16209890390627, -5317.167081495176, -2690.323017874124, -3164.939959638114, -7509.940267794164, -4169.852038604265, -3009.1035972957134, -4802.048778778169, -3849.0598021816973, -10982.864914281954, -13686.3307578958, 0.006, -0.10400000000000001, 0.99, 192.0, 0.0, 24.0, 126.0, 96.0, 15.0, 120.0, 0.0, 0.0, 0.0, 1.645920490624111E9, 0.0, 2022-02-27 11:08:10.624
178.0, -3585.3539210979848, -6413.564850516898, -1683.9357237739234, -10667.146523850743, -1233.9951078885924, 386.1263854654295, -5322.509148419995, -2803.132272140059, -5313.233174471042, -8424.2383747385, -4225.21730962006, -3179.625055745251, -4779.5629238561305, -3930.1519310655513, -11394.315826215246, -14828.482547817535, 0.006, -0.10400000000000001, 0.99, 192.0, 0.0, 0.0, 0.0, 0.0, 0.0, 0.0, 0.0, 0.0, 0.0, 1.645920490632861E9, 0.0, 2022-02-27 11:08:10.632
180.0, -3659.0252708226767, -6512.091340075892, -1739.0998290896214, -10692.40399508524, -1279.0115212215808, 322.4909690011703, -5318.798758840413, -2689.473651584822, -2617.4116274609123, -7508.688570104668, -4177.16105904115, -2844.4606476379213, -4827.57447094613, -3855.564159818192, -10804.497993528605, -13575.77902981985, 0.006, -0.10400000000000001, 0.99, 192.0, 0.0, 0.0, 0.0, 0.0, 0.0, 0.0, 0.0, 0.0, 0.0, 1.645920490639576E9, 0.0, 2022-02-27 11:08:10.639
182.0, -3357.008499742568, -6291.4349188131, -1576.9602748108239, -10535.673562964626, -1039.1996549605913, 537.2018262388499, -5327.247718244519, -2761.4015652420003, -4793.309246696144, -8049.846655112106, -4189.767442913943, -3201.9320967116473, -4758.79815325715, -3885.8954770440437, -11337.810616232231, -14457.421238114983, 0.006, -0.10400000000000001, 0.99, 192.0, 0.0, 0.0, 0.0, 0.0, 0.0, 0.0, 0.0, 0.0, 0.0, 1.645920490647615E9, 0.0, 2022-02-27 11:08:10.647
184.0, -3748.6334143440026, -6539.248709589089, -1777.6342365305707, -10768.064650066453, -1383.41651957232, 268.28798869705065, -5325.660744388192, -2764.5308094657435, -3996.916591753554, -8101.1439086370365, -4219.07057989485, -2950.0726401892475, -4817.359723730055, -3891.684578857968, -11072.674223503378, -14300.64610250546, 0.008, -0.10800000000000001, 0.993, 192.0, 0.0, 40.0, 126.0, 64.0, 15.5, 16.0, 0.0, 0.0, 0.0, 1.645920490654184E9, 0.0, 2022-02-27 11:08:10.654
186.0, -3391.4078344592854, -6337.434808902122, -1619.3168305536308, -10554.605490518272, -1078.3152077573786, 494.3088286291157, -5319.715180363081, -2690.8594597410515, -3095.336627404288, -7479.6983575461345, -4153.6023203852565, -2978.3923004141216, -4796.013807775236, -3840.7449532443234, -10967.732783285712, -13666.951795453047, 0.008, -0.10800000000000001, 0.993, 192.0, 0.0, 0.0, 0.0, 0.0, 0.0, 0.0, 0.0, 0.0, 0.0, 1.645920490662214E9, 0.0, 2022-02-27 11:08:10.662
188.0, -3548.3394322799963, -6382.272408279468, -1675.9337992589235, -10668.465276773606, -1231.8269886764276, 398.0845687490188, -5345.419686486684, -2809.860147221106, -5314.507223904994, -8415.722360101028, -4219.763483972965, -3176.2499423324994, -4773.7514702977505, -3923.8040356402444, -11401.535439674311, -14836.12684442125, 0.008, -0.10800000000000001, 0.993, 192.0, 0.0, 0.0, 0.0, 0.0, 0.0, 0.0, 0.0, 0.0, 0.0, 1.645920490670189E9, 0.0, 2022-02-27 11:08:10.670
190.0, -3633.2313577212526, -6485.716281618629, -1742.0055558688111, -10698.818945743913, -1291.7520155611057, 320.94869863375413, -5318.7093518625925, -2698.0567214556604, -2613.7906448591525, -7502.899468290743, -4170.164963026638, -2825.1263886840807, -4830.971936103337, -3840.4767323108595, -10817.551412290504, -13589.145373004125, 0.008, -0.10800000000000001, 0.993, 192.0, 0.0, 0.0, 0.0, 0.0, 0.0, 0.0, 0.0, 0.0, 0.0, 1.645920490678164E9, 0.0, 2022-02-27 11:08:10.678
192.0, -3322.2738888590206, -6256.253273040446, -1581.7882516131701, -10541.999106645479, -1045.435791663622, 538.6770413729002, -5335.8531398598125, -2778.1430218390256, -4729.718533720796, -8013.055683738671, -4172.668358405633, -3196.0312361754463, -4751.533836309175, -3874.116107716097, -11335.329572597691, -14446.915918220988, 0.008, -0.10800000000000001, 0.993, 192.0, 0.0, 0.0, 0.0, 0.0, 0.0, 0.0, 0.0, 0.0, 0.0, 1.645920490684863E9, 0.0, 2022-02-27 11:08:10.684
194.0, -3731.0872949465866, -6512.136043564802, -1779.042396431255, -10769.405754733772, -1392.6477900323619, 260.71074732670155, -5338.244776516531, -2780.6911207069306, -4036.702696884, -8100.942742936939, -4210.621620490744, -2957.739288537418, -4813.671685894929, -3894.1432707480517, -11096.724700537288, -14339.851062280068, 0.013000000000000001, -0.11000000000000001, 0.9944999999999999, 192.0, 0.0, 72.0, 126.0, 64.0, 15.5, 16.0, 0.0, 0.0, 0.0, 1.645920490699792E9, 0.0, 2022-02-27 11:08:10.699
196.0, -3379.159078497777, -6321.699180805586, -1626.536444012695, -10559.90285395418, -1084.9983793495155, 493.459462339814, -5337.86479686079, -2699.3754743785234, -3033.623460963185, -7451.490456043537, -4148.7296400939995, -2972.3126259222777, -4792.705749595851, -3825.5457670147143, -10969.677385053325, -13657.251138359445, 0.013000000000000001, -0.11000000000000001, 0.9944999999999999, 192.0, 0.0, 0.0, 0.0, 0.0, 0.0, 0.0, 0.0, 0.0, 0.0, 1.645920490707252E9, 0.0, 2022-02-27 11:08:10.707
198.0, -3525.6524116578594, -6369.934245340139, -1676.984331248323, -10664.620776727294, -1233.7492386995839, 401.2138129727618, -5340.658764917704, -2829.4179236195, -5321.637430386238, -8394.912886013137, -4215.78487345992, -3179.647407489706, -4771.315130152122, -3916.293849503261, -11417.874564871141, -14848.330896893847, 0.013000000000000001, -0.11000000000000001, 0.9944999999999999, 192.0, 0.0, 0.0, 0.0, 0.0, 0.0, 0.0, 0.0, 0.0, 0.0, 1.645920490714433E9, 0.0, 2022-02-27 11:08:10.714
200.0, -3635.801808333613, -6485.135136262791, -1750.365108295096, -10707.06673944792, -1304.6042686229073, 313.9302508747877, -5339.116494550288, -2721.9060327894726, -2632.811979390619, -7515.483500419081, -4171.371957227225, -2827.450970107433, -4836.179892561423, -3846.131723658052, -10828.593174051426, -13610.826565125772, 0.013000000000000001, -0.11000000000000001, 0.9944999999999999, 192.0, 0.0, 0.0, 0.0, 0.0, 0.0, 0.0, 0.0, 0.0, 0.0, 1.645920490722454E9, 0.0, 2022-02-27 11:08:10.722
202.0, -3325.51489180504, -6259.337813775279, -1585.2751237481982, -10536.545280998384, -1047.5145038979656, 542.3874309524812, -5351.566416211894, -2779.93116139545, -4681.729338375251, -7991.598009061577, -4179.910323609152, -3186.1517651262006, -4764.050813204148, -3870.3386629031497, -11339.509348810834, -14420.674970230457, 0.013000000000000001, -0.11000000000000001, 0.9944999999999999, 192.0, 0.0, 0.0, 0.0, 0.0, 0.0, 0.0, 0.0, 0.0, 0.0, 1.645920490730466E9, 0.0, 2022-02-27 11:08:10.730
204.0, -3749.751001566768, -6533.571366497442, -1777.947160952945, -10773.18319954672, -1388.736234752683, 266.96923577418755, -5327.9853258115445, -2783.7086062083968, -4102.8862122161645, -8128.457740361422, -4225.865510209263, -2964.914198507571, -4819.505491197764, -3898.457157427926, -11116.617753102511, -14363.789780591702, 0.0165, -0.11000000000000001, 0.99225, 192.0, 0.0, 80.0, 126.0, 72.0, 15.0, 120.0, 0.0, 0.0, 0.0, 1.64592049073724E9, 0.0, 2022-02-27 11:08:10.737
206.0, -3439.084105382455, -6382.495925724021, -1626.3352783125972, -10566.51897031295, -1089.8263561518618, 488.2962093706381, -5325.236061243541, -2714.4629018858554, -3008.365989728688, -7456.944281690631, -4163.146515267672, -2968.959864253982, -4802.205240989357, -3833.011249662787, -10964.69294603979, -13644.778864953383, 0.0165, -0.11000000000000001, 0.99225, 192.0, 0.0, 0.0, 0.0, 0.0, 0.0, 0.0, 0.0, 0.0, 0.0, 1.645920490745223E9, 0.0, 2022-02-27 11:08:10.745
208.0, -3605.7163602967694, -6451.428705624188, -1669.8317730226247, -10665.49249476105, -1206.6142209308412, 410.1768624993399, -5360.373003527285, -2837.352792901134, -5352.236968545552, -8420.505633414465, -4234.403876591191, -3200.6133437887843, -4773.997339486759, -3918.909003604532, -11425.943544619508, -14846.31923989287, 0.0165, -0.11000000000000001, 0.99225, 192.0, 0.0, 0.0, 0.0, 0.0, 0.0, 0.0, 0.0, 0.0, 0.0, 1.6459204907524E9, 0.0, 2022-02-27 11:08:10.752
210.0, -3783.926818838933, -6633.528367701575, -1753.784925196758, -10720.343675654374, -1286.231134680645, 314.69021018626813, -5324.744322865525, -2749.8457133586066, -2694.5251458317216, -7567.607768488857, -4201.435053519614, -2855.8153338212173, -4833.095351826591, -3852.7925435057336, -10835.969249721677, -13626.65160020013, 0.0165, -0.11000000000000001, 0.99225, 192.0, 0.0, 0.0, 0.0, 0.0, 0.0, 0.0, 0.0, 0.0, 0.0, 1.645920490759567E9, 0.0, 2022-02-27 11:08:10.759
212.0, -3524.2666035016305, -6453.239196925068, -1595.3781122419969, -10549.844568949291, -1036.562149114865, 544.2873292311823, -5339.004735828011, -2764.1955332989137, -4694.715701903785, -8017.906012285473, -4227.832463721331, -3225.267317922988, -4769.951673740348, -3877.267703684295, -11313.201345586938, -14391.304778016183, 0.0165, -0.11000000000000001, 0.99225, 192.0, 0.0, 0.0, 0.0, 0.0, 0.0, 0.0, 0.0, 0.0, 0.0, 1.645920490766787E9, 0.0, 2022-02-27 11:08:10.766
214.0, -3943.7641434388333, -6724.030581001113, -1790.754710525836, -10782.258007795574, -1374.162897367823, 285.4764801831818, -5352.594596456837, -2762.5191524647657, -4229.955879444585, -8185.365281744634, -4280.984912036051, -3018.3125160113, -4825.629869178519, -3892.265724213806, -11121.53513688268, -14374.406859207971, 0.01425, -0.10700000000000001, 0.9901249999999999, 192.0, 0.0, 48.0, 126.0, 96.0, 15.0, 112.0, 0.0, 0.0, 0.0, 1.645920490774752E9, 0.0, 2022-02-27 11:08:10.774
216.0, -3622.5248721271605, -6558.314747609466, -1647.6588425229602, -10579.862961752768, -1078.1810972906467, 500.18733742086147, -5318.262316973486, -2665.736098973286, -3049.3814408041767, -7496.082186231874, -4220.83636770682, -3010.4223502185764, -4811.794139360683, -3825.076380381153, -10945.02341091912, -13614.067568071792, 0.01425, -0.10700000000000001, 0.9901249999999999, 192.0, 0.0, 0.0, 0.0, 0.0, 0.0, 0.0, 0.0, 0.0, 0.0, 1.645920490784479E9, 0.0, 2022-02-27 11:08:10.784
218.0, -3727.1980914113633, -6573.8045065169945, -1678.9289330159347, -10668.130000606776, -1192.5102701795424, 421.8444731050102, -5310.193337225121, -2791.1740888564696, -5417.280544910496, -8450.658136684673, -4283.354196948314, -3241.2711669529876, -4778.1547639554465, -3903.10632027463, -11406.497526943389, -14826.247373372003, 0.01425, -0.10700000000000001, 0.9901249999999999, 192.0, 0.0, 0.0, 0.0, 0.0, 0.0, 0.0, 0.0, 0.0, 0.0, 1.645920490790661E9, 0.0, 2022-02-27 11:08:10.790
220.0, -3857.397002863527, -6699.398958611365, -1769.7440707378473, -10728.36795191383, -1302.614963366385, 318.0653235990195, -5302.012598754478, -2679.5047735577555, -2777.4948212498216, -7612.98180973313, -4249.088972698328, -2885.252581268857, -4851.289671813211, -3841.7284300003566, -10819.384255335839, -13625.779882166373, 0.01425, -0.10700000000000001, 0.9901249999999999, 192.0, 0.0, 0.0, 0.0, 0.0, 0.0, 0.0, 0.0, 0.0, 0.0, 1.645920490797425E9, 0.0, 2022-02-27 11:08:10.797
222.0, -3505.3346759479855, -6439.269356640501, -1593.5452691966618, -10549.71045848256, -1029.789570544907, 549.8305618560985, -5328.857043845302, -2746.9846900683274, -4656.002480507193, -8007.2218784358365, -4244.372754618258, -3223.166253944189, -4775.070223220614, -3855.966491218387, -11297.845697146142, -14352.300983941674, 0.01425, -0.10700000000000001, 0.9901249999999999, 192.0, 0.0, 0.0, 0.0, 0.0, 0.0, 0.0, 0.0, 0.0, 0.0, 1.645920490805484E9, 0.0, 2022-02-27 11:08:10.805
224.0, -3899.3512272061384, -6682.590446780974, -1794.1968791719532, -10783.286188040518, -1374.4534700457418, 276.96046554570984, -5322.039761786433, -2769.6270072015536, -4281.163725991693, -8207.739377944396, -4284.672949871177, -3021.084132323758, -4826.278069767723, -3903.687465630468, -11127.458349163337, -14403.642940955513, 0.012125, -0.10550000000000001, 0.9880625, 192.0, 0.0, 40.0, 126.0, 96.0, 15.0, 104.0, 0.0, 0.0, 0.0, 1.645920490819091E9, 0.0, 2022-02-27 11:08:10.819
226.0, -3565.9302551663227, -6498.6132381693415, -1655.0572699376667, -10585.205028677587, -1087.144146817225, 485.8598692250096, -5303.934848777634, -2683.841011982085, -2997.7489111124173, -7488.951979750631, -4220.322277584348, -2993.077396521258, -4816.689171396395, -3827.535072271237, -10929.913631667332, -13607.429099968565, 0.012125, -0.10550000000000001, 0.9880625, 192.0, 0.0, 0.0, 0.0, 0.0, 0.0, 0.0, 0.0, 0.0, 0.0, 1.64592049082705E9, 0.0, 2022-02-27 11:08:10.827
228.0, -3648.8775788399676, -6496.221601512623, -1679.7559475607811, -10661.312718547908, -1184.8883253202828, 443.883293137943, -5323.67143913167, -2798.8183854601843, -5400.807309246935, -8438.05175281188, -4272.7594700764985, -3229.000059247024, -4777.104231966046, -3910.1471197780515, -11408.330369988726, -14832.908193219686, 0.012125, -0.10550000000000001, 0.9880625, 192.0, 0.0, 0.0, 0.0, 0.0, 0.0, 0.0, 0.0, 0.0, 0.0, 1.645920490835078E9, 0.0, 2022-02-27 11:08:10.835
230.0, -3792.12990905403, -6628.78979787705, -1778.5059545643276, -10728.770283314025, -1295.3506464184102, 325.597861480458, -5306.639409856726, -2692.714654530842, -2776.511344493788, -7615.7087225566775, -4236.974327203551, -2863.7502031028516, -4838.057439095669, -3841.7954852337225, -10824.636915282836, -13644.622402742196, 0.012125, -0.10550000000000001, 0.9880625, 192.0, 0.0, 0.0, 0.0, 0.0, 0.0, 0.0, 0.0, 0.0, 0.0, 1.645920490842237E9, 0.0, 2022-02-27 11:08:10.842
232.0, -3444.5379310295502, -6377.533838454943, -1598.1944320433656, -10542.04381013439, -1013.5845558148094, 561.9005038619642, -5309.321619191363, -2749.6221959140535, -4587.360273284945, -7973.62720651951, -4229.2629753664705, -3206.4695008360745, -4761.435659102876, -3856.1453051740295, -11278.533789936757, -14325.970628973322, 0.012125, -0.10550000000000001, 0.9880625, 192.0, 0.0, 0.0, 0.0, 0.0, 0.0, 0.0, 0.0, 0.0, 0.0, 1.64592049084966E9, 0.0, 2022-02-27 11:08:10.849
234.0, -3835.8946246975215, -6615.043475037036, -1784.0715389336992, -10773.384365246817, -1355.2756733030885, 292.1820035197739, -5313.389636682229, -2766.5648182111763, -4314.423121741191, -8212.14267160209, -4269.0043770080065, -3011.0034955744145, -4808.687246881395, -3895.4620236709147, -11124.485567150781, -14422.373702809062, 0.0110625, -0.10575000000000001, 0.98503125, 192.0, 0.0, 40.0, 126.0, 88.0, 15.0, 88.0, 0.0, 0.0, 0.0, 1.645920490857703E9, 0.0, 2022-02-27 11:08:10.857
236.0, -3532.9837838392004, -6453.194493436157, -1656.890112983002, -10584.534476343928, -1092.5085654864986, 489.2573343822163, -5296.625828340749, -2681.650541025465, -2944.417648842055, -7466.130848661763, -4204.340780298803, -2967.9763874979485, -4806.876755580515, -3820.5166245122705, -10910.847593646955, -13591.648768383118, 0.0110625, -0.10575000000000001, 0.98503125, 192.0, 0.0, 0.0, 0.0, 0.0, 0.0, 0.0, 0.0, 0.0, 0.0, 1.645920490864832E9, 0.0, 2022-02-27 11:08:10.864
238.0, -3612.600697589004, -6454.9379295036715, -1679.688892327415, -10654.987174867056, -1188.5763631554084, 447.07959259505185, -5316.876508817257, -2795.4879755363436, -5415.7382745430805, -8431.659153897663, -4270.390185164236, -3224.68617256715, -4780.971083756815, -3905.1179772756077, -11412.756015390876, -14832.215289141572, 0.0110625, -0.10575000000000001, 0.98503125, 192.0, 0.0, 0.0, 0.0, 0.0, 0.0, 0.0, 0.0, 0.0, 0.0, 1.645920490871375E9, 0.0, 2022-02-27 11:08:10.871
240.0, -3770.180495998919, -6599.956047529704, -1778.528306308783, -10733.017114760532, -1311.712123359695, 314.39963750834914, -5309.7910058249245, -2690.77005276323, -2805.6133157745976, -7624.492958127614, -4234.582690546834, -2854.764801831818, -4846.416991521954, -3838.040392165231, -10827.743807762125, -13659.75453373844, 0.0110625, -0.10575000000000001, 0.98503125, 192.0, 0.0, 0.0, 0.0, 0.0, 0.0, 0.0, 0.0, 0.0, 0.0, 1.645920490879371E9, 0.0, 2022-02-27 11:08:10.879
242.0, -3412.8878608808354, -6342.374544426745, -1594.372283741508, -10543.496673523983, -1022.1452739411919, 553.3397857355817, -5320.542194907927, -2758.808762885185, -4535.593633126454, -7955.566996999622, -4221.238699107015, -3187.403462815698, -4767.403574872444, -3856.3464708741276, -11273.906978834508, -14304.423547318405, 0.0110625, -0.10575000000000001, 0.98503125, 192.0, 0.0, 0.0, 0.0, 0.0, 0.0, 0.0, 0.0, 0.0, 0.0, 1.645920490887346E9, 0.0, 2022-02-27 11:08:10.887
244.0, -3805.2727347937507, -6581.940541498726, -1783.1774691554867, -10774.166676302753, -1359.7907256830604, 290.39386396334936, -5308.76282557998, -2764.3966989990117, -4360.758287997042, -8227.498320042887, -4262.120039715772, -3008.50010019542, -4809.156633514957, -3891.8857445580657, -11141.271727236715, -14447.430008343461, 0.01153125, -0.106875, 0.984515625, 192.0, 0.0, 48.0, 126.0, 80.0, 15.0, 96.0, 0.0, 0.0, 0.0, 1.64592049089446E9, 0.0, 2022-02-27 11:08:10.894
246.0, -3509.805024839047, -6422.147920387736, -1654.1855519039098, -10591.374110147251, -1097.8953359002276, 484.58581979105713, -5303.465462144072, -2672.486325798789, -2905.078578600714, -7460.43115382566, -4198.26110580696, -2950.25145414489, -4805.267429979734, -3815.867461665566, -10898.420023729805, -13574.080297241248, 0.01153125, -0.106875, 0.984515625, 192.0, 0.0, 0.0, 0.0, 0.0, 0.0, 0.0, 0.0, 0.0, 0.0, 1.645920490901959E9, 0.0, 2022-02-27 11:08:10.901
