%OpenBCI Raw EEG Data
%Number of channels = 16
%Sample Rate = 125 Hz
%Board = OpenBCI_GUI$BoardCytonSerialDaisy
Sample Index, EXG Channel 0, EXG Channel 1, EXG Channel 2, EXG Channel 3, EXG Channel 4, EXG Channel 5, EXG Channel 6, EXG Channel 7, EXG Channel 8, EXG Channel 9, EXG Channel 10, EXG Channel 11, EXG Channel 12, EXG Channel 13, EXG Channel 14, EXG Channel 15, Accel Channel 0, Accel Channel 1, Accel Channel 2, Other, Other, Other, Other, Other, Other, Other, Analog Channel 0, Analog Channel 1, Analog Channel 2, Timestamp, Other, Timestamp (Formatted)
0.0, -3270.8648766118145, -6016.195537590449, -2063.0436614803866, -11322.186746857971, -1554.250902444232, 19.155444998198153, -5548.641747074335, -2390.273200306082, 0.0, 0.0, 0.0, 0.0, 0.0, 0.0, 0.0, 0.0, 0.0, 0.0, 0.0, 192.0, 0.0, 0.0, 0.0, 0.0, 0.0, 0.0, 0.0, 0.0, 0.0, 1.645920754721143E9, 0.0, 2022-02-27 11:12:34.721
26.0, -2862.4314501799886, -5685.724995818734, -1702.979410049845, -10924.102178108953, -1134.0157549400037, 378.8620685174547, -5150.4230678585855, -1898.6912845005138, -2114.5867841943245, -7290.312026776318, -4605.599296760475, -3261.2089230071215, -4732.22192909979, -3731.6460885579695, -10144.495683252297, -13671.533903066385, 0.0, 0.0, 0.0, 192.0, 0.0, 0.0, 0.0, 0.0, 0.0, 0.0, 0.0, 0.0, 0.0, 1.645920754721146E9, 0.0, 2022-02-27 11:12:34.721
28.0, -1123.6668972571968, -2612.4942436807446, -669.7476708588208, -5230.442313008584, -370.658978302357, 435.5684442005687, -2484.686968885299, -937.4321624555782, -4888.795899009216, -7857.241673140726, -4270.32312993087, -3320.3516388358644, -4254.922778001163, -3433.093837868433, -10469.892379032657, -14741.154282230651, 0.0, 0.0, 0.0, 192.0, 0.0, 0.0, 0.0, 0.0, 0.0, 0.0, 0.0, 0.0, 0.0, 1.645920754821559E9, 0.0, 2022-02-27 11:12:34.821
2.0, -3153.9652531105585, -5961.3443566971255, -2049.610263062747, -11212.797309493699, -1599.60259194405, 126.01913523902122, -5568.668910106291, -2525.657716471877, -5617.105140340941, -8322.850861889227, -4413.77662584503, -3440.738134472148, -4417.174091002237, -3628.0681047520766, -10714.465166862628, -15137.85304282344, 0.0, 0.0, 0.0, 192.0, 0.0, 0.0, 0.0, 0.0, 0.0, 0.0, 0.0, 0.0, 0.0, 1.645920754827771E9, 0.0, 2022-02-27 11:12:34.827
4.0, -2954.5876925692196, -5782.172773143384, -1833.4241906910172, -10962.323661127528, -1375.1016706349458, 340.95350992125395, -5228.967097874534, -2087.4964699144925, -2376.437470488247, -7416.04058933742, -4623.860671980461, -3286.8016704084484, -4811.347104471577, -3816.180386087941, -10278.829667428692, -13720.931258312614, 0.0, 0.0, 0.0, 192.0, 0.0, 0.0, 0.0, 0.0, 0.0, 0.0, 0.0, 0.0, 0.0, 1.645920754834234E9, 0.0, 2022-02-27 11:12:34.834
6.0, -2523.757818193176, -5454.876179084323, -1573.9651410538127, -10708.74312028207, -1007.370770856234, 643.1267432125501, -5159.006137729423, -2124.4662552435702, -4478.574333020965, -7609.360827131371, -4200.3845215302135, -3262.9523590746358, -4254.252225667504, -3401.264953764076, -10419.936230175046, -14353.17270197543, 0.007, -0.052000000000000005, 0.493, 192.0, 0.0, 56.0, 126.0, 96.0, 15.0, 104.0, 0.0, 0.0, 0.0, 1.645920754842412E9, 0.0, 2022-02-27 11:12:34.842
8.0, -3360.964758511157, -6112.442149215001, -2169.505020321014, -11317.068197377706, -1764.3125968352076, -2.3692849122625486, -5481.966493364155, -2419.6880960092662, -4228.525367799445, -8235.634355024618, -4722.722437706285, -3468.051966196533, -4823.864081366549, -3934.7787421678, -10616.38571219274, -14725.530412856391, 0.007, -0.052000000000000005, 0.493, 192.0, 0.0, 0.0, 0.0, 0.0, 0.0, 0.0, 0.0, 0.0, 0.0, 1.645920754850365E9, 0.0, 2022-02-27 11:12:34.850
10.0, -2478.361425204447, -5405.747044771558, -1505.702913487305, -10619.649066883216, -951.8043341403406, 706.1810143209714, -5026.5720518317285, -1919.6125173106811, -2648.100572598049, -7119.969382282422, -4331.924537649696, -3186.062358148379, -4491.873620971874, -3521.0479523000663, -10177.889189468526, -13557.651765066597, 0.007, -0.052000000000000005, 0.493, 192.0, 0.0, 0.0, 0.0, 0.0, 0.0, 0.0, 0.0, 0.0, 0.0, 1.645920754857364E9, 0.0, 2022-02-27 11:12:34.857
12.0, -3135.9944505684916, -5951.755458325799, -2042.54711181487, -11205.018902423251, -1589.3878447279747, 136.0774202439094, -5539.544587081026, -2516.851129156486, -5621.01669562062, -8311.227954772468, -4406.668771108243, -3434.7478669581255, -4408.501614153578, -3616.601659846504, -10704.943323724667, -15136.020199778104, 0.007, -0.052000000000000005, 0.493, 192.0, 0.0, 0.0, 0.0, 0.0, 0.0, 0.0, 0.0, 0.0, 0.0, 1.645920754865081E9, 0.0, 2022-02-27 11:12:34.865
14.0, -2964.82479152975, -5794.7568052717215, -1845.1141530411428, -10974.125382199929, -1386.903391707348, 323.8097219240334, -5217.612411691238, -2092.615019394758, -2402.0302178895736, -7439.912252415687, -4631.728486028729, -3292.300199544454, -4814.7222178843285, -3827.4009618045047, -10275.40985052703, -13734.699932897083, 0.007, -0.052000000000000005, 0.493, 192.0, 0.0, 0.0, 0.0, 0.0, 0.0, 0.0, 0.0, 0.0, 0.0, 1.645920754872869E9, 0.0, 2022-02-27 11:12:34.872
16.0, -2500.1096725594607, -5435.921899786223, -1559.5482658801398, -10697.075509676399, -995.725511995019, 654.6825950959438, -5177.625140860694, -2116.956069106587, -4419.655134636776, -7590.115975155351, -4199.2669343074485, -3255.5986351488395, -4251.212388421582, -3398.4709857071625, -10403.77591893386, -14327.825823763113, 0.0095, -0.079, 0.7415, 192.0, 0.0, 48.0, 126.0, 88.0, 15.0, 120.0, 0.0, 0.0, 0.0, 1.645920754887158E9, 0.0, 2022-02-27 11:12:34.887
18.0, -3360.227150944132, -6111.928059092529, -2164.1406016517403, -11322.522023024801, -1764.5808177686713, -0.40233140019552716, -5507.291019832018, -2448.6559568233442, -4300.542688434445, -8250.095933687202, -4721.873071416983, -3465.7497365176364, -4812.196470760879, -3927.7379426643784, -10621.034875039444, -14761.427314451614, 0.0095, -0.079, 0.7415, 192.0, 0.0, 0.0, 0.0, 0.0, 0.0, 0.0, 0.0, 0.0, 0.0, 1.645920754894547E9, 0.0, 2022-02-27 11:12:34.894
20.0, -2484.7763758631204, -5409.278620395497, -1505.5911547650285, -10623.381808207252, -962.3320057787903, 705.353999776125, -5045.928662530025, -1910.1577294060862, -2614.2153280038033, -7111.989809511878, -4345.626157000799, -3183.0001691580023, -4506.715179290197, -3539.5551967090605, -10173.955282444393, -13555.170721432058, 0.0095, -0.079, 0.7415, 192.0, 0.0, 0.0, 0.0, 0.0, 0.0, 0.0, 0.0, 0.0, 0.0, 1.645920754902583E9, 0.0, 2022-02-27 11:12:34.902
22.0, -3140.4424477150974, -5945.027583244751, -2039.5072745689483, -11202.470803555347, -1578.8825248339804, 145.19693198167468, -5542.249148160118, -2518.0357716126173, -5610.310210026528, -8313.485480962454, -4406.780529830519, -3435.9548611587124, -4412.971963044639, -3631.554976887104, -10700.763547511524, -15127.191260718258, 0.0095, -0.079, 0.7415, 192.0, 0.0, 0.0, 0.0, 0.0, 0.0, 0.0, 0.0, 0.0, 0.0, 1.645920754909658E9, 0.0, 2022-02-27 11:12:34.909
24.0, -2972.49143987792, -5798.109566940018, -1839.5485686717714, -10974.88534151141, -1381.7177869937168, 340.4170680543266, -5208.112920297733, -2089.5304786599254, -2396.6657992203, -7447.578900763858, -4636.198834919791, -3295.228278068099, -4821.941831343393, -3836.4757700533596, -10268.905492890537, -13736.376313731233, 0.0095, -0.079, 0.7415, 192.0, 0.0, 0.0, 0.0, 0.0, 0.0, 0.0, 0.0, 0.0, 0.0, 1.645920754917217E9, 0.0, 2022-02-27 11:12:34.917
26.0, -2505.943477862296, -5442.761533589546, -1554.630882099972, -10696.092032920365, -995.3231805948235, 656.1354584855388, -5190.83502183378, -2123.639240698724, -4404.053617006972, -7593.625199034835, -4197.255277306471, -3256.716222371605, -4252.061754710884, -3408.775139901059, -10400.803136921304, -14323.154309171952, 0.01075, -0.0915, 0.86575, 192.0, 0.0, 48.0, 126.0, 96.0, 15.0, 120.0, 0.0, 0.0, 0.0, 1.645920754925231E9, 0.0, 2022-02-27 11:12:34.925
28.0, -3376.2086482296763, -6125.741437165909, -2163.246531873528, -11322.611430002622, -1770.9510649384338, 2.838671545823997, -5522.825482228456, -2444.789105032576, -4281.700167858621, -8250.453561598488, -4724.6223359849855, -3473.952826732734, -4818.700828397373, -3940.1431608370735, -10625.996962308522, -14756.44287543808, 0.01075, -0.0915, 0.86575, 192.0, 0.0, 0.0, 0.0, 0.0, 0.0, 0.0, 0.0, 0.0, 0.0, 1.645920754933221E9, 0.0, 2022-02-27 11:12:34.933
30.0, -2497.2262975247263, -5423.337867657884, -1501.478433785252, -10623.158290762698, -959.4933342329663, 697.0391508387507, -5025.521519842329, -1906.6708572710584, -2615.914060582407, -7121.019914271822, -4344.910901178229, -3190.622114017262, -4498.288571630546, -3534.6601646733484, -10176.458677823386, -13556.35536388819, 0.01075, -0.0915, 0.86575, 192.0, 0.0, 0.0, 0.0, 0.0, 0.0, 0.0, 0.0, 0.0, 0.0, 1.645920754939753E9, 0.0, 2022-02-27 11:12:34.939
32.0, -3131.4793981885196, -5940.065495975673, -2023.8163499613227, -11194.133602873517, -1572.5569811531284, 155.90341757576675, -5508.721531477157, -2488.598524164978, -5624.950602644754, -8314.200736785024, -4405.685294352209, -3444.4932275406395, -4400.67850359422, -3621.5860988600375, -10690.235875873075, -15122.318580427002, 0.01075, -0.0915, 0.86575, 192.0, 0.0, 0.0, 0.0, 0.0, 0.0, 0.0, 0.0, 0.0, 0.0, 1.645920754946901E9, 0.0, 2022-02-27 11:12:34.946
34.0, -2986.505983651398, -5805.798567032643, -1846.4776094529163, -10982.663748581857, -1406.3494093834652, 325.9107859028323, -5210.8845366101905, -2094.0678827843526, -2422.794988488554, -7468.746002763034, -4647.218244936257, -3304.0572171279455, -4824.579337189119, -3834.8887961970327, -10273.711117948427, -13745.495825468997, 0.01075, -0.0915, 0.86575, 192.0, 0.0, 0.0, 0.0, 0.0, 0.0, 0.0, 0.0, 0.0, 0.0, 1.645920754955007E9, 0.0, 2022-02-27 11:12:34.955
36.0, -2497.002780080173, -5426.377704903806, -1541.9797947382683, -10682.658634502726, -989.534078780899, 666.5066679128013, -5171.523114624395, -2107.635391668724, -4365.742727010575, -7574.603864503368, -4206.821823933342, -3258.705527628127, -4258.052022224906, -3407.9704771006677, -10388.24145653742, -14297.628617003993, 0.012375, -0.09875, 0.928875, 192.0, 0.0, 56.0, 126.0, 88.0, 15.5, 0.0, 0.0, 0.0, 0.0, 1.645920754962937E9, 0.0, 2022-02-27 11:12:34.962
38.0, -3372.453555161185, -6116.420759728046, -2160.1172876497853, -11323.28198233628, -1780.3611493541182, 2.2798779344413203, -5516.745807736613, -2428.561738558023, -4347.0119651570285, -8261.58473033723, -4721.470740016787, -3481.8429925254577, -4808.955467814859, -3926.7768176528, -10622.28657272894, -14773.273739012926, 0.012375, -0.09875, 0.928875, 192.0, 0.0, 0.0, 0.0, 0.0, 0.0, 0.0, 0.0, 0.0, 0.0, 1.645920754969561E9, 0.0, 2022-02-27 11:12:34.969
40.0, -2491.236030010704, -5409.345675628862, -1495.666980226872, -10615.62575288126, -963.7401656794747, 698.0673310836949, -5021.006467462357, -1899.8535752121898, -2578.4748886197676, -7122.003391027855, -4351.81759021492, -3199.808680988393, -4515.164138694303, -3544.696097933781, -10160.253663093288, -13537.557546801276, 0.012375, -0.09875, 0.928875, 192.0, 0.0, 0.0, 0.0, 0.0, 0.0, 0.0, 0.0, 0.0, 0.0, 1.6459207549776E9, 0.0, 2022-02-27 11:12:34.977
42.0, -3112.167490979134, -5919.41248409897, -2011.321724810806, -11176.520428242735, -1561.6493298589385, 169.9403130936996, -5521.2161566276745, -2485.581038663511, -5602.867079122911, -8289.993797539926, -4387.982712743606, -3433.183244846254, -4391.022549989528, -3606.14104344142, -10673.181494853676, -15101.598513316932, 0.012375, -0.09875, 0.928875, 192.0, 0.0, 0.0, 0.0, 0.0, 0.0, 0.0, 0.0, 0.0, 0.0, 1.645920754985551E9, 0.0, 2022-02-27 11:12:34.985
44.0, -2980.0016260149036, -5800.344741385548, -1844.2871384962964, -10975.444135122792, -1401.4990808366636, 329.91174816033225, -5224.832025150303, -2095.900725829688, -2416.7153139967104, -7456.564302034892, -4631.728486028729, -3297.329342046898, -4820.466616209343, -3828.4067903049936, -10264.859827144126, -13742.165415545156, 0.012375, -0.09875, 0.928875, 192.0, 0.0, 0.0, 0.0, 0.0, 0.0, 0.0, 0.0, 0.0, 0.0, 1.645920754992597E9, 0.0, 2022-02-27 11:12:34.992
46.0, -2498.1427190473937, -5430.333963672396, -1537.3529836360199, -10676.288387332963, -981.5992094992649, 670.194705747927, -5184.9341612975795, -2113.446845227104, -4347.570758768411, -7567.674823722223, -4196.517669739445, -3259.7560596175267, -4255.928606501652, -3399.4768142076514, -10382.452354723497, -14286.698613965347, 0.013187500000000001, -0.103375, 0.9584375, 192.0, 0.0, 56.0, 126.0, 80.0, 15.0, 112.0, 0.0, 0.0, 0.0, 1.645920755007115E9, 0.0, 2022-02-27 11:12:35.007
48.0, -3380.678997120738, -6124.02035284285, -2166.196962141629, -11321.203270101938, -1779.5788382981825, -0.9164215226675896, -5506.75457796509, -2431.042782192562, -4351.795238470464, -8274.995777010416, -4723.929431906871, -3489.6884548292705, -4811.52591842722, -3931.649497944057, -10625.43816869714, -14776.514741958947, 0.013187500000000001, -0.103375, 0.9584375, 192.0, 0.0, 0.0, 0.0, 0.0, 0.0, 0.0, 0.0, 0.0, 0.0, 1.645920755015305E9, 0.0, 2022-02-27 11:12:35.015
50.0, -2499.9308586038183, -5418.64400132227, -1506.865204198981, -10622.465386684584, -964.9471598800612, 706.1363108320608, -5014.345647614676, -1888.4094820510725, -2582.4087956439016, -7118.091835748177, -4351.281148347992, -3201.038026933435, -4510.447920614233, -3530.8156646270354, -10162.779410216739, -13531.656686265074, 0.013187500000000001, -0.103375, 0.9584375, 192.0, 0.0, 0.0, 0.0, 0.0, 0.0, 0.0, 0.0, 0.0, 0.0, 1.645920755022004E9, 0.0, 2022-02-27 11:12:35.022
52.0, -3111.787511323394, -5922.78759751172, -2022.0058586604428, -11173.324128785627, -1559.6823763468715, 181.42910974372742, -5525.373581096361, -2482.071814784028, -5618.178024074796, -8284.159992237092, -4389.033244733006, -3436.8489309369247, -4385.099337708872, -3592.6629415348702, -10679.954073423634, -15100.4138708608, 0.013187500000000001, -0.103375, 0.9584375, 192.0, 0.0, 0.0, 0.0, 0.0, 0.0, 0.0, 0.0, 0.0, 0.0, 1.645920755029784E9, 0.0, 2022-02-27 11:12:35.029
54.0, -3001.124024525169, -5818.382599160981, -1870.7069004424693, -10981.41205089236, -1421.2803746796103, 323.31798354601665, -5241.260557324953, -2100.1922607651068, -2447.918349256319, -7479.676005801679, -4652.2473874387015, -3305.3089148174427, -4827.552119201675, -3827.289203082228, -10279.947254651459, -13757.856340152783, 0.013187500000000001, -0.103375, 0.9584375, 192.0, 0.0, 0.0, 0.0, 0.0, 0.0, 0.0, 0.0, 0.0, 0.0, 1.645920755037812E9, 0.0, 2022-02-27 11:12:35.037
56.0, -2496.667503913344, -5426.578870603904, -1549.668794830894, -10670.052250629933, -987.4106630576448, 676.5426011732342, -5161.509533108418, -2084.5236879019367, -4332.148055094249, -7564.299710309471, -4209.0122948899625, -3257.677347383183, -4266.344519417825, -3391.2066687591873, -10390.00724434939, -14272.035869602665, 0.01459375, -0.10568749999999999, 0.97221875, 192.0, 0.0, 64.0, 126.0, 80.0, 15.0, 104.0, 0.0, 0.0, 0.0, 1.645920755044728E9, 0.0, 2022-02-27 11:12:35.044
58.0, -3380.768404098559, -6123.372152253646, -2180.502078593025, -11325.740674226365, -1779.3553208536293, 0.6034971002932907, -5491.734205691124, -2437.2118636622267, -4389.256762177559, -8285.031710270847, -4723.482397017765, -3487.699149572748, -4805.781520102206, -3927.849701386655, -10638.335125247851, -14793.814992167354, 0.01459375, -0.10568749999999999, 0.97221875, 192.0, 0.0, 0.0, 0.0, 0.0, 0.0, 0.0, 0.0, 0.0, 0.0, 1.645920755052353E9, 0.0, 2022-02-27 11:12:35.052
60.0, -2509.0280185971283, -5430.289260183485, -1525.0371724411457, -10630.400255966219, -967.9646453815277, 703.0964735861389, -5007.5507173002625, -1887.7389297174134, -2570.4059088714016, -7119.455292159951, -4355.751497239054, -3199.0263699324573, -4508.235097913158, -3536.4259524853173, -10168.456753308386, -13534.428302577533, 0.01459375, -0.10568749999999999, 0.97221875, 192.0, 0.0, 0.0, 0.0, 0.0, 0.0, 0.0, 0.0, 0.0, 0.0, 1.645920755059542E9, 0.0, 2022-02-27 11:12:35.059
62.0, -3110.2899444448885, -5924.776902768243, -2024.9786406729986, -11173.748811930278, -1555.3237861780867, 183.53017372252629, -5505.927563420244, -2480.328378716514, -5623.810663677534, -8292.273675474367, -4394.129442468816, -3444.895558940835, -4382.618294074332, -3593.512307824172, -10685.027919414988, -15100.70444353872, 0.01459375, -0.10568749999999999, 0.97221875, 192.0, 0.0, 0.0, 0.0, 0.0, 0.0, 0.0, 0.0, 0.0, 0.0, 1.645920755067439E9, 0.0, 2022-02-27 11:12:35.067
64.0, -3006.041408305336, -5823.702314341344, -1878.3511970461843, -10992.65497835338, -1429.6846305948056, 320.23344281118426, -5237.192539834087, -2105.7354933900233, -2463.363404674936, -7489.801346039933, -4658.192951463813, -3317.8929469457803, -4832.313040770655, -3837.392191576027, -10289.491449533874, -13769.278081569444, 0.01459375, -0.10568749999999999, 0.97221875, 192.0, 0.0, 0.0, 0.0, 0.0, 0.0, 0.0, 0.0, 0.0, 0.0, 1.645920755074447E9, 0.0, 2022-02-27 11:12:35.074
66.0, -2490.364311976947, -5424.544861858471, -1551.9486727653352, -10666.900654661735, -982.4932792774772, 686.5114792003011, -5157.374460384186, -2079.1369174882075, -4297.324037232881, -7550.39692525827, -4208.11822511175, -3266.260417254021, -4264.355214161303, -3398.5827444294387, -10391.325997272254, -14253.752142638225, 0.012296875, -0.10884374999999999, 0.9801093750000001, 192.0, 0.0, 40.0, 126.0, 64.0, 15.0, 112.0, 0.0, 0.0, 0.0, 1.645920755082039E9, 0.0, 2022-02-27 11:12:35.082
68.0, -3384.2776279780423, -6126.322582521747, -2192.4602618766144, -11328.713456238922, -1792.654608804537, -3.3751134127513667, -5511.8507757009, -2438.7094305407322, -4429.869881852851, -8280.874285802161, -4721.023705127681, -3498.003303766645, -4802.6299241340075, -3924.228718784895, -10652.349669021329, -14807.181335351628, 0.012296875, -0.10884374999999999, 0.9801093750000001, 192.0, 0.0, 0.0, 0.0, 0.0, 0.0, 0.0, 0.0, 0.0, 0.0, 1.645920755090032E9, 0.0, 2022-02-27 11:12:35.090
70.0, -2519.0639518575613, -5432.8820625403005, -1533.4861318452517, -10632.926003089668, -978.8946484201728, 692.7923193922425, -5028.918984999536, -1889.8176419517567, -2556.972510453762, -7114.381446168595, -4370.77186951302, -3209.039951448435, -4528.485778389666, -3548.160618324354, -10176.838657479128, -13525.845232706695, 0.012296875, -0.10884374999999999, 0.9801093750000001, 192.0, 0.0, 0.0, 0.0, 0.0, 0.0, 0.0, 0.0, 0.0, 0.0, 1.645920755097926E9, 0.0, 2022-02-27 11:12:35.097
72.0, -3083.4454993540644, -5898.491251288802, -2007.8348526757782, -11153.051096564663, -1530.7592190217042, 197.2094413291742, -5511.426092556249, -2473.7122623577434, -5622.693076454768, -8275.174590966057, -4385.971055742629, -3438.771180960081, -4376.873895749319, -3584.303389108585, -10686.167858382209, -15093.75305101312, 0.012296875, -0.10884374999999999, 0.9801093750000001, 192.0, 0.0, 0.0, 0.0, 0.0, 0.0, 0.0, 0.0, 0.0, 0.0, 1.645920755104703E9, 0.0, 2022-02-27 11:12:35.104
74.0, -3022.0676090797915, -5830.452541166847, -1891.784595463824, -11010.983408806731, -1436.4572091647638, 302.1955850357515, -5229.972926375023, -2111.0775603148413, -2518.8627861574637, -7514.790596340967, -4659.109372986481, -3323.1456068927773, -4833.184758804412, -3839.202682876907, -10302.410757829042, -13813.288666401944, 0.012296875, -0.10884374999999999, 0.9801093750000001, 192.0, 0.0, 0.0, 0.0, 0.0, 0.0, 0.0, 0.0, 0.0, 0.0, 1.645920755112724E9, 0.0, 2022-02-27 11:12:35.112
76.0, -2467.073794254517, -5407.334018627885, -1531.988564966746, -10660.463352258606, -957.5040289764439, 694.6251624375776, -5148.612576557705, -2088.926981559632, -4237.466065581568, -7514.522375407502, -4188.180469057616, -3253.9446060591467, -4249.0442692094175, -3384.0764622779448, -10370.583578417729, -14235.691933118336, 0.014, -0.108, 0.984, 192.0, 0.0, 56.0, 126.0, 80.0, 15.0, 96.0, 0.0, 0.0, 0.0, 1.645920755120663E9, 0.0, 2022-02-27 11:12:35.120
78.0, -3378.577933141939, -6130.524710479344, -2184.033654216964, -11326.210060859927, -1782.9315999664784, 8.784235570935676, -5499.624371483847, -2429.5452153140563, -4441.649251180798, -8279.06379450128, -4699.677789172863, -3491.566001363516, -4778.266522677723, -3901.2734772292947, -10644.05717182841, -14818.021931412452, 0.014, -0.108, 0.984, 192.0, 0.0, 0.0, 0.0, 0.0, 0.0, 0.0, 0.0, 0.0, 0.0, 1.645920755134265E9, 0.0, 2022-02-27 11:12:35.134
80.0, -2516.225280311737, -5439.989917277088, -1534.536663834651, -10632.34485773383, -981.889782177184, 702.6941421859434, -5018.771293016826, -1873.299702799285, -2535.4701322877568, -7109.888745533079, -4369.1401921677825, -3206.938887469636, -4520.126225963381, -3531.3297547495076, -10167.942663185915, -13514.714063967951, 0.014, -0.108, 0.984, 192.0, 0.0, 0.0, 0.0, 0.0, 0.0, 0.0, 0.0, 0.0, 0.0, 1.645920755142433E9, 0.0, 2022-02-27 11:12:35.142
82.0, -3083.0208162094136, -5907.208431626372, -2014.093341123264, -11156.515616955236, -1545.7348878067598, 200.04811287499822, -5517.461063559183, -2464.816268064531, -5608.544422214559, -8255.706221545484, -4377.119764938327, -3432.7809134460585, -4368.044956689472, -3564.2315225877196, -10690.25822761753, -15078.486809550144, 0.014, -0.108, 0.984, 192.0, 0.0, 0.0, 0.0, 0.0, 0.0, 0.0, 0.0, 0.0, 0.0, 1.645920755150176E9, 0.0, 2022-02-27 11:12:35.150
84.0, -3009.6400391626407, -5830.452541166847, -1884.0955953711982, -11002.400338935893, -1436.8595405649592, 319.4511317552485, -5228.542414729884, -2098.404121208682, -2490.2749049991257, -7494.316398419905, -4662.730355588241, -3318.8317202129033, -4834.347049516088, -3834.4417613079268, -10311.530269566807, -13784.521971287963, 0.014, -0.108, 0.984, 192.0, 0.0, 0.0, 0.0, 0.0, 0.0, 0.0, 0.0, 0.0, 0.0, 1.645920755157331E9, 0.0, 2022-02-27 11:12:35.157
86.0, -2466.425593665313, -5408.295143639462, -1530.1333701769556, -10656.171817323187, -963.5837034682875, 698.8272903951753, -5135.49210256244, -2068.676301083124, -4243.344574373314, -7521.831395844388, -4197.322332539837, -3255.062193281912, -4259.504885614501, -3386.065767534467, -10386.207447791989, -14232.33917145004, 0.014, -0.112, 0.988, 192.0, 0.0, 56.0, 126.0, 64.0, 15.0, 112.0, 0.0, 0.0, 0.0, 1.645920755165003E9, 0.0, 2022-02-27 11:12:35.165
88.0, -3370.2183807156543, -6124.221518542948, -2172.321340122383, -11328.132310883084, -1773.9014952065345, 11.10881699428761, -5492.0471301134985, -2435.9601659727296, -4476.227399853158, -8301.281428489856, -4700.817728140084, -3487.252114683642, -4784.703825080851, -3884.3755584210826, -10649.220424797586, -14824.638047771223, 0.014, -0.112, 0.988, 192.0, 0.0, 0.0, 0.0, 0.0, 0.0, 0.0, 0.0, 0.0, 0.0, 1.645920755172944E9, 0.0, 2022-02-27 11:12:35.172
90.0, -2518.102826845983, -5439.118199243331, -1520.4997683167182, -10633.596555423326, -978.0005786419605, 707.1421393325495, -5004.980266687902, -1891.8516506971898, -2492.39832072238, -7107.854736787646, -4363.619311287322, -3197.461747820586, -4524.954202765728, -3535.9342141073007, -10156.923253169449, -13510.690749965997, 0.014, -0.112, 0.988, 192.0, 0.0, 0.0, 0.0, 0.0, 0.0, 0.0, 0.0, 0.0, 0.0, 1.645920755179974E9, 0.0, 2022-02-27 11:12:35.179
92.0, -3067.8663334687158, -5892.2551145857715, -1995.9884281144655, -11144.937413327387, -1523.0031636957126, 224.50092130910414, -5486.548600977493, -2449.7064888127434, -5589.031349305075, -8245.267956884856, -4367.48616307809, -3429.897538411324, -4362.725241509109, -3557.4142405288508, -10673.650881487238, -15068.629690245354, 0.014, -0.112, 0.988, 192.0, 0.0, 0.0, 0.0, 0.0, 0.0, 0.0, 0.0, 0.0, 0.0, 1.645920755186545E9, 0.0, 2022-02-27 11:12:35.186
94.0, -3021.93349861306, -5836.174587747406, -1891.8516506971898, -11008.07768202754, -1430.2434242061884, 313.05853284103074, -5225.860205395246, -2105.4002172231935, -2506.2564022846705, -7517.003419042042, -4664.384384677933, -3326.476016816618, -4840.382020519021, -3841.95194744491, -10302.94719969597, -13804.280913386454, 0.014, -0.112, 0.988, 192.0, 0.0, 0.0, 0.0, 0.0, 0.0, 0.0, 0.0, 0.0, 0.0, 1.645920755194653E9, 0.0, 2022-02-27 11:12:35.194
96.0, -2461.396451162869, -5397.432195834183, -1532.5250068336734, -10643.431322983663, -956.2076277980361, 713.5570899912227, -5136.252061873921, -2047.2409781504846, -4186.97347485703, -7495.143412964751, -4195.623599961234, -3248.244911223044, -4258.834333280842, -3381.394252943308, -10369.980081317435, -14204.555953092093, 0.012, -0.11, 0.988, 192.0, 0.0, 48.0, 126.0, 72.0, 15.0, 112.0, 0.0, 0.0, 0.0, 1.645920755202642E9, 0.0, 2022-02-27 11:12:35.202
98.0, -3382.1989157436988, -6129.295364534302, -2191.2979711649386, -11328.847566705654, -1776.4272423299842, 7.398427414706638, -5500.2055168396855, -2434.9990409611514, -4502.758920521608, -8300.633227900653, -4704.103434575014, -3493.8458792979577, -4788.078938493602, -3899.887669073066, -10656.663555701203, -14832.5505653084, 0.012, -0.11, 0.988, 192.0, 0.0, 0.0, 0.0, 0.0, 0.0, 0.0, 0.0, 0.0, 0.0, 1.645920755209766E9, 0.0, 2022-02-27 11:12:35.209
100.0, -2518.594565224, -5433.6420218517815, -1534.9613469793019, -10630.467311199583, -981.24158158798, 700.7495404183318, -5032.383505390108, -1890.8905256856117, -2500.0873208150056, -7102.177393695998, -4359.305424607447, -3196.232401875544, -4529.3351446789675, -3534.9954408401777, -10168.546160286209, -13508.05324412027, 0.012, -0.11, 0.988, 192.0, 0.0, 0.0, 0.0, 0.0, 0.0, 0.0, 0.0, 0.0, 0.0, 1.645920755217221E9, 0.0, 2022-02-27 11:12:35.217
102.0, -3066.1899526345674, -5884.834335426609, -1996.5695734703033, -11139.662401635935, -1512.0955124015227, 226.35611609889463, -5495.578705737437, -2452.701622569755, -5594.619285418902, -8240.06000042677, -4354.030412915995, -3419.3922185173296, -4359.305424607447, -3553.5250369936275, -10679.954073423634, -15067.422696044767, 0.012, -0.11, 0.988, 192.0, 0.0, 0.0, 0.0, 0.0, 0.0, 0.0, 0.0, 0.0, 0.0, 1.645920755225247E9, 0.0, 2022-02-27 11:12:35.225
104.0, -3027.7449521714393, -5839.750866860255, -1895.5620402767709, -11012.548030918602, -1430.511645139652, 311.33744851797206, -5215.421940734618, -2093.50908917297, -2518.505158246179, -7527.419331958215, -4661.098678243003, -3323.480883059607, -4840.739648430306, -3840.923767199966, -10305.696464263972, -13805.06322444239, 0.012, -0.11, 0.988, 192.0, 0.0, 0.0, 0.0, 0.0, 0.0, 0.0, 0.0, 0.0, 0.0, 1.645920755233329E9, 0.0, 2022-02-27 11:12:35.233
106.0, -2457.306081927548, -5395.599352788849, -1529.9992597102237, -10646.225291040575, -939.1979502675474, 713.0206481242953, -5136.855558974214, -2068.6315975942134, -4198.6410854627, -7511.482538161581, -4194.6401232052, -3249.004870534524, -4261.0248042374615, -3384.2999797224975, -10373.086973796722, -14207.059348471088, 0.016, -0.11, 0.99, 192.0, 0.0, 64.0, 126.0, 72.0, 15.0, 120.0, 0.0, 0.0, 0.0, 1.645920755239858E9, 0.0, 2022-02-27 11:12:35.239
108.0, -3385.059939033978, -6130.122379079149, -2195.500099122536, -11336.268345864815, -1772.0463004167439, 3.7997965574022006, -5503.46887153016, -2440.8999014973524, -4525.2224236991915, -8302.175498268069, -4696.123861804469, -3494.538783376072, -4771.382185385488, -3899.9547243064317, -10661.044497614444, -14846.051018959406, 0.016, -0.11, 0.99, 192.0, 0.0, 0.0, 0.0, 0.0, 0.0, 0.0, 0.0, 0.0, 0.0, 1.645920755254922E9, 0.0, 2022-02-27 11:12:35.254
110.0, -2537.414734055368, -5450.964623804644, -1542.4715331162852, -10646.828788140869, -979.274628075913, 685.0362640662509, -4999.347627085165, -1892.008112908377, -2483.5470299180784, -7113.5991351126595, -4375.085756192894, -3207.7211985255717, -4540.354554695435, -3556.900150406379, -10170.021375420258, -13502.733528939907, 0.016, -0.11, 0.99, 192.0, 0.0, 0.0, 0.0, 0.0, 0.0, 0.0, 0.0, 0.0, 0.0, 1.645920755262064E9, 0.0, 2022-02-27 11:12:35.262
112.0, -3054.0306036508805, -5876.87711440052, -1990.4675472340045, -11137.851910335054, -1497.8127476945815, 220.2764416070511, -5476.55737120597, -2458.4683726392236, -5590.283046994573, -8235.746113746896, -4355.282110605492, -3423.0802563524553, -4356.667918761721, -3563.9856533987113, -10677.182457111176, -15063.30997506499, 0.016, -0.11, 0.99, 192.0, 0.0, 0.0, 0.0, 0.0, 0.0, 0.0, 0.0, 0.0, 0.0, 1.645920755269593E9, 0.0, 2022-02-27 11:12:35.269
114.0, -3039.434914521565, -5851.127904788006, -1906.0226566818544, -11023.679199657345, -1447.0742877810346, 298.1946227782515, -5248.770743461936, -2110.0046765809866, -2541.594510268511, -7536.963526840631, -4664.294977700112, -3326.833644727903, -4849.948567145892, -3857.195837163429, -10321.722665038427, -13825.135090963257, 0.016, -0.11, 0.99, 192.0, 0.0, 0.0, 0.0, 0.0, 0.0, 0.0, 0.0, 0.0, 0.0, 1.645920755277617E9, 0.0, 2022-02-27 11:12:35.277
116.0, -2457.887227283386, -5401.9472482141555, -1521.4385415838412, -10642.716067161093, -935.308746732324, 719.1003226161388, -5128.630117014661, -2047.352736872761, -4146.315651692826, -7498.473822888592, -4194.327198782826, -3246.099143755334, -4270.278426441959, -3392.0113315595786, -10374.316319741765, -14176.23629286722, 0.018000000000000002, -0.106, 0.99, 192.0, 0.0, 72.0, 126.0, 88.0, 15.0, 120.0, 0.0, 0.0, 0.0, 1.645920755285592E9, 0.0, 2022-02-27 11:12:35.285
118.0, -3391.38548271483, -6137.476103004945, -2186.246476918039, -11337.922374954507, -1774.9743789403892, 1.765787811969258, -5514.644743757814, -2471.208866978749, -4608.259154350657, -8335.546652739842, -4694.939219348338, -3495.477556643195, -4771.85157201905, -3908.2025180104397, -10674.857875687823, -14874.482437906558, 0.018000000000000002, -0.106, 0.99, 192.0, 0.0, 0.0, 0.0, 0.0, 0.0, 0.0, 0.0, 0.0, 0.0, 1.64592075529225E9, 0.0, 2022-02-27 11:12:35.292
120.0, -2554.8714464749632, -5462.743993132591, -1546.025460484679, -10654.786009166957, -985.9354479235946, 687.0032175783178, -5015.9996767043685, -1907.006133437888, -2472.7734890906204, -7127.233699230397, -4390.0390732334945, -3203.876698479259, -4558.906502593339, -3575.496801793194, -10179.386756347032, -13506.756842941862, 0.018000000000000002, -0.106, 0.99, 192.0, 0.0, 0.0, 0.0, 0.0, 0.0, 0.0, 0.0, 0.0, 0.0, 1.645920755300141E9, 0.0, 2022-02-27 11:12:35.300
122.0, -3063.1948188775564, -5882.30858830316, -1987.6959309215465, -11137.87426207951, -1489.3861400349308, 230.98292720114318, -5488.470851000649, -2468.4148989218356, -5600.922477355299, -8232.3933520786, -4363.418145587224, -3420.554509229006, -4361.853523475352, -3568.031319145122, -10679.887018190268, -15048.893099891318, 0.018000000000000002, -0.106, 0.99, 192.0, 0.0, 0.0, 0.0, 0.0, 0.0, 0.0, 0.0, 0.0, 0.0, 1.645920755307191E9, 0.0, 2022-02-27 11:12:35.307
124.0, -3049.3590890597216, -5854.458314711847, -1909.420121839061, -11029.535356704637, -1444.705002868772, 293.0760732979862, -5261.019499423444, -2136.7597146939893, -2569.8918187489294, -7554.040259604485, -4674.330910960545, -3334.1203134203333, -4856.00588989328, -3866.672976812479, -10328.919926753037, -13838.300268447432, 0.018000000000000002, -0.106, 0.99, 192.0, 0.0, 0.0, 0.0, 0.0, 0.0, 0.0, 0.0, 0.0, 0.0, 1.645920755315285E9, 0.0, 2022-02-27 11:12:35.315
126.0, -2454.355651659447, -5395.152317899742, -1520.6115270389948, -10636.971668836079, -917.986144779461, 724.1071133741276, -5123.533919278851, -2072.341987173794, -4138.269023688916, -7487.186191938662, -4195.958876128063, -3235.59382386134, -4272.357138676302, -3394.872354849858, -10367.275520238343, -14170.648356753392, 0.02, -0.10400000000000001, 0.986, 192.0, 0.0, 80.0, 126.0, 96.0, 15.0, 104.0, 0.0, 0.0, 0.0, 1.645920755321833E9, 0.0, 2022-02-27 11:12:35.321
128.0, -3393.844174604914, -6143.019335629861, -2200.5515933694355, -11341.72217151191, -1769.5429050377495, -1.363456411773731, -5526.401761341305, -2472.2817507126038, -4607.946229928283, -8325.510719479409, -4697.375559493967, -3484.324036159997, -4779.026481989203, -3903.2404307413617, -10671.862741930812, -14872.671946605677, 0.02, -0.10400000000000001, 0.986, 192.0, 0.0, 0.0, 0.0, 0.0, 0.0, 0.0, 0.0, 0.0, 0.0, 1.645920755329868E9, 0.0, 2022-02-27 11:12:35.329
130.0, -2555.36318485298, -5463.526304188526, -1554.4520681443296, -10654.987174867056, -988.1259188802146, 677.4813744403571, -5041.078333983223, -1920.5959940667146, -2494.298219001081, -7131.100551021165, -4386.887477265296, -3203.653181034706, -4553.050345546048, -3565.729089466225, -10176.704547012396, -13504.745185940885, 0.02, -0.10400000000000001, 0.986, 192.0, 0.0, 0.0, 0.0, 0.0, 0.0, 0.0, 0.0, 0.0, 0.0, 1.645920755337773E9, 0.0, 2022-02-27 11:12:35.337
132.0, -3068.9839206914808, -5885.102556360073, -1991.3169135233063, -11134.566203900124, -1491.1519278469, 228.1219039108639, -5489.074348100942, -2466.984387276696, -5616.68045719629, -8242.697506272496, -4368.737860767586, -3419.6827911952487, -4359.663052518732, -3566.2655313331525, -10679.775259467991, -15053.721076693664, 0.02, -0.10400000000000001, 0.986, 192.0, 0.0, 0.0, 0.0, 0.0, 0.0, 0.0, 0.0, 0.0, 0.0, 1.645920755344838E9, 0.0, 2022-02-27 11:12:35.344
134.0, -3079.1539644186455, -5877.570018478635, -1926.3403923917285, -11043.95223187831, -1462.0499565660903, 272.2889509545506, -5259.097249400288, -2145.1416188647295, -2600.357246441513, -7570.692309223689, -4696.257972271201, -3344.4691711031405, -4867.2488173543, -3873.914942015999, -10331.579784343217, -13844.715219106105, 0.02, -0.10400000000000001, 0.986, 192.0, 0.0, 0.0, 0.0, 0.0, 0.0, 0.0, 0.0, 0.0, 0.0, 1.645920755352335E9, 0.0, 2022-02-27 11:12:35.352
136.0, -2469.554837889056, -5406.037617449477, -1522.6231840399723, -10649.354535264318, -920.7354093474638, 716.4404650259572, -5112.805081940303, -2047.799771761867, -4142.806427813342, -7498.786747310966, -4227.228966621037, -3264.7628503755154, -4286.282275471959, -3411.77027365807, -10363.162799258567, -14160.433609537318, 0.018000000000000002, -0.108, 0.984, 192.0, 0.0, 72.0, 126.0, 80.0, 15.0, 96.0, 0.0, 0.0, 0.0, 1.64592075536046E9, 0.0, 2022-02-27 11:12:35.360
138.0, -3390.4467094477072, -6132.111684335671, -2186.961732740609, -11340.045790677761, -1768.8276492151797, 0.6482005892039048, -5530.939165465733, -2468.1466779883717, -4641.026811722138, -8341.492216764953, -4704.952800864316, -3503.8147573250244, -4766.956539983337, -3899.261820228317, -10669.649919229738, -14878.662214119699, 0.018000000000000002, -0.108, 0.984, 192.0, 0.0, 0.0, 0.0, 0.0, 0.0, 0.0, 0.0, 0.0, 0.0, 1.645920755367562E9, 0.0, 2022-02-27 11:12:35.367
140.0, -2560.615844799977, -5473.8528101268785, -1548.2606349302096, -10653.154331821721, -995.2561253614576, 673.32394997167, -5014.703275525961, -1905.7320840039354, -2461.9552447742517, -7109.061730988233, -4381.187782429192, -3194.198393130111, -4554.592615913465, -3551.312214292552, -10162.15356137199, -13492.854057890661, 0.018000000000000002, -0.108, 0.984, 192.0, 0.0, 0.0, 0.0, 0.0, 0.0, 0.0, 0.0, 0.0, 0.0, 1.645920755382067E9, 0.0, 2022-02-27 11:12:35.382
142.0, -3047.2133215920117, -5866.72942241781, -1975.0224918153874, -11116.617753102511, -1484.5134597436738, 238.6272238048582, -5477.719661917647, -2458.20015170576, -5605.325771012995, -8227.006581664871, -4356.779677483997, -3424.778988931059, -4357.182008884193, -3564.924426665834, -10666.341861050352, -15041.047637587506, 0.018000000000000002, -0.108, 0.984, 192.0, 0.0, 0.0, 0.0, 0.0, 0.0, 0.0, 0.0, 0.0, 0.0, 1.645920755390077E9, 0.0, 2022-02-27 11:12:35.390
144.0, -3069.050975924847, -5865.678890428411, -1921.2441946559186, -11034.832720140545, -1463.9498548447914, 278.97212254668744, -5252.436429552607, -2140.1348281067408, -2612.4048367029236, -7571.83224819091, -4687.093757044525, -3332.42158084173, -4865.863009198071, -3875.47956412787, -10330.976287242924, -13852.627736643284, 0.016, -0.108, 0.982, 192.0, 0.0, 56.0, 126.0, 80.0, 15.0, 80.0, 0.0, 0.0, 0.0, 1.645920755397201E9, 0.0, 2022-02-27 11:12:35.397
146.0, -2445.884340510886, -5389.989064930566, -1508.8768611999585, -10629.126206532264, -920.1542639916258, 720.9778691503847, -5121.991648911435, -2054.482943354004, -4091.732691732966, -7457.167799135184, -4207.000637888985, -3242.232291964566, -4277.363929434291, -3402.606058431394, -10355.429095677031, -14141.166405816843, 0.016, -0.108, 0.982, 192.0, 0.0, 0.0, 0.0, 0.0, 0.0, 0.0, 0.0, 0.0, 0.0, 1.645920755404666E9, 0.0, 2022-02-27 11:12:35.404
148.0, -3388.5691629134612, -6133.765713425364, -2188.705168808123, -11340.470473822412, -1780.5846667986712, -15.8250350743574, -5538.0693719469755, -2482.362387461947, -4653.6555473393855, -8333.289126549857, -4695.028626326159, -3494.5834868649827, -4763.626130059496, -3907.129634276585, -10676.422497799695, -14887.535856668455, 0.016, -0.108, 0.982, 192.0, 0.0, 0.0, 0.0, 0.0, 0.0, 0.0, 0.0, 0.0, 0.0, 1.645920755412608E9, 0.0, 2022-02-27 11:12:35.412
150.0, -2545.2825481036366, -5456.910187829756, -1547.0983442185336, -10659.636337713759, -999.7711777414296, 665.7243568568656, -5057.216293479954, -1924.5075493463935, -2449.7064888127434, -7103.049111729755, -4382.3500731408685, -3204.8378234908373, -4553.564435668521, -3577.1955343717977, -10176.615140034573, -13497.302055037268, 0.016, -0.108, 0.982, 192.0, 0.0, 0.0, 0.0, 0.0, 0.0, 0.0, 0.0, 0.0, 0.0, 1.645920755420702E9, 0.0, 2022-02-27 11:12:35.420
152.0, -3005.683780394051, -5838.901500570953, -1953.8330380717562, -11095.629465058979, -1451.6116919054618, 247.03147972005365, -5498.171508094252, -2469.8901140558855, -5590.506564439126, -8202.397311019577, -4345.827322700897, -3398.8733171073577, -4347.213130857126, -3554.8884934054013, -10679.618797256804, -15039.840643386919, 0.016, -0.108, 0.982, 192.0, 0.0, 0.0, 0.0, 0.0, 0.0, 0.0, 0.0, 0.0, 0.0, 1.645920755427173E9, 0.0, 2022-02-27 11:12:35.427
154.0, -3071.6214265372073, -5869.322224774626, -1936.0410494853318, -11052.334136049049, -1483.507631243185, 242.7399447846347, -5302.459633643584, -2175.4282326016705, -2651.319223799613, -7579.83417270591, -4680.522344174665, -3321.871557458825, -4857.39169804951, -3868.304654157717, -10351.226967719433, -13895.297216808465, 0.015, -0.107, 0.983, 192.0, 0.0, 56.0, 126.0, 88.0, 15.0, 96.0, 0.0, 0.0, 0.0, 1.645920755434341E9, 0.0, 2022-02-27 11:12:35.434
156.0, -2431.6462792928555, -5372.44294553315, -1505.479396042752, -10632.68013390066, -918.1202552461929, 710.9866393788624, -5110.100520861211, -2058.618016078236, -4020.1177024981625, -7421.449711495604, -4201.658570964167, -3226.8989952682255, -4283.734176604054, -3385.9093053232796, -10355.116171254656, -14113.383187458896, 0.015, -0.107, 0.983, 192.0, 0.0, 0.0, 0.0, 0.0, 0.0, 0.0, 0.0, 0.0, 0.0, 1.645920755442361E9, 0.0, 2022-02-27 11:12:35.442
158.0, -3377.0803662634335, -6130.904690135085, -2190.7168258091006, -11345.745485513866, -1784.1832976559756, -31.001869559510897, -5542.38325862685, -2503.0824545720166, -4686.02087331067, -8324.616649701196, -4679.292998229623, -3485.5310303605834, -4758.306414879134, -3906.704951131934, -10686.257265360031, -14916.391958760258, 0.015, -0.107, 0.983, 192.0, 0.0, 0.0, 0.0, 0.0, 0.0, 0.0, 0.0, 0.0, 0.0, 1.645920755450468E9, 0.0, 2022-02-27 11:12:35.450
160.0, -2566.4049466139018, -5481.161830563764, -1560.8670188030028, -10673.24855008704, -1024.1569309421695, 639.5951675886116, -5039.446656637986, -1920.7301045334466, -2422.504415810635, -7108.212364698931, -4404.701817596176, -3202.066207178379, -4579.894790636872, -3600.4860520942275, -10183.097145926613, -13498.95608412696, 0.015, -0.107, 0.983, 192.0, 0.0, 0.0, 0.0, 0.0, 0.0, 0.0, 0.0, 0.0, 0.0, 1.645920755457039E9, 0.0, 2022-02-27 11:12:35.457
162.0, -3003.8285856042608, -5842.142503516973, -1949.8320758142563, -11103.810203529622, -1460.5970931764953, 248.66315706529107, -5475.439783983205, -2459.9882912621847, -5566.098459493931, -8187.108717812147, -4346.140247123271, -3411.747921913615, -4352.108162892838, -3552.2733393041303, -10670.633395985771, -15027.658942658776, 0.015, -0.107, 0.983, 192.0, 0.0, 0.0, 0.0, 0.0, 0.0, 0.0, 0.0, 0.0, 0.0, 1.645920755464971E9, 0.0, 2022-02-27 11:12:35.464
164.0, -3085.144231932668, -5891.852783185575, -1945.4287821565608, -11070.349642080027, -1499.8244046955592, 238.20254066020738, -5296.692883574115, -2186.604104829324, -2680.7564712472526, -7600.21896364915, -4697.464966471787, -3342.9269007357243, -4880.615160538574, -3888.555334634225, -10358.401877689586, -13914.743234484582, 0.014499999999999999, -0.1095, 0.9844999999999999, 192.0, 0.0, 56.0, 126.0, 64.0, 15.0, 104.0, 0.0, 0.0, 0.0, 1.645920755473014E9, 0.0, 2022-02-27 11:12:35.473
166.0, -2430.953375214741, -5383.171782871697, -1514.3530385915087, -10629.0591512989, -924.5128541604107, 711.2101568234154, -5114.01207614089, -2048.246806650973, -4007.712484325467, -7423.70723768559, -4205.994809388496, -3229.8941290252365, -4291.490231930045, -3399.409758974285, -10352.948052042491, -14112.734986869693, 0.014499999999999999, -0.1095, 0.9844999999999999, 192.0, 0.0, 0.0, 0.0, 0.0, 0.0, 0.0, 0.0, 0.0, 0.0, 1.64592075547961E9, 0.0, 2022-02-27 11:12:35.479
168.0, -3376.678034863238, -6134.704486692487, -2202.965581770609, -11349.791151260275, -1790.106509936632, -25.972727057066805, -5539.902214992311, -2485.4022247078688, -4699.856603128505, -8319.051065331825, -4686.333797733045, -3486.246286183153, -4764.967234726815, -3894.9926370373532, -10691.778146240491, -14915.676702937688, 0.014499999999999999, -0.1095, 0.9844999999999999, 192.0, 0.0, 0.0, 0.0, 0.0, 0.0, 0.0, 0.0, 0.0, 0.0, 1.645920755487575E9, 0.0, 2022-02-27 11:12:35.487
170.0, -2551.004594684195, -5471.997615337088, -1565.2703124606983, -10675.796648954947, -1021.4523698630775, 649.3628799155808, -5054.556435889774, -1924.4181423685723, -2410.6803429937772, -7091.225038912898, -4393.905925024263, -3196.3441605978205, -4576.139697568381, -3582.1576216408757, -10181.800744748205, -13494.061052091249, 0.014499999999999999, -0.1095, 0.9844999999999999, 192.0, 0.0, 0.0, 0.0, 0.0, 0.0, 0.0, 0.0, 0.0, 0.0, 1.645920755502648E9, 0.0, 2022-02-27 11:12:35.502
172.0, -2989.8810970641493, -5836.599270892057, -1950.4355729145495, -11107.855869276033, -1464.9109798563695, 242.00233721760958, -5489.9907696236105, -2466.112669242939, -5557.113058222897, -8172.065993793726, -4330.024639370995, -3401.868450864369, -4343.927424422196, -3527.217033769731, -10673.762640209514, -15027.949515336695, 0.014499999999999999, -0.1095, 0.9844999999999999, 192.0, 0.0, 0.0, 0.0, 0.0, 0.0, 0.0, 0.0, 0.0, 0.0, 1.645920755509203E9, 0.0, 2022-02-27 11:12:35.509
174.0, -3065.4746968119975, -5886.30955056066, -1937.7621338083904, -11062.772400709677, -1490.1684510908665, 234.93918596973253, -5286.992226480512, -2190.5603635979132, -2653.8226191786075, -7576.503762782069, -4685.864411099483, -3331.907490719258, -4878.715262259872, -3873.870238527088, -10357.932491056024, -13910.161126871244, 0.01325, -0.10975, 0.98725, 192.0, 0.0, 48.0, 126.0, 72.0, 15.0, 120.0, 0.0, 0.0, 0.0, 1.645920755517182E9, 0.0, 2022-02-27 11:12:35.517
176.0, -2417.564680286012, -5383.1047276383315, -1505.8593756984922, -10626.91338383119, -927.8209123397962, 707.7903399217535, -5123.645678001128, -2052.73950728649, -4012.0710744942517, -7417.627563193747, -4206.330085555325, -3224.7085243116053, -4301.146185534738, -3386.8927820793133, -10357.776028844837, -14128.60472543296, 0.01325, -0.10975, 0.98725, 192.0, 0.0, 0.0, 0.0, 0.0, 0.0, 0.0, 0.0, 0.0, 0.0, 1.645920755525265E9, 0.0, 2022-02-27 11:12:35.525
178.0, -3370.732470838126, -6142.125265851649, -2201.691532336656, -11353.546244328767, -1800.5447745972604, -36.32158473987398, -5556.867189033889, -2492.443024211291, -4743.084876905069, -8338.27356556339, -4677.102527273003, -3493.2423821976645, -4771.918627252416, -3867.1200117015856, -10699.757719011035, -14941.023581150006, 0.01325, -0.10975, 0.98725, 192.0, 0.0, 0.0, 0.0, 0.0, 0.0, 0.0, 0.0, 0.0, 0.0, 1.645920755532316E9, 0.0, 2022-02-27 11:12:35.532
180.0, -2548.45649581629, -5479.41839449625, -1567.4607834173185, -10676.556608266426, -1029.3872391447114, 636.7341442983322, -5062.401898193586, -1937.6503750861139, -2415.821244218498, -7094.421338370006, -4389.122651710827, -3193.4160820741754, -4588.231991318702, -3568.5677610120492, -10181.979558703848, -13507.539153997799, 0.01325, -0.10975, 0.98725, 192.0, 0.0, 0.0, 0.0, 0.0, 0.0, 0.0, 0.0, 0.0, 0.0, 1.645920755539853E9, 0.0, 2022-02-27 11:12:35.539
182.0, -2976.2688846908673, -5835.906366813942, -1949.8544275587117, -11099.988055227765, -1458.8760088534366, 252.8652850228888, -5484.045205598499, -2465.5985791204666, -5556.129581466864, -8162.052412277748, -4326.180139324682, -3396.034645561534, -4342.988651155073, -3526.5464814360716, -10671.885093675268, -15027.748349636597, 0.01325, -0.10975, 0.98725, 192.0, 0.0, 0.0, 0.0, 0.0, 0.0, 0.0, 0.0, 0.0, 0.0, 1.645920755548252E9, 0.0, 2022-02-27 11:12:35.548
184.0, -3066.9722636905035, -5885.907219160464, -1945.9205205345775, -11064.135857121451, -1494.862317426481, 247.12088669787488, -5271.971854206545, -2158.1056306488076, -2680.734119502797, -7591.278265867027, -4699.588382195042, -3341.406982112763, -4882.202134394901, -3873.3785001490714, -10358.468932922951, -13917.872478708325, 0.012625, -0.109875, 0.987625, 192.0, 0.0, 48.0, 126.0, 72.0, 15.0, 112.0, 0.0, 0.0, 0.0, 1.645920755554969E9, 0.0, 2022-02-27 11:12:35.554
186.0, -2411.5744127719895, -5371.928855410678, -1507.3122390880872, -10623.784139607447, -915.3933424226454, 723.1459883625494, -5104.020846369368, -2043.7541060154565, -4008.6289058481348, -7402.383673475227, -4211.940373413608, -3231.4363993926527, -4297.704016888621, -3387.0715960349557, -10355.227929976933, -14117.004170060656, 0.012625, -0.109875, 0.987625, 192.0, 0.0, 0.0, 0.0, 0.0, 0.0, 0.0, 0.0, 0.0, 0.0, 1.645920755562168E9, 0.0, 2022-02-27 11:12:35.562
188.0, -3358.036679987512, -6123.30509702028, -2200.305724180427, -11344.24791863536, -1785.367940112107, -13.388694928728931, -5533.420209100272, -2493.784128878609, -4742.548435038142, -8330.048123603836, -4678.7789081071505, -3482.155916947832, -4760.072202691103, -3872.1491542040294, -10695.622646286804, -14938.229613093092, 0.012625, -0.109875, 0.987625, 192.0, 0.0, 0.0, 0.0, 0.0, 0.0, 0.0, 0.0, 0.0, 0.0, 1.645920755569651E9, 0.0, 2022-02-27 11:12:35.569
190.0, -2549.976414439251, -5471.707042659169, -1573.02636778669, -10671.594520997349, -1022.1899774301025, 657.2306939638489, -5050.71193584346, -1917.8243777542566, -2391.3907875288473, -7075.668224772004, -4400.656151849765, -3189.4374715611307, -4584.521601739121, -3563.6280254874264, -10181.420765092465, -13491.848229390172, 0.012625, -0.109875, 0.987625, 192.0, 0.0, 0.0, 0.0, 0.0, 0.0, 0.0, 0.0, 0.0, 0.0, 1.645920755577571E9, 0.0, 2022-02-27 11:12:35.577
192.0, -2964.5789223407414, -5821.444788151359, -1941.7854478103457, -11086.755822510222, -1438.7817905881157, 271.39488117633834, -5464.599187922381, -2445.4820091106903, -5544.417267372282, -8148.060220248726, -4325.420180013201, -3386.311636723475, -4332.662145216721, -3510.050894028055, -10666.833599428368, -15012.951494807185, 0.012625, -0.109875, 0.987625, 192.0, 0.0, 0.0, 0.0, 0.0, 0.0, 0.0, 0.0, 0.0, 0.0, 1.645920755584749E9, 0.0, 2022-02-27 11:12:35.584
194.0, -3070.9285224590926, -5888.991759895296, -1951.6649188595916, -11076.563427038602, -1502.4172070523748, 237.28611913753977, -5264.394612836196, -2176.344654124338, -2697.229706910814, -7605.7845480185215, -4697.979056594259, -3337.9648134666463, -4880.279884371744, -3871.3668431480937, -10364.459200436975, -13932.401112604275, 0.0123125, -0.10793749999999999, 0.9878125, 192.0, 0.0, 48.0, 126.0, 88.0, 15.0, 112.0, 0.0, 0.0, 0.0, 1.645920755592168E9, 0.0, 2022-02-27 11:12:35.592
196.0, -2396.084653864462, -5358.24958780403, -1496.2257738382548, -10622.48773842904, -910.3865516646566, 727.3257645756918, -5108.960581893991, -2060.0708794678308, -3954.4259255440147, -7409.402121234193, -4212.163890858161, -3226.8319400348596, -4305.236554770059, -3400.7955671305144, -10351.76340958636, -14099.949789041257, 0.0123125, -0.10793749999999999, 0.9878125, 192.0, 0.0, 0.0, 0.0, 0.0, 0.0, 0.0, 0.0, 0.0, 0.0, 1.645920755600023E9, 0.0, 2022-02-27 11:12:35.600
198.0, -3354.6615665747604, -6123.103931320183, -2192.3037996654275, -11353.479189095402, -1793.4145681160176, -19.535424653938374, -5558.76708731259, -2508.5586319635668, -4786.380205914999, -8347.12485636769, -4673.168620248869, -3491.253076941142, -4752.114981665013, -3874.138459460552, -10706.865573747824, -14965.096409928372, 0.0123125, -0.10793749999999999, 0.9878125, 192.0, 0.0, 0.0, 0.0, 0.0, 0.0, 0.0, 0.0, 0.0, 0.0, 1.645920755608272E9, 0.0, 2022-02-27 11:12:35.608
200.0, -2553.709155763287, -5477.1385165618085, -1564.085670004567, -10689.252399117042, -1048.2521114649905, 630.9897459733183, -5068.503924429885, -1950.457924659005, -2378.538534467046, -7093.057881958232, -4406.959343786161, -3193.4831373075413, -4594.66929372183, -3578.6931012503032, -10185.868762239072, -13505.348683041178, 0.0123125, -0.10793749999999999, 0.9878125, 192.0, 0.0, 0.0, 0.0, 0.0, 0.0, 0.0, 0.0, 0.0, 0.0, 1.645920755614765E9, 0.0, 2022-02-27 11:12:35.614
202.0, -2953.7830297688283, -5812.146462457951, -1927.4803313589493, -11090.600322556535, -1453.6009971619842, 267.8186020634892, -5475.551542705482, -2452.00871849164, -5534.850720745411, -8142.069952734703, -4330.069342859905, -3387.250409990598, -4345.894377934263, -3513.962449307734, -10670.029898885477, -15012.504459918078, 0.0123125, -0.10793749999999999, 0.9878125, 192.0, 0.0, 0.0, 0.0, 0.0, 0.0, 0.0, 0.0, 0.0, 0.0, 1.645920755629863E9, 0.0, 2022-02-27 11:12:35.629
204.0, -3067.598112535252, -5887.225972083327, -1946.7475350794239, -11081.927845707876, -1522.5784805510618, 230.13356091184153, -5304.04660749991, -2197.154128212229, -2712.451244884878, -7622.905984271287, -4706.02568459817, -3340.065877445445, -4893.534468833741, -3903.5310034192808, -10372.729345885438, -13952.897662269792, 0.01115625, -0.10996875, 0.98890625, 192.0, 0.0, 40.0, 126.0, 64.0, 15.0, 120.0, 0.0, 0.0, 0.0, 1.645920755637895E9, 0.0, 2022-02-27 11:12:35.637
206.0, -2383.1206420803837, -5346.671384176181, -1488.2014975787995, -10615.558697647893, -919.6178221246985, 729.6503459990438, -5113.162709851588, -2045.7881147608896, -3920.518329205314, -7390.336083213817, -4211.560393757867, -3218.6959050531277, -4310.131586805772, -3393.285380993531, -10347.136598484112, -14084.348271411453, 0.01115625, -0.10996875, 0.98890625, 192.0, 0.0, 0.0, 0.0, 0.0, 0.0, 0.0, 0.0, 0.0, 0.0, 1.645920755644453E9, 0.0, 2022-02-27 11:12:35.644
208.0, -3337.808351255459, -6102.585029910211, -2191.566192098402, -11346.058409936239, -1803.07052172071, -13.9251367956563, -5593.792270874056, -2506.457567984768, -4807.2120317473455, -8330.606917215218, -4665.546675389609, -3475.226876166687, -4748.046964174147, -3870.9645117478985, -10709.16780342672, -14964.738782017086, 0.01115625, -0.10996875, 0.98890625, 192.0, 0.0, 0.0, 0.0, 0.0, 0.0, 0.0, 0.0, 0.0, 0.0, 1.645920755652336E9, 0.0, 2022-02-27 11:12:35.652
210.0, -2539.336984078525, -5461.22407450963, -1568.9136468069134, -10682.166896124709, -1050.3308236993341, 636.644737320511, -5060.747869103893, -1941.2490059434183, -2368.9272843512636, -7080.652663785537, -4393.9729802576285, -3181.4802505350413, -4595.831584433507, -3576.145002382398, -10187.187515161933, -13490.842400889684, 0.01115625, -0.10996875, 0.98890625, 192.0, 0.0, 0.0, 0.0, 0.0, 0.0, 0.0, 0.0, 0.0, 0.0, 1.645920755660562E9, 0.0, 2022-02-27 11:12:35.660
212.0, -2934.96286093746, -5797.126090183984, -1926.5639098362817, -11084.207723642317, -1440.6146336334507, 271.9760265321763, -5453.311556972451, -2450.108820212939, -5524.524214807059, -8129.351810139634, -4313.104368818327, -3378.6896918642155, -4339.881758675785, -3517.7622458651363, -10657.177645823676, -14997.618198110844, 0.01115625, -0.10996875, 0.98890625, 192.0, 0.0, 0.0, 0.0, 0.0, 0.0, 0.0, 0.0, 0.0, 0.0, 1.645920755667628E9, 0.0, 2022-02-27 11:12:35.667
214.0, -3068.55923754683, -5889.751719206777, -1955.3082532058065, -11092.656683046423, -1520.0750851720675, 226.08789516543095, -5288.37803463674, -2194.248401433039, -2726.4657886583555, -7623.50948137158, -4697.666132171886, -3345.5420548369952, -4894.137965934035, -3883.950875276432, -10371.05296505129, -13952.04829598049, 0.010578125, -0.106984375, 0.987453125, 192.0, 0.0, 40.0, 126.0, 96.0, 15.0, 104.0, 0.0, 0.0, 0.0, 1.645920755674931E9, 0.0, 2022-02-27 11:12:35.674
216.0, -2377.599761199923, -5342.670421918681, -1493.543564503618, -10622.353627962308, -920.6907058585532, 727.996316909351, -5119.734122721448, -2038.54614955737, -3906.3473232206493, -7373.192295216596, -4199.758672685465, -3222.138073699245, -4308.18698503816, -3388.926790824746, -10341.682772837017, -14074.222931173199, 0.010578125, -0.106984375, 0.987453125, 192.0, 0.0, 0.0, 0.0, 0.0, 0.0, 0.0, 0.0, 0.0, 0.0, 1.645920755681976E9, 0.0, 2022-02-27 11:12:35.681
218.0, -3351.152342695277, -6119.371189996146, -2196.796500300944, -11359.536511842789, -1796.9014402510454, -27.760866613491373, -5558.8117908015, -2520.516815247156, -4821.4724447098315, -8337.446551018542, -4661.411602665377, -3483.8099460375247, -4752.360850854022, -3864.080174455664, -10710.486556349582, -14970.147904175272, 0.010578125, -0.106984375, 0.987453125, 192.0, 0.0, 0.0, 0.0, 0.0, 0.0, 0.0, 0.0, 0.0, 0.0, 1.645920755691625E9, 0.0, 2022-02-27 11:12:35.691
220.0, -2563.36510936798, -5489.633141712326, -1572.6240363864943, -10699.891829477767, -1050.1967132326024, 621.5349580687235, -5056.344575446198, -1954.7494595944238, -2367.049737817018, -7098.601114583149, -4407.406378675268, -3195.3159803528765, -4609.555555529065, -3592.2606101346746, -10172.837695221628, -13490.060089833749, 0.010578125, -0.106984375, 0.987453125, 192.0, 0.0, 0.0, 0.0, 0.0, 0.0, 0.0, 0.0, 0.0, 0.0, 1.645920755697712E9, 0.0, 2022-02-27 11:12:35.697
222.0, -2946.2951953763004, -5810.380674645981, -1916.326810875751, -11080.206761384818, -1431.2045492177665, 278.68154986876846, -5470.991786836599, -2446.823113778009, -5526.37940959685, -8134.000972986338, -4322.335639278369, -3391.519593181562, -4347.570758768411, -3524.400713968362, -10653.064924843899, -14988.655148584265, 0.010578125, -0.106984375, 0.987453125, 192.0, 0.0, 0.0, 0.0, 0.0, 0.0, 0.0, 0.0, 0.0, 0.0, 1.645920755704584E9, 0.0, 2022-02-27 11:12:35.704
224.0, -3114.6708863581284, -5927.4144086139695, -1978.9787505839768, -11115.634276346478, -1554.8096960556145, 201.2551070755848, -5324.38669495424, -2213.403846431237, -2786.167298098481, -7660.389859722836, -4721.113112105502, -3360.4059648997745, -4913.5169283767855, -3896.91488706051, -10384.419308235563, -13975.115296258367, 0.014, -0.11, 0.982, 192.0, 0.0, 56.0, 126.0, 72.0, 15.0, 88.0, 0.0, 0.0, 0.0, 1.645920755712821E9, 0.0, 2022-02-27 11:12:35.712
226.0, -2402.0972731229394, -5361.714108194603, -1498.5056517726962, -10624.991133808033, -924.1105227602152, 726.9234331754963, -5113.497986018418, -2037.227396634507, -3874.809011794211, -7386.8939145676995, -4231.498149812001, -3239.170102974189, -4335.232595829081, -3391.7207588816595, -10340.743999569893, -14050.194805883742, 0.014, -0.11, 0.982, 192.0, 0.0, 0.0, 0.0, 0.0, 0.0, 0.0, 0.0, 0.0, 0.0, 1.645920755719883E9, 0.0, 2022-02-27 11:12:35.719
228.0, -3347.263139160054, -6106.451881700979, -2197.2435351900504, -11344.002049446352, -1802.7352455538805, -7.68900009262563, -5565.71847983819, -2521.455588514279, -4867.181762120934, -8345.671992978096, -4665.4572684117875, -3489.9790275071896, -4748.158722896424, -3861.6661860544905, -10711.045349960965, -14976.473447856122, 0.014, -0.11, 0.982, 192.0, 0.0, 0.0, 0.0, 0.0, 0.0, 0.0, 0.0, 0.0, 0.0, 1.64592075572724E9, 0.0, 2022-02-27 11:12:35.727
230.0, -2557.0172139426727, -5467.974301335133, -1582.7270248802931, -10685.027919414988, -1055.7175941130631, 634.7671907862652, -5073.980101821435, -1951.9554915375104, -2343.3568886943926, -7072.203704381431, -4402.6007536173765, -3181.435547046131, -4607.141567127892, -3576.793202971602, -10178.738555757827, -13478.392479228078, 0.014, -0.11, 0.982, 192.0, 0.0, 0.0, 0.0, 0.0, 0.0, 0.0, 0.0, 0.0, 0.0, 1.645920755735367E9, 0.0, 2022-02-27 11:12:35.735
232.0, -2912.3652472931444, -5766.794772958133, -1911.9235172180556, -11053.8093511831, -1418.9781450007135, 304.78838739256713, -5464.465077455649, -2430.1934159032603, -5495.399891781794, -8099.691045247441, -4296.832298854863, -3374.264046462065, -4325.777807924486, -3494.0470449980553, -10657.647032457236, -14971.734878031599, 0.014, -0.11, 0.982, 192.0, 0.0, 0.0, 0.0, 0.0, 0.0, 0.0, 0.0, 0.0, 0.0, 1.645920755749487E9, 0.0, 2022-02-27 11:12:35.749
234.0, -3101.148080962668, -5904.056835658173, -1982.197401785541, -11101.597380828545, -1547.9700622522905, 208.72058972365735, -5306.594706367816, -2211.1910237301618, -2789.8776876780616, -7640.899138557808, -4700.638914184441, -3351.7558397955704, -4895.970808979369, -3875.9936542503424, -10389.739023415927, -13982.424316695253, 0.014, -0.112, 0.986, 192.0, 0.0, 56.0, 126.0, 64.0, 15.0, 104.0, 0.0, 0.0, 0.0, 1.645920755756942E9, 0.0, 2022-02-27 11:12:35.756
236.0, -2389.692054950244, -5342.469256218584, -1496.6504569829056, -10605.790985320924, -919.4837116579666, 736.8252559691973, -5117.141320364633, -2040.803675747356, -3828.227976349351, -7348.180693171107, -4208.051169878384, -3215.1866811736445, -4319.653429943733, -3396.191107772721, -10336.608926845662, -14033.073369630978, 0.014, -0.112, 0.986, 192.0, 0.0, 0.0, 0.0, 0.0, 0.0, 0.0, 0.0, 0.0, 0.0, 1.64592075576504E9, 0.0, 2022-02-27 11:12:35.765
238.0, -3363.490505634607, -6120.466425474457, -2208.575869628891, -11354.77559027381, -1803.9645914989223, -22.84348283332382, -5585.38801495886, -2515.286507044614, -4901.268172415277, -8353.919786682103, -4651.420372893855, -3489.7331583181813, -4736.312298335111, -3846.109371913597, -10723.092940222376, -14992.365538163845, 0.014, -0.112, 0.986, 192.0, 0.0, 0.0, 0.0, 0.0, 0.0, 0.0, 0.0, 0.0, 0.0, 1.645920755773009E9, 0.0, 2022-02-27 11:12:35.773
240.0, -2593.808185316108, -5497.3891970383165, -1601.3013245226532, -10704.272771391008, -1078.851649624306, 614.292992865204, -5061.418421437553, -1942.6348140996474, -2345.569711395468, -7099.294018661263, -4419.409265447768, -3207.0282944474575, -4627.056971437571, -3581.1741448848425, -10183.298311626711, -13488.227246788412, 0.014, -0.112, 0.986, 192.0, 0.0, 0.0, 0.0, 0.0, 0.0, 0.0, 0.0, 0.0, 0.0, 1.645920755779546E9, 0.0, 2022-02-27 11:12:35.779
242.0, -2914.6898287164963, -5765.744240968734, -1900.457072312483, -11046.902662146409, -1410.193909429778, 311.1362828178743, -5455.636138395803, -2429.0311251915846, -5504.854679686389, -8096.830021957162, -4304.543650691945, -3385.7528431120927, -4340.395848798257, -3477.3726436343964, -10644.884186373256, -14963.48708432759, 0.014, -0.112, 0.986, 192.0, 0.0, 0.0, 0.0, 0.0, 0.0, 0.0, 0.0, 0.0, 0.0, 1.645920755787585E9, 0.0, 2022-02-27 11:12:35.787
244.0, -3134.273366245433, -5921.960582966874, -1993.0827013352755, -11118.048264747653, -1573.8980858204468, 187.62054295784748, -5352.974576112578, -2236.0014600755526, -2859.8833513120835, -7677.623054697879, -4708.462024743799, -3362.261159689565, -4909.11363471909, -3897.2501632273393, -10397.562133975283, -14022.277477059064, 0.018000000000000002, -0.112, 0.988, 192.0, 0.0, 72.0, 126.0, 64.0, 15.0, 112.0, 0.0, 0.0, 0.0, 1.645920755795581E9, 0.0, 2022-02-27 11:12:35.795
246.0, -2407.394636558847, -5352.013451100999, -1499.8691081844697, -10609.34491268932, -925.630441383176, 734.1430466345605, -5108.424140027063, -2025.671544751113, -3795.952057355888, -7343.352716368761, -4218.064751394361, -3225.714352812094, -4330.181101582182, -3397.129881039844, -10325.835386018203, -14007.10064257391, 0.018000000000000002, -0.112, 0.988, 192.0, 0.0, 0.0, 0.0, 0.0, 0.0, 0.0, 0.0, 0.0, 0.0, 1.645920755802596E9, 0.0, 2022-02-27 11:12:35.802
248.0, -3365.4127556577632, -6109.8493468581855, -2214.9461167986533, -11353.970927473418, -1816.1239404826094, -31.001869559510897, -5577.877828821877, -2532.564405508567, -4932.158283252512, -8355.41735356061, -4661.769230576662, -3498.0703590000107, -4740.872054203994, -3852.5466743167253, -10718.287315164485, -14998.087584744406, 0.018000000000000002, -0.112, 0.988, 192.0, 0.0, 0.0, 0.0, 0.0, 0.0, 0.0, 0.0, 0.0, 0.0, 1.645920755809228E9, 0.0, 2022-02-27 11:12:35.809
250.0, -2591.327141681569, -5484.224019554141, -1607.2021850588544, -10700.763547511524, -1081.2209345365686, 613.4659783203576, -5084.48542171543, -1954.7271078499687, -2342.4851706606355, -7090.889762746068, -4422.605564904877, -3202.2226693895664, -4623.145416157891, -3588.3490548549958, -10181.800744748205, -13487.109659565647, 0.018000000000000002, -0.112, 0.988, 192.0, 0.0, 0.0, 0.0, 0.0, 0.0, 0.0, 0.0, 0.0, 0.0, 1.645920755817203E9, 0.0, 2022-02-27 11:12:35.817
252.0, -2912.0076193818595, -5751.528531495158, -1912.4823108294381, -11040.197138809817, -1410.0374472185908, 310.95746886223185, -5449.757629604057, -2426.9077094683303, -5495.176374337241, -8080.490896760332, -4304.521298947489, -3374.3981569287967, -4330.114046348816, -3485.7545478051366, -10644.168930550686, -14958.77086624752, 0.018000000000000002, -0.112, 0.988, 192.0, 0.0, 0.0, 0.0, 0.0, 0.0, 0.0, 0.0, 0.0, 0.0, 1.645920755825197E9, 0.0, 2022-02-27 11:12:35.825
254.0, -3120.1023602607684, -5908.683646760422, -1996.3684077702055, -11109.845174532555, -1550.4287541423744, 207.20067110069647, -5326.778331610958, -2222.053971535441, -2839.1185807131033, -7661.216874267683, -4713.625277712975, -3355.37682239733, -4896.574306079663, -3883.1238607315854, -10385.939226858525, -14011.906267631803, 0.016, -0.11, 0.988, 192.0, 0.0, 64.0, 126.0, 72.0, 15.0, 112.0, 0.0, 0.0, 0.0, 1.645920755831725E9, 0.0, 2022-02-27 11:12:35.831
0.0, -2402.2537353341268, -5351.387602256251, -1500.2937913291207, -10603.689921342126, -901.2223364379807, 755.1760381670044, -5094.253134042398, -2010.2488410769513, -3781.043443804198, -7338.792960499878, -4219.562318272868, -3224.194434189133, -4316.993572353551, -3392.0560350484893, -10308.177507898512, -14000.350415748408, 0.016, -0.11, 0.988, 192.0, 0.0, 0.0, 0.0, 0.0, 0.0, 0.0, 0.0, 0.0, 0.0, 1.645920755839837E9, 0.0, 2022-02-27 11:12:35.839
2.0, -3362.3952701562966, -6112.598611426189, -2215.05787552093, -11347.421866348013, -1790.3076756367298, -13.612212373282, -5563.371546670383, -2505.719960417743, -4971.2738360492995, -8365.520342054408, -4654.393154906411, -3501.0654927570217, -4716.93333589236, -3847.785752747745, -10702.775204512502, -15004.793108080998, 0.016, -0.11, 0.988, 192.0, 0.0, 0.0, 0.0, 0.0, 0.0, 0.0, 0.0, 0.0, 0.0, 1.645920755847874E9, 0.0, 2022-02-27 11:12:35.847
4.0, -2605.162871499404, -5502.686560474224, -1615.6734962074156, -10707.156146425743, -1067.8992948412056, 615.1870626434163, -5070.806154108782, -1928.933194748544, -2326.9730600086523, -7101.64095182907, -4442.476265725644, -3218.0253527194686, -4629.783884261118, -3590.5842293005267, -10163.829942206137, -13480.76176414034, 0.016, -0.11, 0.988, 192.0, 0.0, 0.0, 0.0, 0.0, 0.0, 0.0, 0.0, 0.0, 0.0, 1.645920755854866E9, 0.0, 2022-02-27 11:12:35.854
6.0, -2891.958104605449, -5744.42067675837, -1895.874964699145, -11024.237993268729, -1374.2299526011889, 326.38017253639373, -5459.927673331222, -2401.7843487005653, -5458.832437852912, -8061.447210484411, -4297.458147699613, -3381.5954186434055, -4305.169499536693, -3488.5261641175944, -10617.659761626694, -14929.177156588694, 0.016, -0.11, 0.988, 192.0, 0.0, 0.0, 0.0, 0.0, 0.0, 0.0, 0.0, 0.0, 0.0, 1.645920755862512E9, 0.0, 2022-02-27 11:12:35.862
8.0, -3140.3530407372764, -5925.849786502098, -2009.9806201434876, -11122.496261894257, -1569.0701090181005, 188.17933656923017, -5328.4547124451055, -2212.062741763919, -2884.559677190742, -7693.202220583227, -4715.256955058212, -3371.157153982777, -4892.372178122066, -3896.57961089368, -10390.141354816122, -14036.49318653264, 0.014, -0.11, 0.988, 192.0, 0.0, 56.0, 126.0, 72.0, 15.0, 112.0, 0.0, 0.0, 0.0, 1.645920755877543E9, 0.0, 2022-02-27 11:12:35.877
10.0, -2403.4830812791683, -5354.181570313164, -1496.5163465161738, -10599.554848617894, -901.0658742267937, 746.4141543405241, -5083.345482748209, -1989.4393669890603, -3740.2515101732624, -7331.193367385074, -4221.9316031851295, -3235.169140716689, -4323.14030207876, -3404.9529915992016, -10296.46519380393, -13983.854828340392, 0.014, -0.11, 0.988, 192.0, 0.0, 0.0, 0.0, 0.0, 0.0, 0.0, 0.0, 0.0, 0.0, 1.64592075588454E9, 0.0, 2022-02-27 11:12:35.884
12.0, -3366.99972951409, -6121.9416406085065, -2209.514642896014, -11348.04771519276, -1796.655571062037, -17.18849148613113, -5582.10230852393, -2523.780169937631, -4964.925940623992, -8363.821609475805, -4650.012212993171, -3509.737969605681, -4709.043170099637, -3857.195837163429, -10701.50115507855, -15013.800861096486, 0.014, -0.11, 0.988, 192.0, 0.0, 0.0, 0.0, 0.0, 0.0, 0.0, 0.0, 0.0, 0.0, 1.645920755891956E9, 0.0, 2022-02-27 11:12:35.891
14.0, -2616.7187233827976, -5511.448444300705, -1616.567565985628, -10710.64301856077, -1082.5843909483422, 609.9567544408744, -5081.6243984251505, -1921.937098734033, -2322.1003797173953, -7101.59624834016, -4437.804751134486, -3215.2760881514655, -4624.4194655918445, -3610.9690202437664, -10164.455791050887, -13484.270988019824, 0.014, -0.11, 0.988, 192.0, 0.0, 0.0, 0.0, 0.0, 0.0, 0.0, 0.0, 0.0, 0.0, 1.645920755900175E9, 0.0, 2022-02-27 11:12:35.900
16.0, -2906.4867385013986, -5763.307900823105, -1906.3802845931393, -11029.423597982359, -1390.7031882647502, 322.2450998121619, -5470.835324625412, -2389.3791305278696, -5474.411603738261, -8079.730937448852, -4306.75647339302, -3392.5030699375952, -4310.958601350618, -3499.903202045346, -10618.86675582728, -14933.312229312925, 0.014, -0.11, 0.988, 192.0, 0.0, 0.0, 0.0, 0.0, 0.0, 0.0, 0.0, 0.0, 0.0, 1.645920755908196E9, 0.0, 2022-02-27 11:12:35.908
18.0, -3133.245186000489, -5923.860481245575, -2007.1195968532083, -11106.96179949782, -1558.2965681906426, 200.47279601964905, -5326.823035099868, -2194.248401433039, -2869.7404706168736, -7684.485040245658, -4721.560146994609, -3374.353453439886, -4887.477146086353, -3906.8390615986664, -10385.335729758232, -14024.937334649247, 0.018000000000000002, -0.11, 0.99, 192.0, 0.0, 72.0, 126.0, 72.0, 15.0, 120.0, 0.0, 0.0, 0.0, 1.645920755914673E9, 0.0, 2022-02-27 11:12:35.914
20.0, -2393.983589885663, -5344.212692286097, -1496.7398639607268, -10594.123374715255, -892.9074875006065, 756.1148114341273, -5082.473764714452, -1988.1876692995631, -3747.0911439765864, -7329.7852074843895, -4223.451521808091, -3232.4869313820523, -4304.9906855810505, -3411.099721324411, -10293.782984469293, -13984.145401018312, 0.018000000000000002, -0.11, 0.99, 192.0, 0.0, 0.0, 0.0, 0.0, 0.0, 0.0, 0.0, 0.0, 0.0, 1.645920755922793E9, 0.0, 2022-02-27 11:12:35.922
22.0, -3373.682901106227, -6122.20986154197, -2221.0928465238626, -11351.601642561156, -1795.8062047727353, -13.746322840013844, -5570.725270596179, -2503.820062139042, -5007.058978922246, -8384.295807396866, -4653.432029894832, -3510.6320393838932, -4692.011140824693, -3849.8421132376334, -10703.848088246357, -15021.825137355941, 0.018000000000000002, -0.11, 0.99, 192.0, 0.0, 0.0, 0.0, 0.0, 0.0, 0.0, 0.0, 0.0, 0.0, 1.645920755929853E9, 0.0, 2022-02-27 11:12:35.929
24.0, -2625.301793253636, -5520.500900805104, -1633.1078568825553, -10715.582754085393, -1088.3958445067221, 606.4028270724806, -5059.317357458754, -1927.7932557813235, -2329.36469666537, -7117.421283414517, -4449.271196040058, -3228.977707502569, -4620.262041123157, -3619.820311048068, -10164.835770706626, -13480.739412395886, 0.018000000000000002, -0.11, 0.99, 192.0, 0.0, 0.0, 0.0, 0.0, 0.0, 0.0, 0.0, 0.0, 0.0, 1.645920755936966E9, 0.0, 2022-02-27 11:12:35.936
26.0, -2901.6140582101416, -5758.658737976401, -1907.8331479827343, -11024.282696757638, -1377.582714269485, 336.2372918411841, -5451.054030782465, -2383.053586847018, -5473.517533960049, -8078.166315336981, -4306.9799908375735, -3395.162927527777, -4301.012075068006, -3495.5669636210164, -10618.397369193717, -14921.264639051515, 0.018000000000000002, -0.11, 0.99, 192.0, 0.0, 0.0, 0.0, 0.0, 0.0, 0.0, 0.0, 0.0, 0.0, 1.645920755944387E9, 0.0, 2022-02-27 11:12:35.944
28.0, -3148.913758863659, -5930.811873771176, -2019.5918702592696, -11120.931639782386, -1560.2411699582542, 197.32120005145075, -5334.444979959128, -2205.2678114495056, -2909.0795408582144, -7707.90966843482, -4730.143216865446, -3383.964703555668, -4884.414957095976, -3902.7263406188895, -10394.00820660689, -14036.604945254916, 0.016, -0.108, 0.99, 192.0, 0.0, 64.0, 126.0, 80.0, 15.0, 120.0, 0.0, 0.0, 0.0, 1.645920755952414E9, 0.0, 2022-02-27 11:12:35.952
30.0, -2411.753226727632, -5353.220445301587, -1508.4968815442182, -10602.86290679728, -897.1543189471149, 749.5210468198118, -5073.890694843614, -1981.9738843409878, -3749.4157253999383, -7333.7191145085235, -4235.856739980786, -3243.8639693098035, -4315.3171915194025, -3415.2347940486425, -10300.935542694991, -13977.842209081915, 0.016, -0.108, 0.99, 192.0, 0.0, 0.0, 0.0, 0.0, 0.0, 0.0, 0.0, 0.0, 0.0, 1.645920755960507E9, 0.0, 2022-02-27 11:12:35.960
32.0, -3419.325163283964, -6162.822981217263, -2258.9119981422423, -11394.82991633772, -1825.9363562984893, -56.16993381618665, -5591.8700208509, -2556.4360685868346, -5048.85674105367, -8385.279284152899, -4661.366899176467, -3524.735990135192, -4699.610733939497, -3864.661319811502, -10707.558477825938, -15033.425692728246, 0.016, -0.108, 0.99, 192.0, 0.0, 0.0, 0.0, 0.0, 0.0, 0.0, 0.0, 0.0, 0.0, 1.645920755967037E9, 0.0, 2022-02-27 11:12:35.967
34.0, -2694.346331876079, -5579.733023611668, -1688.115499987066, -10779.151115316286, -1141.1906649101575, 548.0871257885844, -5120.784654710848, -2000.905811894633, -2405.9864766581627, -7190.913819183567, -4527.122321977892, -3303.7889961944816, -4695.0956815595255, -3696.73266371878, -10235.132007018568, -13553.471988853455, 0.016, -0.108, 0.99, 192.0, 0.0, 0.0, 0.0, 0.0, 0.0, 0.0, 0.0, 0.0, 0.0, 1.645920755975076E9, 0.0, 2022-02-27 11:12:35.975
36.0, -2853.982490775882, -5706.467414673259, -1856.200618290975, -10981.36734740345, -1324.4079142103094, 380.6949115627899, -5383.931742183178, -2357.2596737455933, -5488.537906234015, -8081.049690371716, -4318.826415398886, -3411.032666091045, -4311.338581006358, -3509.6485626278595, -10629.014447809988, -14932.529918256989, 0.016, -0.10600000000000001, 0.99, 192.0, 0.0, 64.0, 126.0, 96.0, 15.0, 120.0, 0.0, 0.0, 0.0, 1.645920755983073E9, 0.0, 2022-02-27 11:12:35.983
38.0, -3129.6689068876394, -5910.494138061302, -1990.9592856120214, -11099.116337194007, -1546.5842540960616, 218.3318398394394, -5298.771595808458, -2161.614854528291, -2924.502244532376, -7672.3480430064255, -4663.535018388631, -3332.8239122419254, -4819.706656897862, -3849.2609678817953, -10337.882976279614, -14010.341645519931, 0.016, -0.10600000000000001, 0.99, 192.0, 0.0, 0.0, 0.0, 0.0, 0.0, 0.0, 0.0, 0.0, 0.0, 1.645920755998266E9, 0.0, 2022-02-27 11:12:35.998
40.0, -2398.5433457545455, -5343.385677741251, -1487.1509655894001, -10585.71911880006, -892.4157491225898, 762.060375459239, -5065.799363350793, -1966.3276632222728, -3679.5218204881935, -7303.007817626932, -4216.209556604571, -3218.651201564217, -4304.342484991847, -3398.716854896171, -10270.850094658148, -13925.762644501048, 0.016, -0.10600000000000001, 0.99, 192.0, 0.0, 0.0, 0.0, 0.0, 0.0, 0.0, 0.0, 0.0, 0.0, 1.645920756004814E9, 0.0, 2022-02-27 11:12:36.004
42.0, -3371.425374916241, -6119.661762674065, -2212.308610952927, -11347.757142514844, -1784.2950563782522, -9.231270460041817, -5563.729174581668, -2517.454626256779, -5104.53493649184, -8382.574723073807, -4629.91799472785, -3503.7477020916585, -4662.551541632598, -3822.8859094245327, -10701.031768444987, -15035.5491084515, 0.016, -0.10600000000000001, 0.99, 192.0, 0.0, 0.0, 0.0, 0.0, 0.0, 0.0, 0.0, 0.0, 0.0, 1.645920756012886E9, 0.0, 2022-02-27 11:12:36.012
44.0, -2655.8566279240404, -5539.8575115034, -1641.1768366309211, -10739.8343968194, -1100.0187516234819, 585.8839256625088, -5062.424249938042, -1939.1479419646196, -2332.762161822577, -7132.061676032744, -4469.03013813855, -3231.5034546260185, -4632.309631384567, -3626.3246686845628, -10162.600596261096, -13485.81325838724, 0.016, -0.10600000000000001, 0.99, 192.0, 0.0, 0.0, 0.0, 0.0, 0.0, 0.0, 0.0, 0.0, 0.0, 1.645920756019971E9, 0.0, 2022-02-27 11:12:36.019
46.0, -2869.829877594695, -5723.968830581764, -1873.1879440770083, -11004.903734314888, -1343.4068969973205, 352.8446379714773, -5395.755815000036, -2376.8398018884423, -5444.259100468052, -8042.001192808294, -4292.049025541428, -3388.233886746632, -4283.398900437224, -3473.2375709101643, -10593.408118892685, -14886.6641386347, 0.016, -0.10600000000000001, 0.99, 192.0, 0.0, 64.0, 126.0, 88.0, 15.0, 120.0, 0.0, 0.0, 0.0, 1.645920756027376E9, 0.0, 2022-02-27 11:12:36.027
48.0, -3167.91274165067, -5947.709792579388, -2024.7551232284457, -11141.539948170179, -1581.765899868715, 164.30767349096223, -5318.351723951308, -2232.1122565403293, -3013.7080566535064, -7746.444075875769, -4720.889594660949, -3391.9889798151235, -4877.463564570376, -3906.302619731739, -10396.601008963706, -14092.461954648728, 0.016, -0.10600000000000001, 0.99, 192.0, 0.0, 0.0, 0.0, 0.0, 0.0, 0.0, 0.0, 0.0, 0.0, 1.64592075603546E9, 0.0, 2022-02-27 11:12:36.035
50.0, -2398.1633660988055, -5342.357497496307, -1490.6825412133387, -10589.921246757656, -894.1144817011931, 748.6493287860548, -5049.415534665052, -1968.4510789455271, -3652.856189353012, -7290.714358176513, -4216.187204860116, -3224.8873382672477, -4314.870156630296, -3388.3679972133637, -10273.97933888189, -13925.293257867486, 0.016, -0.10600000000000001, 0.99, 192.0, 0.0, 0.0, 0.0, 0.0, 0.0, 0.0, 0.0, 0.0, 0.0, 1.645920756042567E9, 0.0, 2022-02-27 11:12:36.042
52.0, -3379.0473197755005, -6125.227347043437, -2215.0355237764747, -11351.24401464987, -1795.1803559279867, -22.53055841094952, -5560.599930357925, -2519.466283257757, -5100.86925040117, -8379.534885827887, -4631.795541262096, -3509.7156178612254, -4679.471812185266, -3838.2192061208734, -10700.78589925598, -15038.410131741779, 0.016, -0.10600000000000001, 0.99, 192.0, 0.0, 0.0, 0.0, 0.0, 0.0, 0.0, 0.0, 0.0, 0.0, 1.64592075604902E9, 0.0, 2022-02-27 11:12:36.049
54.0, -2648.458200509334, -5535.47656959016, -1629.665688236438, -10729.485539136595, -1100.5998969793197, 585.0122076287518, -5053.930587045024, -1935.102276218209, -2325.6990105747, -7109.419358899518, -4449.3829547623345, -3225.177910945167, -4631.281451139624, -3627.218738462775, -10148.831921676627, -13476.71609839393, 0.016, -0.10600000000000001, 0.99, 192.0, 0.0, 0.0, 0.0, 0.0, 0.0, 0.0, 0.0, 0.0, 0.0, 1.645920756057042E9, 0.0, 2022-02-27 11:12:36.057
56.0, -2869.4275461944994, -5730.60729868499, -1872.6067987211704, -11001.84154532451, -1347.6313766993735, 351.45882981524824, -5391.665445764715, -2381.019578101585, -5438.246481209574, -8036.145035761004, -4279.3308829463585, -3378.2426569751096, -4284.18121149316, -3476.2997599005416, -10581.204066420087, -14888.452278191124, 0.016, -0.10500000000000001, 0.992, 192.0, 0.0, 64.0, 126.0, 96.0, 15.5, 8.0, 0.0, 0.0, 0.0, 1.645920756065111E9, 0.0, 2022-02-27 11:12:36.065
58.0, -3150.210160042067, -5941.116027965072, -2016.9096609246328, -11128.486529408281, -1577.6531788889383, 180.17741205423025, -5319.938697807634, -2214.119102253807, -2983.309684194289, -7728.585032055978, -4717.447426014832, -3384.6576076337824, -4875.541314547219, -3900.0441312842527, -10382.027671578846, -14075.005242229134, 0.016, -0.10500000000000001, 0.992, 192.0, 0.0, 0.0, 0.0, 0.0, 0.0, 0.0, 0.0, 0.0, 0.0, 1.645920756072214E9, 0.0, 2022-02-27 11:12:36.072
60.0, -2400.622057988889, -5357.221407559086, -1497.7456924612156, -10596.202086949597, -901.0658742267937, 735.2606338573258, -5070.33676747522, -1999.6317624606804, -3675.7220239307912, -7301.756119937435, -4217.640068249711, -3220.3499341428205, -4314.892508374752, -3407.121110811366, -10270.93950163597, -13939.911298741257, 0.016, -0.10500000000000001, 0.992, 192.0, 0.0, 0.0, 0.0, 0.0, 0.0, 0.0, 0.0, 0.0, 0.0, 1.645920756079605E9, 0.0, 2022-02-27 11:12:36.079
62.0, -3359.310729421464, -6118.454768473479, -2208.598221373346, -11347.24305239237, -1787.2454866463527, -20.585956643337806, -5560.465819891193, -2530.463341529768, -5120.516433777384, -8392.744766800972, -4637.4505326092885, -3511.9060888178456, -4681.3046552306005, -3841.3931538335273, -10705.390358613773, -15058.437294773734, 0.016, -0.10500000000000001, 0.992, 192.0, 0.0, 0.0, 0.0, 0.0, 0.0, 0.0, 0.0, 0.0, 0.0, 1.64592075608775E9, 0.0, 2022-02-27 11:12:36.087
64.0, -2631.3144125121134, -5525.99942994111, -1628.9504324138682, -10725.998667001566, -1101.7621876909957, 579.2231058148272, -5064.614720894661, -1941.4725233879715, -2309.3598853778703, -7111.587478111682, -4445.605509949388, -3218.1147596972896, -4628.465131338255, -3623.2848314386406, -10144.249814063289, -13475.218531515424, 0.016, -0.10500000000000001, 0.992, 192.0, 0.0, 0.0, 0.0, 0.0, 0.0, 0.0, 0.0, 0.0, 0.0, 1.645920756095721E9, 0.0, 2022-02-27 11:12:36.095
66.0, -2837.2410341788573, -5709.08256877453, -1846.7234786419249, -10988.229332951229, -1333.3039085035216, 349.91655944783207, -5402.7072075256365, -2377.1303745663613, -5403.333056370385, -8010.887564526506, -4260.644824581722, -3361.1435724667995, -4274.8158305663865, -3462.3299196159746, -10572.375127360241, -14874.32597569537, 0.016, -0.10450000000000001, 0.992, 192.0, 0.0, 64.0, 126.0, 96.0, 15.5, 0.0, 0.0, 0.0, 0.0, 1.645920756102228E9, 0.0, 2022-02-27 11:12:36.102
68.0, -3141.9847180825136, -5931.862405760576, -1998.6929891935577, -11130.051151520152, -1576.7814608551814, 169.04624331548732, -5332.992116569533, -2223.372724458304, -2981.8121173157833, -7719.398465084847, -4707.83617589905, -3370.933636538224, -4873.127326146046, -3897.808956838722, -10379.121944799655, -14084.795306300559, 0.016, -0.10450000000000001, 0.992, 192.0, 0.0, 0.0, 0.0, 0.0, 0.0, 0.0, 0.0, 0.0, 0.0, 1.645920756110263E9, 0.0, 2022-02-27 11:12:36.110
70.0, -2372.972950097674, -5330.868700846279, -1462.1170117994561, -10577.605435562782, -891.4099206221009, 744.9836426953844, -5064.055927283279, -1971.5132679359042, -3647.9388055728446, -7284.344111006751, -4212.901498425186, -3210.179890415656, -4311.159767050715, -3391.586648414928, -10260.74710616435, -13931.127063170323, 0.016, -0.10450000000000001, 0.992, 192.0, 0.0, 0.0, 0.0, 0.0, 0.0, 0.0, 0.0, 0.0, 0.0, 1.645920756125317E9, 0.0, 2022-02-27 11:12:36.125
72.0, -3342.368107124342, -6106.027198556328, -2186.5370495959583, -11336.782435987287, -1783.6692075335036, -25.369229956773516, -5566.545494383036, -2525.322440305047, -5105.116081847677, -8362.592263530763, -4615.076436409526, -3495.991646765667, -4667.424221923855, -3818.9520024003987, -10689.073585161399, -15051.798826670507, 0.016, -0.10450000000000001, 0.992, 192.0, 0.0, 0.0, 0.0, 0.0, 0.0, 0.0, 0.0, 0.0, 0.0, 1.645920756131907E9, 0.0, 2022-02-27 11:12:36.131
74.0, -2614.32708672608, -5516.8799182033445, -1609.1244350820107, -10716.365065141328, -1096.755396933007, 579.2231058148272, -5099.125814333655, -1959.420974185583, -2281.151983875273, -7094.980131981389, -4437.670640667754, -3202.714407767583, -4629.403904605378, -3614.053560978599, -10143.311040796167, -13476.492580949376, 0.016, -0.10450000000000001, 0.992, 192.0, 0.0, 0.0, 0.0, 0.0, 0.0, 0.0, 0.0, 0.0, 0.0, 1.645920756140024E9, 0.0, 2022-02-27 11:12:36.140
76.0, -2821.5054060823213, -5694.978618023231, -1827.9256615550116, -10976.137039200907, -1318.0823705294574, 355.370385094927, -5374.834582189868, -2361.864133103387, -5376.488611279561, -7984.870133980529, -4253.492266356024, -3346.905511248769, -4274.502906144012, -3445.2084833632093, -10573.403307605186, -14872.068449505383, 0.016, -0.10625000000000001, 0.991, 192.0, 0.0, 64.0, 126.0, 80.0, 15.0, 120.0, 0.0, 0.0, 0.0, 1.645920756147927E9, 0.0, 2022-02-27 11:12:36.147
78.0, -3156.692165934106, -5948.581510613145, -2014.4062655456385, -11146.814959861633, -1591.377149984497, 144.25815871455177, -5318.262316973486, -2229.474750694603, -3032.684687696062, -7741.750209540154, -4719.637896971452, -3379.3155407089644, -4890.695797287917, -3888.3765206785824, -10386.743889658916, -14111.483289180194, 0.016, -0.10625000000000001, 0.991, 192.0, 0.0, 0.0, 0.0, 0.0, 0.0, 0.0, 0.0, 0.0, 0.0, 1.64592075615454E9, 0.0, 2022-02-27 11:12:36.154
80.0, -2364.881618604853, -5335.2049392706085, -1461.5358664436183, -10571.391650604208, -876.1883826480368, 739.641575770566, -5049.23672070941, -1969.5686661682923, -3560.834057430513, -7256.650299626625, -4212.4768152805345, -3198.780500743449, -4327.364781780813, -3398.2027647736986, -10248.811274625215, -13900.03578663299, 0.016, -0.10625000000000001, 0.991, 192.0, 0.0, 0.0, 0.0, 0.0, 0.0, 0.0, 0.0, 0.0, 0.0, 1.645920756162575E9, 0.0, 2022-02-27 11:12:36.162
82.0, -3325.224319127121, -6096.907686818563, -2184.279523405972, -11329.6745812505, -1767.3747858255847, -21.68119212164785, -5566.858418805411, -2514.3477337774916, -5142.242329387943, -8374.483391580987, -4597.262096078646, -3486.4921553721615, -4651.107448471481, -3794.5215457107483, -10693.566285796916, -15064.785190199042, 0.016, -0.10625000000000001, 0.991, 192.0, 0.0, 0.0, 0.0, 0.0, 0.0, 0.0, 0.0, 0.0, 0.0, 1.645920756170576E9, 0.0, 2022-02-27 11:12:36.170
84.0, -2641.4397527503675, -5533.688430033735, -1633.9348714274015, -10733.911184538745, -1111.0158098954928, 561.5205242062241, -5082.160840292077, -1939.9302530205553, -2266.2210185791278, -7101.3280274066965, -4453.473323997656, -3201.8873932227366, -4650.548654860098, -3631.6443838649257, -10150.687116466417, -13488.026081088316, 0.016, -0.10625000000000001, 0.991, 192.0, 0.0, 0.0, 0.0, 0.0, 0.0, 0.0, 0.0, 0.0, 0.0, 1.645920756177613E9, 0.0, 2022-02-27 11:12:36.177
86.0, -2804.093397151637, -5689.010702253664, -1815.7663125713245, -10960.468466337737, -1297.9210970307706, 373.54235333709164, -5373.582884500371, -2352.0964207764173, -5344.0115265859995, -7969.469782050823, -4250.966519232574, -3354.102772963378, -4281.051967269417, -3446.616643263894, -10562.450952822084, -14844.531100336446, 0.017, -0.10512500000000001, 0.9904999999999999, 192.0, 0.0, 72.0, 126.0, 96.0, 15.0, 120.0, 0.0, 0.0, 0.0, 1.645920756184206E9, 0.0, 2022-02-27 11:12:36.184
88.0, -3176.004073143491, -5966.37349919957, -2020.3741813152053, -11154.839236121088, -1608.990324615279, 137.55263537795966, -5343.050401574422, -2253.435820750692, -3087.8711447562155, -7767.722936597221, -4712.373580023477, -3382.444784932707, -4895.568477579174, -3905.944991820454, -10405.094671856723, -14154.108065856466, 0.017, -0.10512500000000001, 0.9904999999999999, 192.0, 0.0, 0.0, 0.0, 0.0, 0.0, 0.0, 0.0, 0.0, 0.0, 1.645920756192211E9, 0.0, 2022-02-27 11:12:36.192
90.0, -2367.3179587504815, -5324.744322865525, -1448.482447681719, -10568.016537191455, -882.4021676066122, 752.7173462769207, -5063.966520305457, -1978.4423087170494, -3520.9361935777897, -7240.825264552268, -4214.220251348049, -3204.368436857276, -4339.9711656536065, -3394.872354849858, -10244.899719345536, -13883.227274802599, 0.017, -0.10512500000000001, 0.9904999999999999, 192.0, 0.0, 0.0, 0.0, 0.0, 0.0, 0.0, 0.0, 0.0, 0.0, 1.645920756200283E9, 0.0, 2022-02-27 11:12:36.200
92.0, -3323.5032348040622, -6092.459689671957, -2172.8130785003996, -11327.685275993977, -1772.135707394565, -15.534462396438409, -5555.302566922017, -2533.9949171537064, -5145.058649189312, -8346.36489705621, -4588.9695988857275, -3476.0985942004436, -4658.595282864008, -3788.531278196726, -10691.286407862473, -15065.612204743888, 0.017, -0.10512500000000001, 0.9904999999999999, 192.0, 0.0, 0.0, 0.0, 0.0, 0.0, 0.0, 0.0, 0.0, 0.0, 1.645920756207193E9, 0.0, 2022-02-27 11:12:36.207
94.0, -2629.481569466778, -5524.14423515132, -1619.920327653924, -10731.005457759555, -1121.5658332783978, 562.2357800287939, -5088.8440118842145, -1946.6134246126921, -2249.144285815273, -7091.113280190621, -4441.939823858717, -3192.9913989295246, -4657.097715985503, -3617.7192470692694, -10147.15554084248, -13479.063031561736, 0.017, -0.10512500000000001, 0.9904999999999999, 192.0, 0.0, 0.0, 0.0, 0.0, 0.0, 0.0, 0.0, 0.0, 0.0, 1.645920756214909E9, 0.0, 2022-02-27 11:12:36.214
96.0, -2781.1158038515814, -5659.193475150285, -1801.3717891421068, -10950.45488482176, -1292.5343266170414, 380.04671097358596, -5359.747154682535, -2371.274217519071, -5320.318677463374, -7940.457217747834, -4237.399010348202, -3321.424522569719, -4279.397938179724, -3438.122980370877, -10564.395554589695, -14839.03257120044, 0.0175, -0.1015625, 0.98925, 192.0, 0.0, 72.0, 126.0, 120.0, 15.0, 112.0, 0.0, 0.0, 0.0, 1.645920756222888E9, 0.0, 2022-02-27 11:12:36.222
98.0, -3153.3394042658097, -5947.84390304612, -2014.9427074125658, -11153.699297153868, -1601.4801384782957, 133.17169346471948, -5332.321564235874, -2255.44747775167, -3076.784679506383, -7759.609253359945, -4700.527155462165, -3366.3738806693414, -4889.77937576525, -3908.0907592881636, -10402.926552644558, -14160.545368259594, 0.0175, -0.1015625, 0.98925, 192.0, 0.0, 0.0, 0.0, 0.0, 0.0, 0.0, 0.0, 0.0, 0.0, 1.64592075623085E9, 0.0, 2022-02-27 11:12:36.230
100.0, -2338.6853741032332, -5306.862927301279, -1447.4989709256854, -10564.887292967713, -886.7607577753971, 747.3976310965576, -5066.782840106826, -1966.4841254334601, -3485.083995471477, -7219.747569530913, -4197.367036028747, -3178.038081888924, -4342.183988354682, -3391.4972414371064, -10248.900681603036, -13880.634472445783, 0.0175, -0.1015625, 0.98925, 192.0, 0.0, 0.0, 0.0, 0.0, 0.0, 0.0, 0.0, 0.0, 0.0, 1.64592075624509E9, 0.0, 2022-02-27 11:12:36.245
102.0, -3315.2777928445093, -6085.39653842408, -2173.5283343229694, -11333.876709208096, -1766.0560329027217, -23.379924700251188, -5552.262729676096, -2537.2806235886364, -5150.221902158488, -8336.84305391825, -4571.021148088115, -3459.513599814606, -4649.989861248715, -3784.9326473394212, -10698.371910854807, -15074.910530437295, 0.0175, -0.1015625, 0.98925, 192.0, 0.0, 0.0, 0.0, 0.0, 0.0, 0.0, 0.0, 0.0, 0.0, 1.645920756251766E9, 0.0, 2022-02-27 11:12:36.251
104.0, -2631.739095656764, -5524.3901043403275, -1621.0379148766895, -10745.310574210951, -1118.2801268434675, 549.7858583671879, -5089.24634328441, -1972.7202621364906, -2241.8799688672984, -7086.7099865329255, -4443.079762825938, -3195.181869886145, -4664.250274211201, -3628.8504158080123, -10145.903843152983, -13490.23890378939, 0.0175, -0.1015625, 0.98925, 192.0, 0.0, 0.0, 0.0, 0.0, 0.0, 0.0, 0.0, 0.0, 0.0, 1.6459207562598E9, 0.0, 2022-02-27 11:12:36.259
106.0, -2774.8573154040955, -5663.172085663329, -1794.398044872051, -10955.014640690642, -1290.5003178716086, 382.81832728604405, -5393.565344043415, -2378.8738106338756, -5302.839613299324, -7935.2045578008365, -4228.480664310535, -3322.139778392289, -4277.542743389934, -3422.6779249522597, -10557.354755086275, -14838.473777589057, 0.018000000000000002, -0.098, 0.988, 192.0, 0.0, 72.0, 126.0, 120.0, 15.0, 112.0, 0.0, 0.0, 0.0, 1.645920756267776E9, 0.0, 2022-02-27 11:12:36.267
108.0, -3143.4822849610196, -5943.485312877335, -1995.876669392189, -11144.356267971549, -1593.6123244300277, 142.98410928059928, -5372.085317621865, -2245.344489257871, -3062.8595427107266, -7741.996078729163, -4695.498012959721, -3359.7577643105706, -4897.9601142358915, -3898.3677504501047, -10403.083014855745, -14146.508472741662, 0.018000000000000002, -0.098, 0.988, 192.0, 0.0, 0.0, 0.0, 0.0, 0.0, 0.0, 0.0, 0.0, 0.0, 1.645920756274894E9, 0.0, 2022-02-27 11:12:36.274
110.0, -2344.943862550719, -5310.953296536601, -1436.6583748648613, -10565.066106923356, -873.0144349353833, 742.8378752276749, -5039.8936915270915, -1982.197401785541, -3507.480443415695, -7228.598860335214, -4198.417568018147, -3179.6027040007957, -4345.872026189808, -3396.1687560282658, -10243.245690255844, -13886.311815537432, 0.018000000000000002, -0.098, 0.988, 192.0, 0.0, 0.0, 0.0, 0.0, 0.0, 0.0, 0.0, 0.0, 0.0, 1.645920756282443E9, 0.0, 2022-02-27 11:12:36.282
112.0, -3311.545051520473, -6089.106928003661, -2174.8023837569217, -11330.188671372971, -1772.5156870503054, -13.768674584469151, -5584.3821864583715, -2540.0522399010947, -5180.195591473054, -8352.310461081323, -4582.711110438241, -3467.8955039853463, -4658.192951463813, -3788.0395398187093, -10696.002625942545, -15083.873579963874, 0.018000000000000002, -0.098, 0.988, 192.0, 0.0, 0.0, 0.0, 0.0, 0.0, 0.0, 0.0, 0.0, 0.0, 1.645920756290385E9, 0.0, 2022-02-27 11:12:36.290
114.0, -2641.6632701949206, -5541.444485359727, -1632.951394671368, -10745.489388166594, -1120.3811908222665, 554.6808904029001, -5101.092767845723, -1954.4365351720496, -2247.7808294034994, -7098.556411094238, -4453.07099259746, -3189.7950994724156, -4671.983977792737, -3623.083665738543, -10154.285747323722, -13484.00276708636, 0.018000000000000002, -0.098, 0.988, 192.0, 0.0, 0.0, 0.0, 0.0, 0.0, 0.0, 0.0, 0.0, 0.0, 1.645920756297511E9, 0.0, 2022-02-27 11:12:36.297
116.0, -2768.3753095120564, -5664.803763008566, -1793.168698927009, -10940.463655050238, -1266.4945443266088, 398.464548404759, -5362.898750650734, -2336.4501996577023, -5306.706465090092, -7937.663249690921, -4239.231853393538, -3321.9162609477357, -4279.688510857643, -3428.6011372329162, -10551.431542805618, -14818.334855834826, 0.016, -0.10200000000000001, 0.986, 192.0, 0.0, 64.0, 126.0, 104.0, 15.0, 104.0, 0.0, 0.0, 0.0, 1.645920756306097E9, 0.0, 2022-02-27 11:12:36.306
118.0, -3170.43848877412, -5965.32296721017, -2026.3420970847724, -11159.980137345809, -1599.826109388603, 127.47199862861618, -5353.8686458907905, -2269.9090564142534, -3141.3812209822204, -7780.105803025461, -4711.658324200907, -3362.842305045403, -4896.3060851462, -3894.612657381613, -10410.794366692826, -14185.37815634944, 0.016, -0.10200000000000001, 0.986, 192.0, 0.0, 0.0, 0.0, 0.0, 0.0, 0.0, 0.0, 0.0, 0.0, 1.64592075631202E9, 0.0, 2022-02-27 11:12:36.312
120.0, -2357.9972813126187, -5323.090293775832, -1449.9576628157693, -10565.110810412265, -863.9396266865286, 753.4102503550351, -5054.109401000667, -1966.6405876446472, -3453.9703671896896, -7214.606668306193, -4219.40585606168, -3170.036157373924, -4358.321947851414, -3395.162927527777, -10234.707323873918, -13860.428495458185, 0.016, -0.10200000000000001, 0.986, 192.0, 0.0, 0.0, 0.0, 0.0, 0.0, 0.0, 0.0, 0.0, 0.0, 1.645920756320063E9, 0.0, 2022-02-27 11:12:36.320
122.0, -3316.395380067275, -6093.8231460837305, -2171.762546511, -11327.238241104871, -1751.1250676065765, -11.779369327946823, -5586.416195203805, -2540.2534056011923, -5231.470493253529, -8367.397888588654, -4583.225200560713, -3459.223027136687, -4643.351393145489, -3778.115365280553, -10696.807288742935, -15095.809411503007, 0.016, -0.10200000000000001, 0.986, 192.0, 0.0, 0.0, 0.0, 0.0, 0.0, 0.0, 0.0, 0.0, 0.0, 1.645920756327212E9, 0.0, 2022-02-27 11:12:36.327
124.0, -2679.348311346568, -5574.614474131403, -1649.044650679189, -10763.08021105292, -1131.0653246719032, 539.3922971954701, -5082.33965424772, -1968.6969481345354, -2261.0577656099517, -7129.133597509098, -4482.061205155994, -3199.6745705216613, -4691.251181513212, -3647.894102083934, -10155.604500246585, -13504.164040585047, 0.016, -0.10200000000000001, 0.986, 192.0, 0.0, 0.0, 0.0, 0.0, 0.0, 0.0, 0.0, 0.0, 0.0, 1.645920756334735E9, 0.0, 2022-02-27 11:12:36.334
126.0, -2793.677484235464, -5684.182725451318, -1802.0870449646766, -10945.716314997235, -1268.8861809833265, 396.0729117480412, -5368.643148975748, -2348.497789919113, -5293.407177139185, -7925.079217562583, -4258.096725713816, -3327.2136243836435, -4293.32307497538, -3430.8586634229023, -10544.770722957937, -14802.442765527103, 0.012, -0.10400000000000001, 0.988, 192.0, 0.0, 48.0, 126.0, 96.0, 15.0, 112.0, 0.0, 0.0, 0.0, 1.645920756342727E9, 0.0, 2022-02-27 11:12:36.342
128.0, -3190.197430872611, -5984.724281397376, -2033.0252686769093, -11166.395088004481, -1609.951449626857, 132.6128998533368, -5365.089221607354, -2265.2598935675496, -3137.9837558250138, -7783.592675160489, -4734.501807034231, -3371.6935958497047, -4913.941611521436, -3905.4085499535267, -10410.436738781542, -14172.011813165167, 0.012, -0.10400000000000001, 0.988, 192.0, 0.0, 0.0, 0.0, 0.0, 0.0, 0.0, 0.0, 0.0, 0.0, 1.645920756350717E9, 0.0, 2022-02-27 11:12:36.350
130.0, -2379.9243426232747, -5349.621814444282, -1463.1451920444003, -10579.214761163565, -876.3895483481347, 744.7824769952866, -5064.748831361393, -1990.9592856120214, -3502.7642253356253, -7235.460845882994, -4239.209501649082, -3189.616285516773, -4364.043994431972, -3406.7634829000813, -10242.910414089014, -13872.341975252864, 0.012, -0.10400000000000001, 0.988, 192.0, 0.0, 0.0, 0.0, 0.0, 0.0, 0.0, 0.0, 0.0, 0.0, 1.645920756357275E9, 0.0, 2022-02-27 11:12:36.357
132.0, -3342.5022175910735, -6116.331352750225, -2190.962694998109, -11339.844624977664, -1762.5691607676938, -20.183625243142277, -5581.543514912548, -2552.5245133071558, -5257.733792988514, -8374.796316003361, -4608.683837495308, -3475.919780244801, -4658.796448564106, -3794.4544904773825, -10701.769376012013, -15099.944484227239, 0.012, -0.10400000000000001, 0.988, 192.0, 0.0, 0.0, 0.0, 0.0, 0.0, 0.0, 0.0, 0.0, 0.0, 1.645920756372336E9, 0.0, 2022-02-27 11:12:36.372
134.0, -2686.098538172071, -5584.829221347478, -1666.4566596098734, -10761.761458130057, -1133.5463683064424, 541.4933611742689, -5101.383340523642, -1970.6862533910578, -2285.1752978772283, -7123.07627476171, -4491.828917482962, -3202.289724622932, -4691.206478024302, -3646.463590438794, -10155.67155547995, -13489.501296222365, 0.012, -0.10400000000000001, 0.988, 192.0, 0.0, 0.0, 0.0, 0.0, 0.0, 0.0, 0.0, 0.0, 0.0, 1.645920756380291E9, 0.0, 2022-02-27 11:12:36.380
136.0, -2790.6599987339973, -5686.417899896848, -1812.9946962588665, -10938.11672188243, -1261.8006779909942, 405.88532756392095, -5377.986178158067, -2335.6231851128564, -5327.67240138917, -7942.424171259901, -4270.70310958661, -3328.04063892849, -4295.424138954179, -3440.9393001722456, -10556.147760885688, -14807.337797562814, 0.014, -0.106, 0.99, 192.0, 0.0, 56.0, 126.0, 88.0, 15.0, 120.0, 0.0, 0.0, 0.0, 1.645920756386967E9, 0.0, 2022-02-27 11:12:36.386
138.0, -3201.06037867789, -5999.364674015603, -2053.320652642328, -11176.565131731646, -1600.541365211173, 120.9005857587559, -5364.329262295873, -2274.580571005413, -3212.102140438812, -7808.917201628352, -4743.397801327444, -3381.3048459654865, -4908.599544596618, -3901.429939440482, -10424.361875577197, -14198.81155476708, 0.014, -0.106, 0.99, 192.0, 0.0, 0.0, 0.0, 0.0, 0.0, 0.0, 0.0, 0.0, 0.0, 1.645920756395046E9, 0.0, 2022-02-27 11:12:36.395
140.0, -2378.918514122786, -5354.270977290986, -1472.376462504442, -10569.80467674788, -860.5645132737773, 747.1741136520045, -5050.153142232078, -1978.6881779060577, -3449.7458874876365, -7219.948735231011, -4239.276556882448, -3182.910762180181, -4363.57460779841, -3404.86358462138, -10234.237937240356, -13841.384809182264, 0.014, -0.106, 0.99, 192.0, 0.0, 0.0, 0.0, 0.0, 0.0, 0.0, 0.0, 0.0, 0.0, 1.645920756402917E9, 0.0, 2022-02-27 11:12:36.402
142.0, -3333.874444231325, -6120.220556285448, -2191.6555990762236, -11334.860185964131, -1745.5371314927497, -17.233194975041744, -5593.68051215178, -2549.708193505787, -5289.227400926042, -8385.32398764181, -4595.362197799945, -3469.5495330750387, -4642.256157667179, -3777.735385624813, -10707.379663870295, -15101.710272039209, 0.014, -0.106, 0.99, 192.0, 0.0, 0.0, 0.0, 0.0, 0.0, 0.0, 0.0, 0.0, 0.0, 1.645920756412793E9, 0.0, 2022-02-27 11:12:36.412
144.0, -2693.9216487314284, -5601.771843644601, -1663.9979677197896, -10772.624405935336, -1132.8534642283278, 521.0638667421182, -5092.263828785876, -1970.0827562907646, -2277.0392628954964, -7145.807998872758, -4491.65010352732, -3206.6036113028067, -4687.540791933631, -3649.503427684716, -10157.05736363618, -13498.844325404683, 0.014, -0.106, 0.99, 192.0, 0.0, 0.0, 0.0, 0.0, 0.0, 0.0, 0.0, 0.0, 0.0, 1.645920756417958E9, 0.0, 2022-02-27 11:12:36.417
146.0, -2791.5540685122096, -5696.856164557477, -1799.8071670302354, -10940.284841094595, -1246.6238435058408, 392.07194949054116, -5376.265093835008, -2350.7776678535542, -5295.66470332917, -7944.90521489444, -4262.969406005073, -3333.7626855090484, -4279.755566091009, -3444.1803031182653, -10546.312993325353, -14796.743070690998, 0.012, -0.106, 0.99, 192.0, 0.0, 48.0, 126.0, 88.0, 15.0, 120.0, 0.0, 0.0, 0.0, 1.645920756424717E9, 0.0, 2022-02-27 11:12:36.424
148.0, -3217.198338174622, -6020.3976655480465, -2060.4955626124815, -11184.187076590906, -1608.5209379817175, 110.08234144238729, -5372.219428088597, -2266.4892395125917, -3224.2838411669545, -7837.795655464609, -4752.025574687192, -3395.967590328168, -4908.711303318894, -3927.7602944088335, -10428.094616901233, -14208.579267094048, 0.012, -0.106, 0.99, 192.0, 0.0, 0.0, 0.0, 0.0, 0.0, 0.0, 0.0, 0.0, 0.0, 1.645920756432811E9, 0.0, 2022-02-27 11:12:36.432
150.0, -2383.9253048807745, -5355.9250063806785, -1473.158773560378, -10579.080650696833, -863.8502197087074, 746.8164857407196, -5054.243511467399, -1951.3519944372172, -3467.671986540793, -7238.43362789555, -4250.050097709906, -3199.048721676913, -4370.347186368369, -3421.3368202849415, -10241.904585588525, -13847.844463329848, 0.012, -0.106, 0.99, 192.0, 0.0, 0.0, 0.0, 0.0, 0.0, 0.0, 0.0, 0.0, 0.0, 1.645920756439428E9, 0.0, 2022-02-27 11:12:36.439
152.0, -3329.873481973825, -6116.01842832785, -2189.867459519799, -11335.888366209074, -1746.9229396489789, -14.215709473575291, -5594.038140063065, -2535.8948154324075, -5299.62096209776, -8386.419223120121, -4591.897677409373, -3480.54659134705, -4632.063762195559, -3781.5798856711253, -10701.054120189443, -15107.633484319866, 0.012, -0.106, 0.99, 192.0, 0.0, 0.0, 0.0, 0.0, 0.0, 0.0, 0.0, 0.0, 0.0, 1.645920756447276E9, 0.0, 2022-02-27 11:12:36.447
154.0, -2696.9838377218057, -5595.647465663847, -1674.8609155250688, -10771.842094879401, -1141.011850954515, 521.8014743091434, -5104.043198113823, -1955.1741427390748, -2266.3551290458595, -7138.834254602702, -4494.9358099622505, -3209.9340212266475, -4690.312408246089, -3656.2313027657633, -10154.933947912927, -13496.05035734777, 0.012, -0.106, 0.99, 192.0, 0.0, 0.0, 0.0, 0.0, 0.0, 0.0, 0.0, 0.0, 0.0, 1.645920756455319E9, 0.0, 2022-02-27 11:12:36.455
156.0, -2764.5531612101986, -5661.115725173441, -1789.4806610918833, -10916.860212905432, -1235.8950061672933, 420.30220273759403, -5364.597483229338, -2317.3841616373256, -5276.576313564338, -7919.379522726479, -4260.376603648258, -3328.5100255620514, -4277.766260834487, -3448.516541542595, -10539.383952544207, -14783.756707162465, 0.012, -0.11, 0.992, 192.0, 0.0, 48.0, 126.0, 72.0, 15.5, 0.0, 0.0, 0.0, 0.0, 1.645920756462487E9, 0.0, 2022-02-27 11:12:36.462
158.0, -3221.0875417098455, -6006.360770030114, -2062.7530888024676, -11182.197771334384, -1611.471368249818, 116.25142291205204, -5366.296215807941, -2257.6826521972007, -3263.287635241465, -7840.07553339905, -4748.896330463449, -3389.9773228141457, -4901.156413693001, -3921.30064026125, -10432.006172180912, -14228.829947570557, 0.012, -0.11, 0.992, 192.0, 0.0, 0.0, 0.0, 0.0, 0.0, 0.0, 0.0, 0.0, 0.0, 1.645920756470029E9, 0.0, 2022-02-27 11:12:36.470
160.0, -2380.751357168121, -5342.268090518486, -1465.9838635902242, -10568.396516847197, -856.4517922940007, 766.1283929501049, -5057.775087091338, -1926.4521511140051, -3400.683808408238, -7219.2558311528965, -4253.581673333844, -3194.0642826633793, -4364.222808387614, -3422.834387163447, -10226.817158081194, -13818.675436815673, 0.012, -0.11, 0.992, 192.0, 0.0, 0.0, 0.0, 0.0, 0.0, 0.0, 0.0, 0.0, 0.0, 1.645920756478193E9, 0.0, 2022-02-27 11:12:36.478
162.0, -3326.3419063498864, -6106.384826467613, -2182.089052449352, -11329.808691717231, -1739.300994789719, 5.09619773581001, -5564.2432647041405, -2504.0212278391396, -5325.057247287899, -8385.368691130721, -4586.667369206831, -3480.2783704135863, -4620.642020778897, -3751.9414725233883, -10706.887925492278, -15105.286551152058, 0.012, -0.11, 0.992, 192.0, 0.0, 0.0, 0.0, 0.0, 0.0, 0.0, 0.0, 0.0, 0.0, 1.64592075649198E9, 0.0, 2022-02-27 11:12:36.491
164.0, -2711.356009406568, -5602.3976924893495, -1673.6986248133928, -10784.582589218926, -1139.0001939535373, 518.3816574074814, -5089.916895618069, -1959.8903608191445, -2268.2326755801055, -7163.264711292352, -4506.625772312376, -3217.39950387472, -4692.212306524791, -3678.2030675653305, -10155.91742466896, -13504.208744073958, 0.012, -0.11, 0.992, 192.0, 0.0, 0.0, 0.0, 0.0, 0.0, 0.0, 0.0, 0.0, 0.0, 1.645920756499514E9, 0.0, 2022-02-27 11:12:36.499
166.0, -2770.6775391909528, -5666.077812442519, -1787.4690040909059, -10926.44911127676, -1231.9610991431593, 429.4887697087252, -5375.751003712536, -2323.0615047289734, -5241.349964302774, -7914.149214523937, -4259.147257703216, -3329.068819173434, -4266.545685117922, -3441.1851693612543, -10526.062312848844, -14760.913224329142, 0.01, -0.11, 0.992, 192.0, 0.0, 40.0, 126.0, 72.0, 15.5, 0.0, 0.0, 0.0, 0.0, 1.645920756507575E9, 0.0, 2022-02-27 11:12:36.507
168.0, -3223.836806277848, -6011.300505554736, -2062.998957991476, -11190.423213293936, -1612.924231639413, 119.3136119024291, -5367.68202396417, -2233.25219550755, -3273.8376586243703, -7862.98607146574, -4762.128563180991, -3403.3660177428746, -4904.106843961102, -3932.141236322074, -10438.242308883942, -14235.848395329524, 0.01, -0.11, 0.992, 192.0, 0.0, 0.0, 0.0, 0.0, 0.0, 0.0, 0.0, 0.0, 0.0, 1.64592075651559E9, 0.0, 2022-02-27 11:12:36.515
170.0, -2392.441319518247, -5358.428401759673, -1464.7098141562717, -10580.421755364152, -852.3390713142243, 753.7231747774094, -5035.6692118250385, -1917.9137847320778, -3397.4651572066737, -7226.386037634139, -4259.594292592322, -3204.659009535195, -4368.357881111847, -3425.7848174315477, -10217.183556220956, -13814.361550135798, 0.01, -0.11, 0.992, 192.0, 0.0, 0.0, 0.0, 0.0, 0.0, 0.0, 0.0, 0.0, 0.0, 1.64592075652217E9, 0.0, 2022-02-27 11:12:36.522
172.0, -3341.1387611792998, -6115.705503905476, -2190.023921730986, -11341.118674411617, -1740.0833058456549, 0.6705523336592119, -5585.186849258763, -2513.0960360879944, -5349.264186532997, -8403.965342517537, -4595.33984605549, -3498.2938764445635, -4621.983125446216, -3787.0560630626755, -10702.730501023592, -15120.37397865939, 0.01, -0.11, 0.992, 192.0, 0.0, 0.0, 0.0, 0.0, 0.0, 0.0, 0.0, 0.0, 0.0, 1.645920756530156E9, 0.0, 2022-02-27 11:12:36.530
174.0, -2737.1946259969027, -5615.406407762338, -1692.563497133672, -10789.097641598897, -1161.8436767868611, 519.812169052621, -5128.96539318149, -1947.19456996853, -2275.899323928276, -7169.143220084098, -4526.295307433046, -3229.9164807696916, -4705.533946220154, -3680.6394077109585, -10161.43830554942, -13506.466270263943, 0.012, -0.11, 0.993, 192.0, 0.0, 56.0, 126.0, 72.0, 15.5, 8.0, 0.0, 0.0, 0.0, 1.645920756538112E9, 0.0, 2022-02-27 11:12:36.538
176.0, -2757.0429750732155, -5647.816437222533, -1778.6624167755149, -10907.137204067374, -1226.4402182626986, 448.21953156227255, -5375.393375801251, -2295.8817834713204, -5240.724115458026, -7917.859604103519, -4270.904275286707, -3336.176673910222, -4276.358100933802, -3438.8158844489917, -10535.695914709082, -14754.118294014728, 0.012, -0.11, 0.993, 192.0, 0.0, 0.0, 0.0, 0.0, 0.0, 0.0, 0.0, 0.0, 0.0, 1.64592075654437E9, 0.0, 2022-02-27 11:12:36.544
178.0, -3241.427629164175, -6021.850528937642, -2078.578123876825, -11198.782765720222, -1632.2361388487982, 111.91518448772246, -5379.483745036572, -2273.1724111047283, -3346.2126071706543, -7893.8761823029745, -4767.492981850264, -3417.380561516352, -4909.4042073970095, -3929.4143234985263, -10447.920614233091, -14268.794866656646, 0.012, -0.11, 0.993, 192.0, 0.0, 0.0, 0.0, 0.0, 0.0, 0.0, 0.0, 0.0, 0.0, 1.645920756551972E9, 0.0, 2022-02-27 11:12:36.551
180.0, -2390.9661043841966, -5350.091201077843, -1468.7554799026823, -10571.838685493312, -866.8453534657185, 759.5346283357893, -5056.456334168474, -1927.3685726366728, -3347.3972496267857, -7216.506566584893, -4264.377565905758, -3203.8319949903484, -4379.131421939304, -3425.6954104537263, -10219.93282078896, -13798.603570294807, 0.012, -0.11, 0.993, 192.0, 0.0, 0.0, 0.0, 0.0, 0.0, 0.0, 0.0, 0.0, 0.0, 1.645920756559836E9, 0.0, 2022-02-27 11:12:36.559
182.0, -3330.901662218769, -6103.657913644066, -2181.7537762825223, -11327.595869016155, -1747.5487884937274, 2.7492645680027685, -5616.233422307185, -2522.9084519038743, -5369.20194258713, -8398.310351170343, -4588.120232596425, -3492.4600711417283, -4616.283430610112, -3757.261187703751, -10710.9782947276, -15119.412853647811, 0.012, -0.11, 0.993, 192.0, 0.0, 0.0, 0.0, 0.0, 0.0, 0.0, 0.0, 0.0, 0.0, 1.645920756567743E9, 0.0, 2022-02-27 11:12:36.567
184.0, -2752.3044052486903, -5628.25866082414, -1697.4585291693843, -10801.860487682878, -1180.0827002623917, 507.071674713096, -5123.176291367566, -1958.0575177738092, -2275.4299372947144, -7184.834144691724, -4532.1514644803365, -3242.2546437090214, -4718.74382719324, -3686.4061577804277, -10171.407183576488, -13517.955066913972, 0.012, -0.109, 0.9924999999999999, 192.0, 0.0, 48.0, 126.0, 80.0, 15.5, 0.0, 0.0, 0.0, 0.0, 1.64592075657442E9, 0.0, 2022-02-27 11:12:36.574
186.0, -2773.963245625883, -5662.16625716284, -1780.4729080763948, -10910.713483180223, -1228.1836543302124, 442.94451987082005, -5338.9600323391005, -2304.1966324086943, -5223.356810016252, -7905.543792908645, -4277.229818967559, -3351.71113630666, -4287.511621417001, -3445.4543525522176, -10526.84462390478, -14740.215508963527, 0.012, -0.109, 0.9924999999999999, 192.0, 0.0, 0.0, 0.0, 0.0, 0.0, 0.0, 0.0, 0.0, 0.0, 1.645920756582507E9, 0.0, 2022-02-27 11:12:36.582
188.0, -3249.3848501902644, -6027.796092962753, -2075.31476918635, -11200.928533187931, -1637.3323365846084, 108.85299549734539, -5394.660579521726, -2282.381329820315, -3337.9201099777356, -7888.444708400334, -4778.355929655544, -3415.8829946378464, -4915.372123166576, -3938.556186980747, -10446.937137477058, -14267.610224200514, 0.012, -0.109, 0.9924999999999999, 192.0, 0.0, 0.0, 0.0, 0.0, 0.0, 0.0, 0.0, 0.0, 0.0, 1.645920756590424E9, 0.0, 2022-02-27 11:12:36.590
190.0, -2402.8348806899644, -5361.445887261139, -1469.8060118920819, -10578.968891974557, -875.5848855477435, 757.7464887793648, -5060.546703403796, -1913.8904707301226, -3369.8607528043694, -7224.128511444153, -4276.402804422713, -3207.2071084031, -4389.77085230003, -3433.5632245019942, -10228.538242404253, -13804.616189553284, 0.012, -0.109, 0.9924999999999999, 192.0, 0.0, 0.0, 0.0, 0.0, 0.0, 0.0, 0.0, 0.0, 0.0, 1.645920756597582E9, 0.0, 2022-02-27 11:12:36.597
192.0, -3337.3389646218975, -6107.547117179289, -2180.837354759855, -11332.446197562957, -1740.753858179314, 7.957221026089314, -5588.561962671514, -2512.2466697986924, -5398.1250999122985, -8411.22965946551, -4594.915162910839, -3504.3064957030415, -4616.261078865657, -3758.691699348891, -10715.091015707376, -15128.398254918846, 0.012, -0.109, 0.9924999999999999, 192.0, 0.0, 0.0, 0.0, 0.0, 0.0, 0.0, 0.0, 0.0, 0.0, 1.64592075660505E9, 0.0, 2022-02-27 11:12:36.605
194.0, -2767.615350200576, -5640.507416785648, -1700.654828626493, -10814.690389000225, -1188.5987148998636, 501.5731455770905, -5115.911974419591, -1949.0497647583206, -2288.4163008232476, -7196.077072152743, -4544.489627419666, -3256.5597601604177, -4720.129635349469, -3705.628658011992, -10171.787163232228, -13518.58091575872, 0.012, -0.1085, 0.99125, 192.0, 0.0, 48.0, 126.0, 80.0, 15.0, 120.0, 0.0, 0.0, 0.0, 1.645920756620179E9, 0.0, 2022-02-27 11:12:36.620
196.0, -2770.6551874464976, -5661.763925762645, -1767.3077305922188, -10913.462747748226, -1230.6646979647517, 446.3196332835714, -5355.969709869589, -2287.410472322759, -5207.308257497341, -7912.629295900977, -4272.647711354221, -3360.294206177498, -4278.168592234682, -3449.8799979543687, -10522.821309902825, -14728.257325679939, 0.012, -0.1085, 0.99125, 192.0, 0.0, 0.0, 0.0, 0.0, 0.0, 0.0, 0.0, 0.0, 0.0, 1.645920756627122E9, 0.0, 2022-02-27 11:12:36.627
198.0, -3269.2555510110324, -6036.781494233786, -2078.9134000436547, -11212.50673681578, -1654.6772902819266, 105.27671638449627, -5409.122158184309, -2275.6758064837227, -3378.2426569751096, -7917.949011081339, -4779.227647689301, -3433.295003568531, -4914.947440021925, -3957.801038956766, -10455.676669559083, -14285.983358142777, 0.012, -0.1085, 0.99125, 192.0, 0.0, 0.0, 0.0, 0.0, 0.0, 0.0, 0.0, 0.0, 0.0, 1.645920756634687E9, 0.0, 2022-02-27 11:12:36.634
200.0, -2409.8086249600206, -5366.6091402303155, -1470.7447851592046, -10577.963063474068, -882.4915745844335, 769.9058377630517, -5054.288214956309, -1917.6902672875246, -3347.5984153268832, -7229.604688835703, -4283.756528348509, -3218.7853120309487, -4392.654227334765, -3439.084105382455, -10224.894908058037, -13790.020500423969, 0.012, -0.1085, 0.99125, 192.0, 0.0, 0.0, 0.0, 0.0, 0.0, 0.0, 0.0, 0.0, 0.0, 1.645920756642756E9, 0.0, 2022-02-27 11:12:36.642
202.0, -3343.776267025026, -6120.421721985545, -2185.7770902844777, -11335.217813875415, -1751.7285647068697, 12.069942005865814, -5588.271389993595, -2526.2835653166253, -5414.777149531502, -8420.57268864783, -4592.635284976397, -3516.3987894533625, -4614.048256164581, -3765.9336645524104, -10712.989951728578, -15126.408949662324, 0.012, -0.1085, 0.99125, 192.0, 0.0, 0.0, 0.0, 0.0, 0.0, 0.0, 0.0, 0.0, 0.0, 1.645920756650726E9, 0.0, 2022-02-27 11:12:36.650
204.0, -2767.280074033746, -5644.262509854139, -1703.33703796113, -10814.66803725577, -1194.1195957803245, 508.9045177584312, -5133.614556028194, -1963.1537155096194, -2284.147117632284, -7202.04498792231, -4542.723839607696, -3258.9290450726803, -4722.968306895293, -3697.2914573301623, -10170.401355076, -13512.724758711429, 0.011, -0.11025, 0.990625, 192.0, 0.0, 40.0, 126.0, 64.0, 15.0, 120.0, 0.0, 0.0, 0.0, 1.645920756657447E9, 0.0, 2022-02-27 11:12:36.657
206.0, -2759.2781495187464, -5657.271225127128, -1762.8597334456126, -10911.942829125266, -1219.2429565480898, 458.05429912260763, -5360.864741905301, -2285.9129054442533, -5208.425844720107, -7906.616676642499, -4271.396013664725, -3357.701403820682, -4279.912028302197, -3442.638032750849, -10526.576402971317, -14721.551802343345, 0.011, -0.11025, 0.990625, 192.0, 0.0, 0.0, 0.0, 0.0, 0.0, 0.0, 0.0, 0.0, 0.0, 1.645920756665299E9, 0.0, 2022-02-27 11:12:36.665
208.0, -3268.3838329772752, -6045.252805382348, -2081.4391471671042, -11225.738969533322, -1657.0912786830997, 98.72765525909129, -5423.159053702242, -2286.605809522368, -3408.9092503677907, -7934.265784533714, -4773.37149064201, -3445.8119804635026, -4912.533451620752, -3949.1509138525626, -10465.131457463678, -14302.098965895053, 0.011, -0.11025, 0.990625, 192.0, 0.0, 0.0, 0.0, 0.0, 0.0, 0.0, 0.0, 0.0, 0.0, 1.645920756672405E9, 0.0, 2022-02-27 11:12:36.672
210.0, -2412.5802412724784, -5369.224294331586, -1467.5931891910063, -10587.216685678564, -887.9230484870731, 753.3208433772139, -5063.7206511164495, -1925.9827644804436, -3337.294261132987, -7235.170273205075, -4284.069452770884, -3232.598690104329, -4395.023512247028, -3445.63316650786, -10231.22045173889, -13787.2041806226, 0.011, -0.11025, 0.990625, 192.0, 0.0, 0.0, 0.0, 0.0, 0.0, 0.0, 0.0, 0.0, 0.0, 1.645920756679963E9, 0.0, 2022-02-27 11:12:36.679
212.0, -3334.924976220724, -6106.630695656621, -2175.7188052795896, -11340.58223254469, -1760.4904485333502, -3.1515959681982957, -5617.596878718959, -2538.487617789223, -5430.848053794868, -8425.177148005623, -4587.427328518311, -3517.1140452759323, -4611.366046829945, -3760.435135416405, -10721.349504154863, -15138.814167835018, 0.011, -0.11025, 0.990625, 192.0, 0.0, 0.0, 0.0, 0.0, 0.0, 0.0, 0.0, 0.0, 0.0, 1.645920756686998E9, 0.0, 2022-02-27 11:12:36.686
214.0, -2762.4297454869447, -5639.188663862785, -1697.5032326582948, -10822.826423981956, -1205.5636889414418, 488.944409959842, -5146.310346878809, -1982.3985674856388, -2276.0110826505525, -7195.875906452645, -4541.762714596119, -3259.063155539412, -4727.371600552989, -3707.9085359464334, -10181.040785436724, -13519.206764603468, 0.0115, -0.109125, 0.9903124999999999, 192.0, 0.0, 48.0, 126.0, 80.0, 15.0, 120.0, 0.0, 0.0, 0.0, 1.645920756695047E9, 0.0, 2022-02-27 11:12:36.695
216.0, -2721.1460734779926, -5618.692114197268, -1735.4117912544957, -10888.093517791453, -1213.1409303117907, 460.22241833477244, -5373.448774033639, -2285.6223327663342, -5170.427879146085, -7881.359205408002, -4260.466010626079, -3351.554674095473, -4277.408632923202, -3439.1064571269108, -10525.70468493756, -14706.95611321403, 0.0115, -0.109125, 0.9903124999999999, 192.0, 0.0, 0.0, 0.0, 0.0, 0.0, 0.0, 0.0, 0.0, 0.0, 1.645920756703115E9, 0.0, 2022-02-27 11:12:36.703
218.0, -3253.5646264034067, -6024.935069672474, -2073.280760440917, -11223.280277643238, -1677.1631452039655, 81.22623935058587, -5447.231882480608, -2316.624202325845, -3456.250245124131, -7931.203595543337, -4760.005147457737, -3427.975288388168, -4897.602486324607, -3925.167492052018, -10481.649396616149, -14337.41472213444, 0.0115, -0.109125, 0.9903124999999999, 192.0, 0.0, 0.0, 0.0, 0.0, 0.0, 0.0, 0.0, 0.0, 0.0, 1.645920756709785E9, 0.0, 2022-02-27 11:12:36.709
220.0, -2392.463671262702, -5351.141733067243, -1455.4338402073195, -10573.0456796939, -900.9988189934277, 742.8825787165855, -5056.769258590849, -1925.491026102427, -3254.3692892037975, -7190.936170928022, -4277.073356756372, -3211.878622994259, -4402.243125706092, -3449.3435560874414, -10218.2117364659, -13760.695011698606, 0.0115, -0.109125, 0.9903124999999999, 192.0, 0.0, 0.0, 0.0, 0.0, 0.0, 0.0, 0.0, 0.0, 0.0, 1.645920756718211E9, 0.0, 2022-02-27 11:12:36.718
222.0, -3312.4391212986857, -6091.409157682558, -2159.692604505134, -11324.556031770235, -1755.2601403308083, -6.057322747388214, -5607.762111158623, -2542.712097491276, -5426.176539203709, -8395.583438346797, -4571.132906810392, -3498.74091133367, -4605.599296760475, -3758.2223127153297, -10717.25913491954, -15136.333124200479, 0.0115, -0.109125, 0.9903124999999999, 192.0, 0.0, 0.0, 0.0, 0.0, 0.0, 0.0, 0.0, 0.0, 0.0, 1.645920756725669E9, 0.0, 2022-02-27 11:12:36.725
224.0, -2748.3034429911904, -5626.604631734447, -1688.4954796428062, -10816.031493667542, -1213.9455931121818, 482.90943895690907, -5154.736954538459, -1990.8698786342002, -2262.3765185328148, -7199.2957233543075, -4532.844368558451, -3251.2847484689655, -4731.46196978831, -3696.084463129576, -10176.123401656558, -13523.632410005619, 0.012750000000000001, -0.1065625, 0.99015625, 192.0, 0.0, 56.0, 126.0, 96.0, 15.0, 120.0, 0.0, 0.0, 0.0, 1.645920756739314E9, 0.0, 2022-02-27 11:12:36.739
226.0, -2710.931326261917, -5619.16150083083, -1719.7655701357808, -10887.378261968883, -1210.391665743788, 462.0552613801076, -5359.166009326698, -2304.3530946198816, -5144.321041622286, -7849.4409143258235, -4247.256129652993, -3341.1387611792998, -4272.89358054323, -3434.0549628800113, -10520.362618012741, -14706.643188791657, 0.012750000000000001, -0.1065625, 0.99015625, 192.0, 0.0, 0.0, 0.0, 0.0, 0.0, 0.0, 0.0, 0.0, 0.0, 1.645920756747332E9, 0.0, 2022-02-27 11:12:36.747
228.0, -3256.5597601604177, -6034.4792645548905, -2064.161248703152, -11222.252097398294, -1680.0465202387002, 86.63536150877017, -5434.714905585636, -2289.265667112549, -3441.4980937836285, -7917.256107003225, -4762.08385969208, -3438.8158844489917, -4907.124329462567, -3959.9915099133864, -10475.100335490744, -14333.994905232777, 0.012750000000000001, -0.1065625, 0.99015625, 192.0, 0.0, 0.0, 0.0, 0.0, 0.0, 0.0, 0.0, 0.0, 0.0, 1.645920756755245E9, 0.0, 2022-02-27 11:12:36.755
230.0, -2384.372339769881, -5347.476046976572, -1445.3084999690652, -10579.170057674653, -895.1426619461372, 752.1138491766274, -5078.76337513487, -1927.100351703209, -3276.944551103658, -7193.752490729391, -4282.951865548118, -3218.8300155198594, -4403.897154795784, -3444.582634518461, -10224.894908058037, -13773.569616504863, 0.012750000000000001, -0.1065625, 0.99015625, 192.0, 0.0, 0.0, 0.0, 0.0, 0.0, 0.0, 0.0, 0.0, 0.0, 1.645920756761838E9, 0.0, 2022-02-27 11:12:36.761
232.0, -3294.3565600343422, -6078.087517987195, -2152.3612323237935, -11325.00306665934, -1754.4778292748726, 10.974706527555767, -5627.811625935034, -2537.8617689444745, -5436.056010252954, -8404.322970428822, -4559.912331093828, -3489.219068195709, -4589.863668663939, -3745.951205009366, -10718.957867498144, -15152.00169706365, 0.012750000000000001, -0.1065625, 0.99015625, 192.0, 0.0, 0.0, 0.0, 0.0, 0.0, 0.0, 0.0, 0.0, 0.0, 1.645920756769997E9, 0.0, 2022-02-27 11:12:36.769
234.0, -2756.5959401841096, -5641.043858652575, -1697.3914739360184, -10827.609697295393, -1216.9630786136483, 484.4517093243253, -5148.411410857608, -2006.1361200971749, -2254.8886841402873, -7191.3161505837625, -4536.979441282683, -3244.1545419877225, -4737.072257646591, -3682.8745821564894, -10178.53739005773, -13536.596421789698, 0.014375, -0.10728125, 0.991078125, 192.0, 0.0, 64.0, 126.0, 80.0, 15.5, 0.0, 0.0, 0.0, 0.0, 1.645920756777888E9, 0.0, 2022-02-27 11:12:36.777
236.0, -2704.069340714138, -5618.6027072194465, -1728.7733231512696, -10874.39189844035, -1211.7327704111065, 468.80548820561035, -5379.528448525482, -2280.3920245637923, -5118.795349454325, -7848.166864891871, -4252.88876925573, -3333.51681632004, -4277.118060245283, -3412.6643434362823, -10517.769815655925, -14700.228238132982, 0.014375, -0.10728125, 0.991078125, 192.0, 0.0, 0.0, 0.0, 0.0, 0.0, 0.0, 0.0, 0.0, 0.0, 1.645920756784918E9, 0.0, 2022-02-27 11:12:36.784
238.0, -3256.649167138239, -6047.376221105603, -2078.22049596554, -11222.877946243043, -1688.0260930092447, 82.70145448463613, -5458.653623897269, -2293.5572020479685, -3475.0033587221337, -7931.024781587695, -4770.577522585097, -3431.4398087787404, -4918.54607087923, -3949.776762697311, -10498.323797979809, -14354.223233964829, 0.014375, -0.10728125, 0.991078125, 192.0, 0.0, 0.0, 0.0, 0.0, 0.0, 0.0, 0.0, 0.0, 0.0, 1.645920756791592E9, 0.0, 2022-02-27 11:12:36.791
240.0, -2383.075938591473, -5353.935701124156, -1448.6165581484506, -10572.799810504892, -888.4147868650898, 746.2576921293369, -5034.976307746924, -1930.6542790716028, -3226.094332467834, -7185.169420858553, -4277.6097986233, -3203.5414223124294, -4411.027361277028, -3445.5214077855835, -10227.64417262604, -13765.522988500952, 0.014375, -0.10728125, 0.991078125, 192.0, 0.0, 0.0, 0.0, 0.0, 0.0, 0.0, 0.0, 0.0, 0.0, 1.645920756799644E9, 0.0, 2022-02-27 11:12:36.799
242.0, -3288.2098303091325, -6083.474288400923, -2150.0813543893523, -11317.448177033446, -1754.9025124195234, 1.6093256007821086, -5615.093483339963, -2533.145550864405, -5448.237710981097, -8388.363824887732, -4560.068793305015, -3481.999454736645, -4593.507003010154, -3750.2203882003296, -10726.959792013144, -15159.422476222811, 0.014375, -0.10728125, 0.991078125, 192.0, 0.0, 0.0, 0.0, 0.0, 0.0, 0.0, 0.0, 0.0, 0.0, 1.645920756807659E9, 0.0, 2022-02-27 11:12:36.807
244.0, -2747.387021468523, -5634.807721949544, -1696.1621279909764, -10818.244316368618, -1237.325517812433, 466.65972073790084, -5171.16548671311, -1989.7299396669794, -2244.986861346586, -7193.618380262659, -4539.549891895043, -3237.9854605180576, -4743.777780983184, -3708.6014400245476, -10195.077680954657, -13547.749942272896, 0.012, -0.108, 0.988, 192.0, 0.0, 48.0, 126.0, 80.0, 15.0, 112.0, 0.0, 0.0, 0.0, 1.645920756814683E9, 0.0, 2022-02-27 11:12:36.814
246.0, -2738.3345649641237, -5652.219730880229, -1773.4097568285176, -10918.111910594931, -1272.7530327740947, 407.89698456489856, -5412.9219547417115, -2345.860284073387, -5089.4922124734185, -7821.724751201243, -4247.099667441806, -3314.7860544664927, -4283.2647899704925, -3420.5992127179165, -10526.88932739369, -14697.43427007607, 0.012, -0.108, 0.988, 192.0, 0.0, 0.0, 0.0, 0.0, 0.0, 0.0, 0.0, 0.0, 0.0, 1.645920756822195E9, 0.0, 2022-02-27 11:12:36.822
248.0, -3422.499110996617, -6210.901583540629, -2252.832323650399, -11397.042739038794, -1884.363816304662, -111.28933564297387, -5620.234384564685, -2497.3157045025473, -3665.082593570065, -8135.587946842665, -4972.3914232720645, -3634.48305541075, -5127.400771069619, -4148.05908776034, -10705.613876058325, -14579.260597140861, 0.012, -0.108, 0.988, 192.0, 0.0, 0.0, 0.0, 0.0, 0.0, 0.0, 0.0, 0.0, 0.0, 1.645920756830121E9, 0.0, 2022-02-27 11:12:36.830
250.0, -2270.5349052590022, -5240.65706022466, -1368.12792636489, -10473.491009889962, -834.5470827277998, 828.9814983584283, -5017.653705794061, -1862.5485137162823, -3156.401593256187, -7095.583629081682, -4214.399065303692, -3138.520197691941, -4366.681500277698, -3394.872354849858, -10191.859029753094, -13722.875860080227, 0.012, -0.108, 0.988, 192.0, 0.0, 0.0, 0.0, 0.0, 0.0, 0.0, 0.0, 0.0, 0.0, 1.64592075683844E9, 0.0, 2022-02-27 11:12:36.838
