%OpenBCI Raw EEG Data
%Number of channels = 16
%Sample Rate = 125 Hz
%Board = OpenBCI_GUI$BoardCytonSerialDaisy
Sample Index, EXG Channel 0, EXG Channel 1, EXG Channel 2, EXG Channel 3, EXG Channel 4, EXG Channel 5, EXG Channel 6, EXG Channel 7, EXG Channel 8, EXG Channel 9, EXG Channel 10, EXG Channel 11, EXG Channel 12, EXG Channel 13, EXG Channel 14, EXG Channel 15, Accel Channel 0, Accel Channel 1, Accel Channel 2, Other, Other, Other, Other, Other, Other, Other, Analog Channel 0, Analog Channel 1, Analog Channel 2, Timestamp, Other, Timestamp (Formatted)
132.0, -3500.1714229788095, -6428.406408835222, -1308.806396580505, -10183.320663371165, -638.6116908325781, 949.9491393505501, -5728.930917850843, -3137.246148257989, -2904.4527297559657, -7553.995556115575, -3832.586566518136, -2388.8426886609423, -4995.570182272218, -3775.880190835022, -11148.916023840431, -13302.171325942438, 0.0, 0.0, 0.0, 192.0, 0.0, 0.0, 0.0, 0.0, 0.0, 0.0, 0.0, 0.0, 0.0, 1.645920366475646E9, 0.0, 2022-02-27 11:06:06.475
134.0, -3647.9388055728446, -6456.882531271283, -1332.3651352363986, -10297.582781026696, -780.187640212493, 870.7569087453973, -5734.0047638421975, -3264.271111997499, -4985.914228667525, -8433.603755665274, -3881.939218275454, -2588.935505024851, -5011.998714446869, -3869.779869291767, -11589.29009309889, -14341.818015792134, 0.0, 0.0, 0.0, 192.0, 0.0, 0.0, 0.0, 0.0, 0.0, 0.0, 0.0, 0.0, 0.0, 1.645920366475648E9, 0.0, 2022-02-27 11:06:06.475
134.0, -1768.7829457262692, -3247.64141412275, -767.5589045952445, -5108.670009216072, -409.8415863325103, 351.3470710929717, -2789.765928955785, -1614.8017781736587, -4985.914228667525, -8433.603755665274, -3881.939218275454, -2588.935505024851, -5011.998714446869, -3869.779869291767, -11589.29009309889, -14341.818015792134, 0.0, 0.0, 0.0, 192.0, 0.0, 0.0, 0.0, 0.0, 0.0, 0.0, 0.0, 0.0, 0.0, 1.645920366561973E9, 0.0, 2022-02-27 11:06:06.561
2.0, -3528.289917503586, -6447.60655732233, -1516.9458409483245, -10232.36039070611, -815.1681202850485, 724.2635755853147, -5577.475497421682, -3346.7266972931266, -5033.925775757525, -8135.409132887022, -3891.2151922244066, -2793.7445394688298, -5071.074375042245, -4078.4334037820586, -11570.738145200987, -14389.807211137679, 0.0, 0.0, 0.0, 192.0, 0.0, 0.0, 0.0, 0.0, 0.0, 0.0, 0.0, 0.0, 0.0, 1.645920366569535E9, 0.0, 2022-02-27 11:06:06.569
4.0, -3850.7361830158457, -6635.875300869382, -1641.7356302423038, -10394.499944984907, -1073.3754722327558, 529.781047079688, -5547.635918573847, -3296.74819669106, -3455.289120112553, -7857.711059774288, -3918.104340804141, -2477.534410659601, -5096.980046865946, -4017.323734441249, -11113.488508878769, -13841.183643482167, 0.0, 0.0, 0.0, 192.0, 0.0, 0.0, 0.0, 0.0, 0.0, 0.0, 0.0, 0.0, 0.0, 1.645920366577468E9, 0.0, 2022-02-27 11:06:06.577
6.0, -3486.0451204830556, -6460.883493528783, -1520.7903409946373, -10195.748233288317, -769.6376168295881, 742.8602269721302, -5585.678587636779, -3285.393510507764, -3537.454132730262, -7568.725355711622, -3868.259950668806, -2616.3387437270576, -5058.959729547469, -3994.234382418917, -11228.93526899043, -13685.548446839864, 0.0, 0.0, 0.0, 192.0, 0.0, 0.0, 0.0, 0.0, 0.0, 0.0, 0.0, 0.0, 0.0, 1.645920366585395E9, 0.0, 2022-02-27 11:06:06.585
8.0, -3747.560530610148, -6554.134971396324, -1600.0719785776114, -10353.909177054069, -1003.213346387547, 602.6477340039891, -5593.054663307031, -3370.397194671297, -4975.9677023849135, -8317.732312408962, -3918.461968715426, -2702.6835325579086, -5093.7166921754715, -4086.3459213192373, -11498.765528054897, -14481.851694804633, 0.012, -0.106, 0.98, 192.0, 0.0, 48.0, 126.0, 88.0, 15.0, 80.0, 0.0, 0.0, 0.0, 1.645920366592112E9, 0.0, 2022-02-27 11:06:06.592
10.0, -3695.056282884632, -6574.385651872833, -1602.1283390674996, -10302.589571784685, -932.8947583311509, 625.5359203262235, -5558.476514634671, -3237.9631087736025, -2586.7003305793205, -7394.22528674904, -3885.2472764548397, -2429.232290891682, -5072.594293665206, -3942.9818323828977, -10946.49862605317, -13358.520073714266, 0.012, -0.106, 0.98, 192.0, 0.0, 0.0, 0.0, 0.0, 0.0, 0.0, 0.0, 0.0, 0.0, 1.645920366600123E9, 0.0, 2022-02-27 11:06:06.600
12.0, -3519.773902866114, -6435.782484505473, -1523.2713846291763, -10230.54989940523, -811.7035998944759, 722.8330639401751, -5588.785480116067, -3357.1202584648445, -5008.400083589564, -8114.89023147705, -3892.332779447172, -2790.8164609451846, -5067.8333720962255, -4081.2050200945164, -11556.4777322385, -14377.491399942804, 0.012, -0.106, 0.98, 192.0, 0.0, 0.0, 0.0, 0.0, 0.0, 0.0, 0.0, 0.0, 0.0, 1.645920366607979E9, 0.0, 2022-02-27 11:06:06.607
14.0, -3843.717735256879, -6626.375809475877, -1646.273034366731, -10394.164668818077, -1082.9867223485378, 523.0084685097299, -5586.2597329926175, -3305.487728773085, -3496.416329910318, -7873.625501826466, -3909.5436226777583, -2471.7006053567657, -5090.72155841846, -4009.7688448153554, -11121.132805482484, -13871.2243880301, 0.012, -0.106, 0.98, 192.0, 0.0, 0.0, 0.0, 0.0, 0.0, 0.0, 0.0, 0.0, 0.0, 1.645920366614671E9, 0.0, 2022-02-27 11:06:06.614
16.0, -3485.1510507048433, -6445.8407695103615, -1517.5940415375283, -10192.708396042395, -772.3421779086802, 740.4685903154124, -5589.456032449727, -3274.9552458471353, -3487.1627077058206, -7533.834282616888, -3863.8566570111107, -2601.0948540085383, -5054.377621934131, -3980.8009840012774, -11213.065530427162, -13671.891530977671, 0.011, -0.108, 0.98, 192.0, 0.0, 40.0, 126.0, 72.0, 15.0, 80.0, 0.0, 0.0, 0.0, 1.645920366629641E9, 0.0, 2022-02-27 11:06:06.629
18.0, -3744.878321275511, -6551.832741717428, -1594.1711180414104, -10347.360115928665, -1005.3591138552564, 592.7235594658326, -5578.347215455439, -3355.153304952777, -5007.416606833531, -8320.325114765777, -3915.5338901917808, -2698.1014249445707, -5093.046139841812, -4086.9717701639856, -11502.677083334576, -14496.045052533753, 0.011, -0.108, 0.98, 192.0, 0.0, 0.0, 0.0, 0.0, 0.0, 0.0, 0.0, 0.0, 0.0, 1.6459203666378E9, 0.0, 2022-02-27 11:06:06.637
20.0, -3700.599515509548, -6586.299131667511, -1601.1672140559215, -10302.008426428847, -944.3612032367234, 605.5087572942683, -5563.8632850484, -3244.780390832471, -2592.802356815619, -7414.744188159012, -3886.208401466418, -2425.4101425898248, -5081.669101914061, -3960.5056000358586, -10946.655088264357, -13369.539483730732, 0.011, -0.108, 0.98, 192.0, 0.0, 0.0, 0.0, 0.0, 0.0, 0.0, 0.0, 0.0, 0.0, 1.645920366644409E9, 0.0, 2022-02-27 11:06:06.644
22.0, -3516.5552516645494, -6443.627946809286, -1518.2198903822768, -10224.559631891207, -811.2118615164592, 714.8981946585411, -5603.492927967659, -3368.452592903685, -4980.505106509341, -8107.4247488289775, -3893.7632910923116, -2785.452042275911, -5070.314415730764, -4065.8493716537205, -11554.71194442653, -14371.612891151059, 0.011, -0.108, 0.98, 192.0, 0.0, 0.0, 0.0, 0.0, 0.0, 0.0, 0.0, 0.0, 0.0, 1.645920366652332E9, 0.0, 2022-02-27 11:06:06.652
24.0, -3856.8605609965994, -6640.144484060345, -1643.7472872432813, -10395.081090340746, -1084.819565393873, 519.2533754412384, -5575.821468331989, -3300.6374002262833, -3547.9147491353456, -7894.837307314552, -3914.617468669113, -2481.065986283539, -5094.5437067203175, -4006.6619523360673, -11135.683791122889, -13905.04257739098, 0.011, -0.108, 0.98, 192.0, 0.0, 0.0, 0.0, 0.0, 0.0, 0.0, 0.0, 0.0, 0.0, 1.645920366660298E9, 0.0, 2022-02-27 11:06:06.660
26.0, -3506.9663532932227, -6464.772697064006, -1530.2227771547768, -10198.430442622954, -787.2731432048254, 723.9282994184852, -5595.714520897212, -3271.088394056367, -3449.477666554173, -7537.477616963103, -3882.1627357200073, -2621.010258318217, -5059.205598736477, -3975.9283037100204, -11201.152050632483, -13656.491179047964, 0.0115, -0.107, 0.982, 192.0, 0.0, 48.0, 126.0, 88.0, 15.0, 96.0, 0.0, 0.0, 0.0, 1.645920366667707E9, 0.0, 2022-02-27 11:06:06.667
28.0, -3747.3593649100503, -6548.144703882302, -1596.2721820202091, -10343.828540304727, -996.0831399063039, 600.5019665362795, -5596.720349397701, -3349.90064500578, -5041.145389216589, -8323.052027589325, -3934.622279956613, -2723.9176897904504, -5096.2424392989205, -4082.3673108061926, -11517.004551530428, -14516.854526621644, 0.0115, -0.107, 0.982, 192.0, 0.0, 0.0, 0.0, 0.0, 0.0, 0.0, 0.0, 0.0, 0.0, 1.645920366676155E9, 0.0, 2022-02-27 11:06:06.676
30.0, -3717.83271048459, -6592.6470270928185, -1608.856214148547, -10303.79656598527, -953.4807149744887, 597.2386118458047, -5550.876921519866, -3242.031126264468, -2593.718778338287, -7416.509975970981, -3900.9829045513757, -2428.4723315802016, -5078.383395479131, -3941.573672482213, -10947.63856502039, -13376.714393700886, 0.0115, -0.107, 0.982, 192.0, 0.0, 0.0, 0.0, 0.0, 0.0, 0.0, 0.0, 0.0, 0.0, 1.645920366682212E9, 0.0, 2022-02-27 11:06:06.682
32.0, -3525.0042110686554, -6451.719278302107, -1526.601794553017, -10218.68112309946, -810.4742539494341, 721.6260697395885, -5599.357855243427, -3358.6625288322603, -4949.659699161017, -8088.157545108503, -3905.743826120356, -2796.963190670394, -5071.655520398083, -4065.1788193200614, -11558.981127617495, -14356.190187476897, 0.0115, -0.107, 0.982, 192.0, 0.0, 0.0, 0.0, 0.0, 0.0, 0.0, 0.0, 0.0, 0.0, 1.645920366689268E9, 0.0, 2022-02-27 11:06:06.689
34.0, -3861.0626889541973, -6641.7761614055835, -1646.4965518112842, -10392.085956583735, -1078.494021713021, 514.5148056167133, -5567.2383984611515, -3316.4847870450963, -3602.5200608396603, -7910.237659244259, -3929.0119920983307, -2489.202021265271, -5094.767224164871, -4010.5064523823803, -11157.230872777805, -13930.501214325574, 0.0115, -0.107, 0.982, 192.0, 0.0, 0.0, 0.0, 0.0, 0.0, 0.0, 0.0, 0.0, 0.0, 1.64592036669734E9, 0.0, 2022-02-27 11:06:06.697
36.0, -3515.214146997231, -6474.875685557805, -1532.4355998558522, -10196.3070268997, -773.1021372201607, 724.2412238408594, -5581.141183512353, -3268.719109144105, -3394.067692049467, -7519.462110932125, -3887.0801195001745, -2607.5545081561218, -5057.551569646785, -3977.2470566328834, -11193.50775402877, -13638.386266039166, 0.00975, -0.1065, 0.987, 192.0, 0.0, 32.0, 126.0, 88.0, 15.5, 0.0, 0.0, 0.0, 0.0, 1.645920366705274E9, 0.0, 2022-02-27 11:06:06.705
38.0, -3742.0620014741426, -6546.91535793726, -1596.3839407424857, -10337.011258245857, -967.7187761925193, 599.9655246693521, -5587.064395793009, -3388.1668315132656, -5070.761450619871, -8324.59429795674, -3941.9983556268644, -2732.6125183835647, -5095.705997431994, -4090.4362905545586, -11531.130854026182, -14522.665980180023, 0.00975, -0.1065, 0.987, 192.0, 0.0, 0.0, 0.0, 0.0, 0.0, 0.0, 0.0, 0.0, 0.0, 1.645920366711955E9, 0.0, 2022-02-27 11:06:06.711
40.0, -3732.8083792696452, -6596.804451561506, -1615.7629031852368, -10312.290228878288, -944.8752933591954, 596.5680595121455, -5562.276311192073, -3250.4130304352084, -2603.173566242882, -7417.135824815729, -3911.6893901454678, -2432.562700815523, -5077.154049534089, -3964.97594892692, -10954.12057091243, -13389.253722340312, 0.00975, -0.1065, 0.987, 192.0, 0.0, 0.0, 0.0, 0.0, 0.0, 0.0, 0.0, 0.0, 0.0, 1.645920366719988E9, 0.0, 2022-02-27 11:06:06.719
42.0, -3521.8749668449127, -6443.583243320375, -1528.7922655096372, -10216.892983543037, -795.9456200534845, 728.7115727319209, -5627.386942790383, -3344.4691711031405, -4926.413884927498, -8080.468545015878, -3918.7748931378, -2804.31691459619, -5077.735194889927, -4065.290578042338, -11558.198816561558, -14337.12414945652, 0.00975, -0.1065, 0.987, 192.0, 0.0, 0.0, 0.0, 0.0, 0.0, 0.0, 0.0, 0.0, 0.0, 1.645920366727962E9, 0.0, 2022-02-27 11:06:06.727
44.0, -3870.3833663920605, -6642.2455480391445, -1657.2253891498315, -10393.29295078432, -1084.2607717824903, 522.3379161760707, -5557.560093112003, -3307.7229032186156, -3664.5908551920484, -7946.246319561758, -3939.7184776924228, -2505.7646639066534, -5104.222012069466, -4029.9301183140424, -11170.284291539705, -13949.94723200169, 0.00975, -0.1065, 0.987, 192.0, 0.0, 0.0, 0.0, 0.0, 0.0, 0.0, 0.0, 0.0, 0.0, 1.645920366735085E9, 0.0, 2022-02-27 11:06:06.735
46.0, -3525.115969790932, -6484.889267073783, -1545.444315128841, -10196.977579233358, -778.5783146117109, 726.5658052642113, -5571.373471185383, -3283.6947779291604, -3365.9268457802355, -7527.911070336231, -3898.3677504501047, -2609.700275623831, -5071.029671553334, -3997.318923153749, -11187.852762681576, -13618.40380649612, 0.010875, -0.10625, 0.9875, 192.0, 0.0, 48.0, 126.0, 88.0, 15.0, 112.0, 0.0, 0.0, 0.0, 1.64592036674968E9, 0.0, 2022-02-27 11:06:06.749
48.0, -3741.7043735628577, -6555.923110952748, -1603.8494233905583, -10336.1395402121, -983.1861833555918, 613.0412951757069, -5587.444375448749, -3386.1998780011986, -5105.272544058865, -8343.101542365735, -3950.5590737532466, -2746.761172623774, -5097.58354396624, -4100.516927303902, -11541.613822175721, -14534.378294274604, 0.010875, -0.10625, 0.9875, 192.0, 0.0, 0.0, 0.0, 0.0, 0.0, 0.0, 0.0, 0.0, 0.0, 1.645920366757624E9, 0.0, 2022-02-27 11:06:06.757
50.0, -3742.330222407606, -6610.774291846072, -1621.9990398882676, -10315.642990546583, -967.8528866592511, 597.5068327792684, -5569.451221162227, -3269.6355306667724, -2607.9568395563174, -7448.160046119696, -3916.785587881278, -2435.0660961945173, -5082.451412969996, -3973.9837019424085, -10951.281899366606, -13400.094318401138, 0.010875, -0.10625, 0.9875, 192.0, 0.0, 0.0, 0.0, 0.0, 0.0, 0.0, 0.0, 0.0, 0.0, 1.645920366764824E9, 0.0, 2022-02-27 11:06:06.764
52.0, -3524.5348244350944, -6455.094391714859, -1532.0109167112014, -10220.491614400342, -793.576335141222, 724.9788314078846, -5594.976913330187, -3375.7839650850256, -4896.820175268671, -8081.1838008384475, -3922.1500065505516, -2809.994257687838, -5070.448526197497, -4090.033959154363, -11541.56911868681, -14332.184413931896, 0.010875, -0.10625, 0.9875, 192.0, 0.0, 0.0, 0.0, 0.0, 0.0, 0.0, 0.0, 0.0, 0.0, 1.645920366772272E9, 0.0, 2022-02-27 11:06:06.772
54.0, -3877.1782967064737, -6650.001603365136, -1662.500400841284, -10393.047081595312, -1079.142222302225, 525.6683260999115, -5567.1266397388745, -3312.0814933874008, -3728.4050856119497, -7969.559189028644, -3951.4978470203696, -2521.2767745586366, -5102.165651579578, -4052.572435447268, -11176.095745098084, -13984.704194629694, 0.010875, -0.10625, 0.9875, 192.0, 0.0, 0.0, 0.0, 0.0, 0.0, 0.0, 0.0, 0.0, 0.0, 1.645920366780193E9, 0.0, 2022-02-27 11:06:06.780
56.0, -3519.483330188195, -6478.049633270459, -1542.248015671732, -10195.278846654755, -778.3324454227026, 718.9885638938623, -5581.990549801654, -3281.45960348363, -3314.4731300441185, -7504.5311456359805, -3897.585439394169, -2590.6565893479096, -5066.246398239899, -3999.129414454629, -11164.584596703602, -13605.708015645507, 0.0124375, -0.106125, 0.98875, 192.0, 0.0, 56.0, 126.0, 88.0, 15.0, 120.0, 0.0, 0.0, 0.0, 1.645920366787412E9, 0.0, 2022-02-27 11:06:06.787
58.0, -3727.958050722844, -6541.595642756897, -1597.7473971542595, -10322.99671447238, -977.5758954973097, 614.7847312432208, -5595.759224386123, -3381.6624738767714, -5121.410503555597, -8333.758513183417, -3940.6348992150906, -2733.3277742061346, -5102.545631235317, -4106.9989331959405, -11539.959793086027, -14540.636782722091, 0.0124375, -0.106125, 0.98875, 192.0, 0.0, 0.0, 0.0, 0.0, 0.0, 0.0, 0.0, 0.0, 0.0, 1.645920366794924E9, 0.0, 2022-02-27 11:06:06.794
60.0, -3745.9959084982765, -6602.571201630974, -1620.4567695208514, -10305.964685197436, -967.7858314258852, 589.8401844310981, -5571.596988629936, -3265.9251410871916, -2622.485473452267, -7451.199883365618, -3918.6407826710683, -2425.4101425898248, -5089.805136895792, -3976.5318008103136, -10951.058381922054, -13403.22356262488, 0.0124375, -0.106125, 0.98875, 192.0, 0.0, 0.0, 0.0, 0.0, 0.0, 0.0, 0.0, 0.0, 0.0, 1.645920366801857E9, 0.0, 2022-02-27 11:06:06.801
62.0, -3525.0042110686554, -6451.048725968448, -1532.6144138114946, -10205.672407826472, -793.1293002521159, 734.2771571012923, -5589.947770827744, -3347.866636260347, -4859.6268724950405, -8043.2081870088805, -3920.048942571753, -2794.549202269221, -5076.595255922706, -4087.6646742421003, -11532.583717415777, -14302.702462995347, 0.0124375, -0.106125, 0.98875, 192.0, 0.0, 0.0, 0.0, 0.0, 0.0, 0.0, 0.0, 0.0, 0.0, 1.645920366809891E9, 0.0, 2022-02-27 11:06:06.809
64.0, -3870.919808258988, -6638.0210683370915, -1655.1690286599433, -10390.946017616514, -1070.3579867312892, 522.1143987315177, -5570.926436296277, -3317.311801589942, -3782.429251960427, -7984.736023513798, -3950.380259797604, -2521.0532571140834, -5104.8702126586695, -4043.810551620788, -11184.924684157932, -13992.01321506658, 0.0124375, -0.106125, 0.98875, 192.0, 0.0, 0.0, 0.0, 0.0, 0.0, 0.0, 0.0, 0.0, 0.0, 1.645920366817159E9, 0.0, 2022-02-27 11:06:06.817
66.0, -3516.957583064745, -6468.103106987847, -1535.8777685019695, -10192.440175108932, -780.5005646348674, 719.4579505274237, -5586.751471370634, -3297.5752112359064, -3268.6744056551943, -7497.803270554933, -3888.7341485898673, -2585.850964290019, -5058.7362121029155, -3999.5988010881906, -11151.285308752693, -13581.29991070031, 0.013218750000000001, -0.1060625, 0.989375, 192.0, 0.0, 56.0, 126.0, 88.0, 15.0, 120.0, 0.0, 0.0, 0.0, 1.645920366824576E9, 0.0, 2022-02-27 11:06:06.824
68.0, -3717.3856755954835, -6532.587889741408, -1590.2595627617316, -10316.04532194678, -963.0472616013601, 623.6583737919776, -5566.232569960663, -3364.0045957570787, -5147.785562012859, -8339.435856275066, -3929.883710132088, -2743.6989836333973, -5092.129718319145, -4102.394473838148, -11537.165825029115, -14541.754369944856, 0.013218750000000001, -0.1060625, 0.989375, 192.0, 0.0, 0.0, 0.0, 0.0, 0.0, 0.0, 0.0, 0.0, 0.0, 1.645920366832482E9, 0.0, 2022-02-27 11:06:06.832
70.0, -3744.0513067306647, -6599.531364385052, -1618.7356851977927, -10300.980246183903, -964.0307383573936, 596.9256874234304, -5559.52704662407, -3251.4188589356972, -2632.90138636844, -7459.492380558537, -3906.8837650875766, -2420.0233721760956, -5082.473764714452, -3973.2460943753836, -10933.601669502457, -13398.619103267087, 0.013218750000000001, -0.1060625, 0.989375, 192.0, 0.0, 0.0, 0.0, 0.0, 0.0, 0.0, 0.0, 0.0, 0.0, 1.645920366840508E9, 0.0, 2022-02-27 11:06:06.840
72.0, -3513.291896974075, -6442.040972952959, -1523.3831433514529, -10195.770585032771, -775.0690907322277, 738.2334158698817, -5597.4132534758155, -3362.7305463231264, -4827.7532849017725, -8033.2840124707245, -3912.069369801208, -2786.3237603096677, -5072.974273320946, -4073.6948339575333, -11516.266943963403, -14276.081535349076, 0.013218750000000001, -0.1060625, 0.989375, 192.0, 0.0, 0.0, 0.0, 0.0, 0.0, 0.0, 0.0, 0.0, 0.0, 1.645920366847128E9, 0.0, 2022-02-27 11:06:06.847
74.0, -3873.400851893527, -6640.345649760444, -1651.9950809472898, -10386.900351870103, -1071.8332018653396, 521.8685295425093, -5578.324863710984, -3335.550825065473, -3844.14241840153, -8001.946866744383, -3945.0605446172412, -2533.2573095866815, -5106.703055704004, -4051.2760342688603, -11195.005320907274, -14024.87027941588, 0.013218750000000001, -0.1060625, 0.989375, 192.0, 0.0, 0.0, 0.0, 0.0, 0.0, 0.0, 0.0, 0.0, 0.0, 1.645920366855175E9, 0.0, 2022-02-27 11:06:06.855
76.0, -3539.9128246203454, -6488.107918275347, -1542.538588349651, -10196.910523999992, -774.5773523542109, 717.6921627154545, -5581.923494568288, -3294.490670501074, -3247.7978763339374, -7491.991816996553, -3895.3726166930937, -2593.517612638189, -5065.262921483865, -3995.0166934748527, -11137.047247534663, -13566.72657331545, 0.015609375000000002, -0.10603125, 0.9906874999999999, 192.0, 0.0, 72.0, 126.0, 88.0, 15.5, 0.0, 0.0, 0.0, 0.0, 1.645920366863085E9, 0.0, 2022-02-27 11:06:06.863
78.0, -3733.590690325581, -6547.764724226561, -1592.047702318156, -10319.934525482002, -948.0939445607597, 621.6690685354554, -5569.33946243995, -3370.374842926841, -5196.445309692062, -8354.545635526852, -3945.194655083973, -2772.5997892141095, -5100.891602145624, -4115.6714100446, -11549.928671113095, -14555.746561973878, 0.015609375000000002, -0.10603125, 0.9906874999999999, 192.0, 0.0, 0.0, 0.0, 0.0, 0.0, 0.0, 0.0, 0.0, 0.0, 1.645920366876893E9, 0.0, 2022-02-27 11:06:06.876
80.0, -3771.655711132969, -6615.445806437231, -1626.8493684350692, -10315.397121357575, -967.1599825811365, 582.5982192275786, -5568.758317084113, -3267.5344666879737, -2672.9557124323505, -7490.985988496064, -3919.6242594271016, -2446.53254110009, -5092.576753208251, -3988.6911497940005, -10947.571509787025, -13419.070949443692, 0.015609375000000002, -0.10603125, 0.9906874999999999, 192.0, 0.0, 0.0, 0.0, 0.0, 0.0, 0.0, 0.0, 0.0, 0.0, 1.645920366884766E9, 0.0, 2022-02-27 11:06:06.884
82.0, -3523.864272101435, -6448.746496289551, -1528.8146172540926, -10197.335207144644, -777.6842448334986, 730.0526773992393, -5579.733023611668, -3341.2058164126656, -4799.679493865907, -8019.448282652889, -3912.136425034574, -2806.8873652085504, -5073.287197743321, -4080.288598571849, -11513.42827241758, -14263.609261943015, 0.015609375000000002, -0.10603125, 0.9906874999999999, 192.0, 0.0, 0.0, 0.0, 0.0, 0.0, 0.0, 0.0, 0.0, 0.0, 1.645920366892752E9, 0.0, 2022-02-27 11:06:06.892
84.0, -3888.9800177788757, -6650.046306854047, -1656.174857160432, -10381.737098900927, -1076.236495523035, 517.5322911181797, -5554.989642499643, -3344.1338949363108, -3904.715645875412, -8024.723294344341, -3949.039155130286, -2551.8763127179523, -5107.3959597821195, -4059.121496572673, -11207.902277457986, -14050.463026817206, 0.015609375000000002, -0.10603125, 0.9906874999999999, 192.0, 0.0, 0.0, 0.0, 0.0, 0.0, 0.0, 0.0, 0.0, 0.0, 1.64592036690022E9, 0.0, 2022-02-27 11:06:06.900
86.0, -3561.3257958085296, -6502.703607404663, -1553.602701855028, -10192.104898942101, -790.089463006194, 714.1605870915159, -5564.086802492953, -3249.9883472905576, -3213.130320683756, -7483.520505847991, -3905.1850325089736, -2593.1152812379937, -5068.950959318991, -4000.224649932939, -11125.78196832919, -13548.889881240117, 0.014, -0.108, 0.99, 192.0, 0.0, 56.0, 126.0, 80.0, 15.0, 120.0, 0.0, 0.0, 0.0, 1.645920366907415E9, 0.0, 2022-02-27 11:06:06.907
88.0, -3727.4439606003716, -6541.036849145514, -1590.7513011397484, -10307.439900331487, -944.6517759146424, 621.3114406241705, -5582.996378302143, -3383.2270959886428, -5208.381141231196, -8351.617557003208, -3945.485227761892, -2780.936989895939, -5098.72348293346, -4115.9172792336085, -11559.226996806503, -14554.114884628641, 0.014, -0.108, 0.99, 192.0, 0.0, 0.0, 0.0, 0.0, 0.0, 0.0, 0.0, 0.0, 0.0, 1.645920366915373E9, 0.0, 2022-02-27 11:06:06.915
90.0, -3785.200868272885, -6624.632373408363, -1630.2915370811866, -10315.844156246681, -983.0073693999493, 576.2503238022714, -5549.401706385816, -3254.3022339704316, -2675.168535133426, -7497.62445659929, -3918.7301896488893, -2447.583073089489, -5091.660331685583, -3998.235344676417, -10954.321736612528, -13433.733693806375, 0.014, -0.108, 0.99, 192.0, 0.0, 0.0, 0.0, 0.0, 0.0, 0.0, 0.0, 0.0, 0.0, 1.645920366922582E9, 0.0, 2022-02-27 11:06:06.922
92.0, -3506.2287457261978, -6433.457903082121, -1522.3996665954194, -10190.16029717449, -783.5404018807891, 743.8884072170744, -5581.8564393349225, -3334.522644820529, -4750.840932231061, -8008.3394656586015, -3905.430901697982, -2803.9145831959945, -5071.05202329779, -4088.804613209321, -11506.767452569897, -14244.364409966996, 0.014, -0.108, 0.99, 192.0, 0.0, 0.0, 0.0, 0.0, 0.0, 0.0, 0.0, 0.0, 0.0, 1.645920366929107E9, 0.0, 2022-02-27 11:06:06.929
94.0, -3880.5757618636803, -6637.015239836603, -1657.9182932279462, -10385.2016192915, -1081.332693258845, 525.4001051664478, -5545.71366855069, -3325.224319127121, -3941.1266375931073, -8036.145035761004, -3934.8010939122555, -2562.2922256341253, -5104.110253347189, -4064.932950131053, -11223.50379508779, -14070.73605903817, 0.014, -0.108, 0.99, 192.0, 0.0, 0.0, 0.0, 0.0, 0.0, 0.0, 0.0, 0.0, 0.0, 1.645920366937064E9, 0.0, 2022-02-27 11:06:06.937
96.0, -3569.014795901155, -6509.632648185808, -1562.6775101038827, -10202.811384536193, -803.5675649127442, 709.8914039005523, -5572.938093297254, -3271.1107458008228, -3170.3267300518432, -7489.667235573201, -3905.073273786697, -2592.3106184376024, -5076.125869289144, -4014.3733041731484, -11123.569145628113, -13539.882128224628, 0.012, -0.108, 0.986, 192.0, 0.0, 48.0, 126.0, 80.0, 15.0, 104.0, 0.0, 0.0, 0.0, 1.645920366945022E9, 0.0, 2022-02-27 11:06:06.945
98.0, -3720.201995396852, -6539.7627997115615, -1605.861080391536, -10309.22803988791, -949.3679939947122, 622.6078418025783, -5579.241285233651, -3380.6566453762825, -5233.526853743417, -8362.41344957512, -3954.7612017108445, -2788.6483417330196, -5103.685570202538, -4129.060104973329, -11573.934444658094, -14566.83302722371, 0.012, -0.108, 0.986, 192.0, 0.0, 0.0, 0.0, 0.0, 0.0, 0.0, 0.0, 0.0, 0.0, 1.645920366952351E9, 0.0, 2022-02-27 11:06:06.952
100.0, -3788.978313085832, -6624.006524563614, -1649.536389057206, -10321.700313293972, -986.7177589795302, 573.8810388900089, -5551.413363386794, -3251.0388792799567, -2696.8944307439842, -7520.624401643801, -3933.169416567018, -2452.34399465847, -5099.148166078111, -3999.0847109657184, -10958.277995381117, -13446.071856745704, 0.012, -0.108, 0.986, 192.0, 0.0, 0.0, 0.0, 0.0, 0.0, 0.0, 0.0, 0.0, 0.0, 1.64592036695966E9, 0.0, 2022-02-27 11:06:06.959
102.0, -3521.472635444717, -6445.393734621255, -1546.1148674625001, -10196.239971666333, -777.0136924998394, 739.9768519373956, -5588.159631271319, -3338.836531500403, -4720.442559771844, -7998.549401587177, -3924.742808907367, -2792.8281179461624, -5081.400880980597, -4087.709377731011, -11503.884077535162, -14224.33724693504, 0.012, -0.108, 0.986, 192.0, 0.0, 0.0, 0.0, 0.0, 0.0, 0.0, 0.0, 0.0, 0.0, 1.645920366967647E9, 0.0, 2022-02-27 11:06:06.967
104.0, -3881.983921764365, -6637.88695787036, -1671.1952294343985, -10388.889657126625, -1075.4988879560099, 526.137712733473, -5557.828314045467, -3335.617880298839, -4012.3616471721707, -8063.54827446321, -3958.82921920171, -2565.8685047469744, -5114.593221496728, -4072.443136268036, -11247.263699443782, -14101.402652430852, 0.012, -0.108, 0.986, 192.0, 0.0, 0.0, 0.0, 0.0, 0.0, 0.0, 0.0, 0.0, 0.0, 1.645920366975732E9, 0.0, 2022-02-27 11:06:06.975
106.0, -3567.830153445024, -6505.139947550291, -1570.1876962408658, -10204.711282814895, -799.2313264884147, 710.5396044897562, -5589.813660361012, -3270.842524867359, -3130.8311975993156, -7467.293139373439, -3910.1471197780515, -2590.9248102813735, -5072.281369242832, -4010.4393971490144, -11114.047302490151, -13525.889936195605, 0.014, -0.11, 0.986, 192.0, 0.0, 56.0, 126.0, 72.0, 15.0, 104.0, 0.0, 0.0, 0.0, 1.645920366982735E9, 0.0, 2022-02-27 11:06:06.982
108.0, -3717.9891726957767, -6538.332288066422, -1599.893164621969, -10307.663417776039, -941.4778282019888, 629.3804203725363, -5580.358872456417, -3374.644026117805, -5244.032173637411, -8357.160789628124, -3952.838951687688, -2799.0419029047375, -5098.00822711089, -4125.9532124940415, -11580.617616250232, -14573.136219160107, 0.014, -0.11, 0.986, 192.0, 0.0, 0.0, 0.0, 0.0, 0.0, 0.0, 0.0, 0.0, 0.0, 1.645920366997396E9, 0.0, 2022-02-27 11:06:06.997
110.0, -3798.611914946069, -6628.566280432497, -1638.8969586964797, -10331.244508176387, -985.8013374568627, 570.7741464107212, -5560.935206524755, -3263.712318386116, -2717.390980409501, -7532.336715738383, -3934.8681491456214, -2454.4674103817238, -5100.19869806751, -3996.804833031277, -10961.317832627039, -13465.00378429935, 0.014, -0.11, 0.986, 192.0, 0.0, 0.0, 0.0, 0.0, 0.0, 0.0, 0.0, 0.0, 0.0, 1.645920367004432E9, 0.0, 2022-02-27 11:06:07.004
112.0, -3517.7175423762255, -6451.205188179635, -1532.3238411335756, -10193.893038498527, -771.8057360417529, 742.8155234832196, -5593.814622618512, -3347.777229282526, -4673.1462685044135, -7973.560151286144, -3919.5125007048255, -2796.829080203662, -5076.349386733697, -4087.508212030913, -11495.479821619967, -14215.15067996391, 0.014, -0.11, 0.986, 192.0, 0.0, 0.0, 0.0, 0.0, 0.0, 0.0, 0.0, 0.0, 0.0, 1.645920367011823E9, 0.0, 2022-02-27 11:06:07.011
114.0, -3880.687520585957, -6641.865568383404, -1656.0407466937004, -10386.162744303077, -1067.0946320408145, 526.4059336669367, -5570.457049662716, -3316.060103900445, -4058.4956477279247, -8089.096318375626, -3958.873922690621, -2582.1182229659826, -5117.454244787007, -4079.2157148379943, -11259.221882727372, -14125.877812609413, 0.014, -0.11, 0.986, 192.0, 0.0, 0.0, 0.0, 0.0, 0.0, 0.0, 0.0, 0.0, 0.0, 1.645920367019902E9, 0.0, 2022-02-27 11:06:07.019
116.0, -3555.670804461337, -6499.663770158741, -1547.9030070189247, -10202.073776969168, -793.576335141222, 697.8438136391418, -5582.012901546109, -3267.802687621437, -3078.7516330184503, -7454.776162478467, -3897.7866050942666, -2557.531304065145, -5071.253188997887, -4000.2470016773946, -11101.686787806368, -13507.71796795344, 0.016, -0.112, 0.988, 192.0, 0.0, 64.0, 126.0, 64.0, 15.0, 112.0, 0.0, 0.0, 0.0, 1.645920367028015E9, 0.0, 2022-02-27 11:06:07.028
118.0, -3686.58497173607, -6525.591793726897, -1575.954446310335, -10298.2309816159, -931.8665780862068, 632.0849814516284, -5612.1430530718635, -3376.879200563336, -5234.197406077076, -8351.572853514297, -3930.2860415322834, -2787.351940554612, -5093.783747408837, -4125.81910202731, -11578.71771797153, -14574.7902482498, 0.016, -0.112, 0.988, 192.0, 0.0, 0.0, 0.0, 0.0, 0.0, 0.0, 0.0, 0.0, 0.0, 1.645920367034539E9, 0.0, 2022-02-27 11:06:07.034
120.0, -3796.980237600832, -6634.578899690974, -1631.789103959692, -10331.736246554405, -1003.6380295321977, 548.6235676555118, -5575.48619216516, -3264.941664331158, -2724.700000846386, -7532.53788143848, -3916.137387292074, -2441.0563637085397, -5104.53493649184, -4007.2430976919054, -10964.22355940623, -13475.95613908245, 0.016, -0.112, 0.988, 192.0, 0.0, 0.0, 0.0, 0.0, 0.0, 0.0, 0.0, 0.0, 0.0, 1.645920367042552E9, 0.0, 2022-02-27 11:06:07.042
122.0, -3502.7865770800804, -6445.460789854621, -1524.8583584855032, -10195.211791421389, -772.1186604641272, 728.4210000540019, -5616.63575370738, -3345.743220537093, -4621.446683579288, -7961.24434009127, -3909.4095122110266, -2804.4957285518326, -5085.0889188157225, -4077.315816559293, -11484.996853470428, -14190.09437442951, 0.016, -0.112, 0.988, 192.0, 0.0, 0.0, 0.0, 0.0, 0.0, 0.0, 0.0, 0.0, 0.0, 1.645920367049732E9, 0.0, 2022-02-27 11:06:07.049
124.0, -3861.3756133765714, -6621.324315228977, -1645.46837156634, -10380.932436100537, -1070.715614642574, 512.3690381490038, -5591.735910384168, -3350.839418272903, -4106.864822729209, -8104.206097627413, -3949.35207955266, -2578.9219235088735, -5117.498948275918, -4071.7502321899215, -11273.28112998976, -14155.918557157345, 0.016, -0.112, 0.988, 192.0, 0.0, 0.0, 0.0, 0.0, 0.0, 0.0, 0.0, 0.0, 0.0, 1.645920367057634E9, 0.0, 2022-02-27 11:06:07.057
126.0, -3551.3345660370073, -6485.313950218434, -1548.0147657412012, -10199.749195545817, -808.9543353264733, 690.7806623912647, -5599.983704088176, -3273.591789435362, -3026.3367922707553, -7437.341801803327, -3893.1150905031077, -2555.0502604306057, -5081.6243984251505, -3987.17123117104, -11092.276703390682, -13499.112546338147, 0.016, -0.11, 0.994, 192.0, 0.0, 64.0, 126.0, 72.0, 15.5, 8.0, 0.0, 0.0, 0.0, 1.645920367064171E9, 0.0, 2022-02-27 11:06:07.064
128.0, -3665.6413871814475, -6504.3352847499, -1569.0254055291898, -10293.090080391179, -930.2349007409694, 631.3026703956926, -5605.638695435369, -3369.5031248930845, -5230.978754875512, -8315.675951919075, -3930.6883729324786, -2781.942818396428, -5099.014055611379, -4100.181651137073, -11588.574837276321, -14569.626995280623, 0.016, -0.11, 0.994, 192.0, 0.0, 0.0, 0.0, 0.0, 0.0, 0.0, 0.0, 0.0, 0.0, 1.645920367072224E9, 0.0, 2022-02-27 11:06:07.072
130.0, -3782.630417660525, -6617.457463438209, -1632.4149528044406, -10330.685714565005, -1012.1093406807591, 545.9637100653304, -5585.1421457698525, -3267.9815015770796, -2726.7116578473638, -7544.138436810785, -3909.7671401223115, -2432.8979769823527, -5103.663218458083, -4003.2868389233163, -10971.17495193183, -13485.880313620606, 0.016, -0.11, 0.994, 192.0, 0.0, 0.0, 0.0, 0.0, 0.0, 0.0, 0.0, 0.0, 0.0, 1.645920367081696E9, 0.0, 2022-02-27 11:06:07.081
132.0, -3491.521297874606, -6430.775693747484, -1514.7106665027936, -10191.63551230854, -783.6968640919762, 722.9671744069069, -5628.839806179978, -3335.6625837877496, -4558.101839792948, -7935.517482223211, -3892.4668899139037, -2774.9690741263717, -5085.7371194049265, -4079.059252626807, -11483.4098796141, -14168.23436835222, 0.016, -0.11, 0.994, 192.0, 0.0, 0.0, 0.0, 0.0, 0.0, 0.0, 0.0, 0.0, 0.0, 1.645920367088016E9, 0.0, 2022-02-27 11:06:07.088
134.0, -3851.697308027424, -6618.083312282957, -1642.9426244428903, -10386.00628209189, -1083.7913851489288, 510.67030557040044, -5600.453090721738, -3341.362278623853, -4141.197102212561, -8112.811519242707, -3931.224814799406, -2579.5254206091668, -5118.817701198781, -4078.1651828485947, -11286.938045851952, -14173.487028299216, 0.016, -0.11, 0.994, 192.0, 0.0, 0.0, 0.0, 0.0, 0.0, 0.0, 0.0, 0.0, 0.0, 1.645920367094863E9, 0.0, 2022-02-27 11:06:07.094
136.0, -3554.1061823494656, -6496.266305001534, -1550.182884953366, -10214.434291652953, -826.2098820459703, 676.095566284128, -5603.850555878944, -3286.6005047083504, -2981.1639167265794, -7433.318487801372, -3883.973227020887, -2546.9589289377845, -5080.372700735653, -3996.603667331179, -11088.208685899817, -13487.154363054558, 0.014, -0.108, 0.992, 192.0, 0.0, 56.0, 126.0, 80.0, 15.5, 0.0, 0.0, 0.0, 0.0, 1.645920367102912E9, 0.0, 2022-02-27 11:06:07.102
138.0, -3666.110773815009, -6509.006799341059, -1561.112887992011, -10299.594438027672, -928.0667815288045, 627.0781906936396, -5618.647410708358, -3377.0356627745227, -5242.512255014451, -8336.708943451518, -3930.0848758321854, -2792.6269522460643, -5102.635038213139, -4128.635421828678, -11596.4873548135, -14582.099268686685, 0.014, -0.108, 0.992, 192.0, 0.0, 0.0, 0.0, 0.0, 0.0, 0.0, 0.0, 0.0, 0.0, 1.645920367110051E9, 0.0, 2022-02-27 11:06:07.110
140.0, -3791.012321831265, -6616.40693144881, -1629.6433364919826, -10340.676944336528, -1012.5563755698653, 547.0589455436403, -5578.280160222073, -3253.7657921035043, -2740.346221965101, -7552.810913659444, -3912.516404690314, -2431.7356862706765, -5102.657389957594, -4003.6221150901456, -10976.449963623281, -13506.041587119293, 0.014, -0.108, 0.992, 192.0, 0.0, 0.0, 0.0, 0.0, 0.0, 0.0, 0.0, 0.0, 0.0, 1.645920367124418E9, 0.0, 2022-02-27 11:06:07.124
142.0, -3482.8488210259466, -6433.971993204594, -1515.1129979029893, -10190.339111130132, -764.3626051381357, 734.2771571012923, -5612.344218771961, -3328.1971011396768, -4502.311885632502, -7911.064673789106, -3895.7749480932894, -2765.067251332671, -5079.880962357636, -4061.08845008474, -11465.595539283222, -14141.32286802803, 0.014, -0.108, 0.992, 192.0, 0.0, 0.0, 0.0, 0.0, 0.0, 0.0, 0.0, 0.0, 0.0, 1.645920367132511E9, 0.0, 2022-02-27 11:06:07.132
144.0, -3843.270700367773, -6614.372922703376, -1638.7181447408373, -10386.252151280898, -1061.3725854602558, 526.0259540111964, -5589.008997560621, -3352.6946130626934, -4181.296131765382, -8116.901888478028, -3927.939108364476, -2575.7032723073094, -5104.087901602734, -4062.5860169632456, -11296.437537245458, -14197.738671033225, 0.014, -0.108, 0.992, 192.0, 0.0, 0.0, 0.0, 0.0, 0.0, 0.0, 0.0, 0.0, 0.0, 1.645920367139747E9, 0.0, 2022-02-27 11:06:07.139
146.0, -3554.955548638767, -6504.357636494356, -1551.5463413651398, -10213.204945707912, -810.8989370940849, 695.6533426825217, -5607.940925114265, -3257.8338095943705, -2934.337012092711, -7422.343781273817, -3880.352244419127, -2530.463341529768, -5062.156029004577, -3975.2577513763613, -11073.590645026046, -13474.078592548203, 0.016, -0.10400000000000001, 0.992, 192.0, 0.0, 64.0, 126.0, 96.0, 15.5, 0.0, 0.0, 0.0, 0.0, 1.645920367147113E9, 0.0, 2022-02-27 11:06:07.147
148.0, -3654.5102184427046, -6508.224488285124, -1565.829106072081, -10291.637217001584, -909.4924818864444, 649.4075834044914, -5585.991512059154, -3364.898665535291, -5238.6454032236825, -8328.371742769688, -3919.2219280269064, -2786.703739965408, -5085.871229871658, -4099.935781948064, -11586.429069808612, -14576.55603606177, 0.016, -0.10400000000000001, 0.992, 192.0, 0.0, 0.0, 0.0, 0.0, 0.0, 0.0, 0.0, 0.0, 0.0, 1.645920367155198E9, 0.0, 2022-02-27 11:06:07.155
150.0, -3808.3796272730387, -6639.004545093125, -1637.600557518072, -10351.338726441709, -1017.2949453943903, 547.908311832942, -5564.1315059818635, -3255.2410072375546, -2769.6270072015536, -7575.542637770491, -3916.427959969993, -2437.457732851235, -5095.616590454172, -3988.445280604992, -10964.111800683952, -13519.452633792476, 0.016, -0.10400000000000001, 0.992, 192.0, 0.0, 0.0, 0.0, 0.0, 0.0, 0.0, 0.0, 0.0, 0.0, 1.645920367163175E9, 0.0, 2022-02-27 11:06:07.163
152.0, -3495.45520489874, -6453.730935303085, -1517.4152275818858, -10194.11655594308, -772.4092331420462, 738.8369129701749, -5631.320849814517, -3335.3496593653754, -4456.401402521301, -7895.597266626033, -3899.775910350789, -2762.697966420408, -5070.470877941952, -4054.0923540702292, -11444.674306473054, -14124.849632364469, 0.016, -0.10400000000000001, 0.992, 192.0, 0.0, 0.0, 0.0, 0.0, 0.0, 0.0, 0.0, 0.0, 0.0, 1.645920367169698E9, 0.0, 2022-02-27 11:06:07.169
154.0, -3877.267703684295, -6656.8635889129155, -1647.3012146116753, -10394.455241495996, -1080.5727339473647, 536.2407012272718, -5588.941942327255, -3318.6976097461716, -4244.551568573901, -8147.032040003782, -3947.765105696333, -2596.557449884111, -5117.811872698292, -4069.4256507665696, -11306.13819433906, -14212.826098540558, 0.015, -0.10700000000000001, 0.993, 192.0, 0.0, 56.0, 126.0, 72.0, 15.5, 8.0, 0.0, 0.0, 0.0, 1.645920367176817E9, 0.0, 2022-02-27 11:06:07.176
156.0, -3612.310124911085, -6564.103849423391, -1561.9846060257682, -10228.717056359894, -823.8405971337077, 693.7534444038206, -5586.43854694826, -3259.130210772778, -2913.236965326901, -7433.609060479291, -3900.804090595733, -2542.8685597024632, -5078.495154201407, -3971.6814722635118, -11058.592624496536, -13454.029077771793, 0.015, -0.10700000000000001, 0.993, 192.0, 0.0, 0.0, 0.0, 0.0, 0.0, 0.0, 0.0, 0.0, 0.0, 1.645920367184779E9, 0.0, 2022-02-27 11:06:07.184
158.0, -3730.59555656857, -6590.836535791938, -1570.5453241521507, -10295.191144369977, -907.0337899963606, 662.9303887999522, -5623.698904955257, -3383.5400204110174, -5267.166229148654, -8345.359068555721, -3947.4074777850483, -2812.7435222558406, -5100.690436445527, -4100.5392790483575, -11593.022834422927, -14572.733887759912, 0.015, -0.10700000000000001, 0.993, 192.0, 0.0, 0.0, 0.0, 0.0, 0.0, 0.0, 0.0, 0.0, 0.0, 1.645920367192757E9, 0.0, 2022-02-27 11:06:07.192
160.0, -3925.7486374078558, -6750.807970858571, -1640.3051185971642, -10358.893616067602, -1017.8313872613177, 563.8674573740312, -5579.643616633847, -3265.232237009077, -2823.22649040538, -7606.030417207529, -3942.0654108602303, -2450.6452620798664, -5100.109291089689, -3973.648425775579, -10979.288635169105, -13532.796625232295, 0.015, -0.10700000000000001, 0.993, 192.0, 0.0, 0.0, 0.0, 0.0, 0.0, 0.0, 0.0, 0.0, 0.0, 1.645920367199393E9, 0.0, 2022-02-27 11:06:07.199
162.0, -3665.462573225805, -6616.45163493772, -1529.4851695877517, -10206.410015393498, -769.5035063628562, 749.2975293752587, -5598.240268020662, -3300.659751970739, -4454.367393775868, -7908.337760965558, -3937.237434057884, -2792.068158634682, -5079.4562792129855, -4043.2741097538606, -11435.800663924298, -14092.238437204176, 0.015, -0.10700000000000001, 0.993, 192.0, 0.0, 0.0, 0.0, 0.0, 0.0, 0.0, 0.0, 0.0, 0.0, 1.645920367209039E9, 0.0, 2022-02-27 11:06:07.209
164.0, -4067.5034007434133, -6833.554128832117, -1651.5703978026388, -10401.049006110312, -1071.3191117428676, 543.683832130889, -5577.4531456772265, -3324.263194115543, -4360.668881019221, -8210.175718090024, -3997.3636266426597, -2659.4105552924343, -5122.6622012450935, -4063.703604186011, -11317.112900866618, -14235.379008695962, 0.0135, -0.10850000000000001, 0.9915, 192.0, 0.0, 48.0, 126.0, 72.0, 15.0, 120.0, 0.0, 0.0, 0.0, 1.645920367215458E9, 0.0, 2022-02-27 11:06:07.215
166.0, -3822.818854191167, -6753.020793559646, -1573.0934230200558, -10237.92597507548, -818.0961988086938, 697.4638339834016, -5594.328712740983, -3244.623928621284, -2953.53716057982, -7476.367947622293, -3957.108134878652, -2593.2717434491806, -5083.166668792566, -3964.417155315537, -11049.00372612521, -13443.18848171097, 0.0135, -0.10850000000000001, 0.9915, 192.0, 0.0, 0.0, 0.0, 0.0, 0.0, 0.0, 0.0, 0.0, 0.0, 1.645920367222031E9, 0.0, 2022-02-27 11:06:07.222
168.0, -3878.1617734625074, -6725.841072301993, -1577.8319928445808, -10289.737318722882, -893.5333363453551, 686.9808658338626, -5587.444375448749, -3350.459438617163, -5331.315735735386, -8380.361900372733, -3998.615324332157, -2863.5490374027536, -5102.232706812943, -4089.072834142785, -11593.738090245497, -14558.853454453167, 0.0135, -0.10850000000000001, 0.9915, 192.0, 0.0, 0.0, 0.0, 0.0, 0.0, 0.0, 0.0, 0.0, 0.0, 1.645920367229918E9, 0.0, 2022-02-27 11:06:07.229
170.0, -4029.6842491250336, -6840.930204502369, -1648.4858570678066, -10353.037459020312, -1018.6360500617087, 576.0715098466289, -5565.919645538288, -3246.613233877806, -2896.7190261744295, -7639.826254823954, -3976.9564839549644, -2489.0679107985393, -5103.953791136002, -3954.5376842662913, -10978.059289224064, -13535.76940724485, 0.0135, -0.10850000000000001, 0.9915, 192.0, 0.0, 0.0, 0.0, 0.0, 0.0, 0.0, 0.0, 0.0, 0.0, 1.645920367245105E9, 0.0, 2022-02-27 11:06:07.245
172.0, -3687.188468836364, -6638.848082881937, -1526.0430009416343, -10185.06409943868, -760.8086777697418, 763.4685353599233, -5609.885526881877, -3292.3449030333645, -4426.695934140198, -7890.746938079231, -3951.4754952759145, -2795.3315133251567, -5077.690491401016, -4015.6026501181905, -11427.21759405346, -14057.481474576172, 0.0135, -0.10850000000000001, 0.9915, 192.0, 0.0, 0.0, 0.0, 0.0, 0.0, 0.0, 0.0, 0.0, 0.0, 1.645920367251549E9, 0.0, 2022-02-27 11:06:07.251
174.0, -4043.0058888203966, -6809.816576220582, -1642.4285343204183, -10382.38529949013, -1070.3132832423787, 554.7702973807213, -5585.9691603146985, -3332.578043052917, -4413.597811889388, -8210.19806983448, -3991.2839521508163, -2649.6204912210096, -5119.622363999172, -4047.6550516671005, -11331.507424295834, -14247.158378023909, 0.01075, -0.10725000000000001, 0.99075, 192.0, 0.0, 32.0, 126.0, 88.0, 15.0, 120.0, 0.0, 0.0, 0.0, 1.645920367259702E9, 0.0, 2022-02-27 11:06:07.259
176.0, -3769.5099436652595, -6703.578734824507, -1558.3636234240084, -10227.2641929703, -829.0709053362496, 700.190746806949, -5591.825317361989, -3262.9523590746358, -2914.3992560385773, -7446.796589707922, -3935.806922412744, -2560.0794029330496, -5082.116136803167, -3954.0906493771854, -11039.593641709524, -13429.08453095967, 0.01075, -0.10725000000000001, 0.99075, 192.0, 0.0, 0.0, 0.0, 0.0, 0.0, 0.0, 0.0, 0.0, 0.0, 1.645920367267607E9, 0.0, 2022-02-27 11:06:07.267
178.0, -3818.5049675112928, -6674.588522265974, -1558.2071612128213, -10284.03762388678, -889.4653188544893, 687.450252467424, -5616.434588007282, -3326.967755194635, -5327.381828711251, -8364.648624020652, -3978.4093473445596, -2844.6841650824745, -5105.384302781142, -4088.514040531402, -11593.179296634115, -14550.516253771337, 0.01075, -0.10725000000000001, 0.99075, 192.0, 0.0, 0.0, 0.0, 0.0, 0.0, 0.0, 0.0, 0.0, 0.0, 1.645920367274692E9, 0.0, 2022-02-27 11:06:07.274
180.0, -3985.9865887149085, -6794.975017902258, -1638.762848229748, -10359.832389334726, -1014.4115703596557, 574.3057220346597, -5546.741848795635, -3227.9495272576246, -2921.5294625198203, -7646.665888627278, -3972.843762975188, -2478.5849426490004, -5103.059721357789, -3967.7699169838334, -10977.589902590502, -13547.057038194782, 0.01075, -0.10725000000000001, 0.99075, 192.0, 0.0, 0.0, 0.0, 0.0, 0.0, 0.0, 0.0, 0.0, 0.0, 1.645920367283364E9, 0.0, 2022-02-27 11:06:07.283
182.0, -3634.460703666294, -6582.052300221003, -1510.5979455230172, -10186.49461108382, -743.7766484947978, 778.6230181006215, -5577.542552655048, -3293.5071937450402, -4370.302482879458, -7875.346586149524, -3946.3792975401043, -2775.9078473934946, -5076.371738478153, -4010.1488244710954, -11403.524744930834, -14027.485433517151, 0.01075, -0.10725000000000001, 0.99075, 192.0, 0.0, 0.0, 0.0, 0.0, 0.0, 0.0, 0.0, 0.0, 0.0, 1.645920367290227E9, 0.0, 2022-02-27 11:06:07.290
184.0, -3978.588161300202, -6745.5553109115735, -1631.4761795373179, -10385.715709413971, -1047.760373086974, 573.3445970230815, -5561.33753792495, -3303.453720027652, -4442.006879092083, -8219.831671694717, -3973.6707775200343, -2639.1151713270156, -5103.305590546798, -4032.1429410151177, -11333.34026734117, -14262.983413098267, 0.010374999999999999, -0.107625, 0.991375, 192.0, 0.0, 40.0, 126.0, 80.0, 15.5, 0.0, 0.0, 0.0, 0.0, 1.645920367297263E9, 0.0, 2022-02-27 11:06:07.297
186.0, -3721.073713430609, -6654.226083067189, -1567.3266729505865, -10233.656791884518, -820.1078558096715, 704.6834474424658, -5564.511485637604, -3212.0127334609906, -2860.6880141124743, -7438.4370372816375, -3918.819596626711, -2540.1863503678264, -5064.3688517056535, -3942.3559835381493, -11031.479958472248, -13410.532583061766, 0.010374999999999999, -0.107625, 0.991375, 192.0, 0.0, 0.0, 0.0, 0.0, 0.0, 0.0, 0.0, 0.0, 0.0, 1.645920367304396E9, 0.0, 2022-02-27 11:06:07.304
188.0, -3764.3243389516283, -6621.816053606994, -1571.0370625301675, -10281.243655829867, -875.3390163587352, 693.4852234703569, -5584.0916137804525, -3334.7238105206266, -5296.067034729366, -8343.481522021475, -3954.940015666487, -2837.4869033678656, -5087.05587232779, -4081.7191102169886, -11601.404738593666, -14544.369524046127, 0.010374999999999999, -0.107625, 0.991375, 192.0, 0.0, 0.0, 0.0, 0.0, 0.0, 0.0, 0.0, 0.0, 0.0, 1.645920367311893E9, 0.0, 2022-02-27 11:06:07.311
190.0, -3946.155780095551, -6754.227787760233, -1654.7443455152925, -10357.485456166918, -1014.8139017598512, 579.1784023259166, -5555.101401221919, -3243.416934420697, -2940.1261139066355, -7667.229493526161, -3959.5891785131907, -2473.4440414242795, -5104.356122536197, -3968.4628210619476, -10998.868763311955, -13568.425305894054, 0.010374999999999999, -0.107625, 0.991375, 192.0, 0.0, 0.0, 0.0, 0.0, 0.0, 0.0, 0.0, 0.0, 0.0, 1.64592036732002E9, 0.0, 2022-02-27 11:06:07.320
192.0, -3601.5142323391715, -6548.234110860123, -1527.7417335202376, -10184.34884361611, -738.9933751813621, 783.7192158364315, -5585.924456825788, -3282.5771907063954, -4288.986836551051, -7842.914204944874, -3924.2510705293503, -2768.0176816007715, -5068.660386641072, -3998.615324332157, -11399.054396039772, -14001.065671570977, 0.010374999999999999, -0.107625, 0.991375, 192.0, 0.0, 0.0, 0.0, 0.0, 0.0, 0.0, 0.0, 0.0, 0.0, 1.645920367327059E9, 0.0, 2022-02-27 11:06:07.327
194.0, -3951.319033064727, -6714.732255307706, -1640.439229063896, -10383.52523845735, -1038.0373642489153, 567.8684196315312, -5565.830238560467, -3324.2855458599984, -4478.350815576412, -8221.753921717873, -3964.618321015635, -2654.00143313425, -5104.669046958572, -4042.3800399756483, -11350.81933150522, -14280.797753429146, 0.0081875, -0.11181250000000001, 0.9896875, 192.0, 0.0, 24.0, 126.0, 48.0, 15.0, 112.0, 0.0, 0.0, 0.0, 1.645920367334471E9, 0.0, 2022-02-27 11:06:07.334
196.0, -3713.854099971545, -6627.1581205318125, -1575.9767980547904, -10240.563480921208, -823.5276727113334, 699.5201944732898, -5570.457049662716, -3229.2459284360325, -2824.6570020505196, -7421.13678707323, -3919.043114071264, -2546.2883766041255, -5074.024805310346, -3936.4774747464035, -11025.512042702681, -13405.190516136947, 0.0081875, -0.11181250000000001, 0.9896875, 192.0, 0.0, 0.0, 0.0, 0.0, 0.0, 0.0, 0.0, 0.0, 0.0, 1.645920367342698E9, 0.0, 2022-02-27 11:06:07.342
198.0, -3729.589728068081, -6587.7743468015615, -1563.1245449929888, -10275.342795293665, -857.3905655611236, 703.8564328976194, -5586.43854694826, -3333.583871553406, -5291.66374107167, -8321.152129310623, -3949.910873164043, -2850.6520808520418, -5086.72059616096, -4073.828944424265, -11600.287151370901, -14533.663038452034, 0.0081875, -0.11181250000000001, 0.9896875, 192.0, 0.0, 0.0, 0.0, 0.0, 0.0, 0.0, 0.0, 0.0, 0.0, 1.645920367350525E9, 0.0, 2022-02-27 11:06:07.350
200.0, -3932.9011956335544, -6738.849787574982, -1646.8765314670243, -10364.347441714697, -1024.7827797869181, 571.2882365331932, -5539.656345803302, -3233.649222093728, -2968.959864253982, -7687.703691447222, -3943.3394602941826, -2480.462489183246, -5097.695302688516, -3976.3082833657604, -10999.360501689971, -13580.07056475527, 0.0081875, -0.11181250000000001, 0.9896875, 192.0, 0.0, 0.0, 0.0, 0.0, 0.0, 0.0, 0.0, 0.0, 0.0, 1.645920367357321E9, 0.0, 2022-02-27 11:06:07.357
202.0, -3582.448194318795, -6535.8288926874275, -1517.5716897930731, -10184.102974427102, -735.1935786239599, 779.7406053233868, -5575.48619216516, -3275.067004569412, -4247.07731569735, -7837.88506244243, -3920.2277565273953, -2771.124574080059, -5064.391203450108, -4024.6327548781346, -11384.6375208661, -13973.9977090356, 0.0081875, -0.11181250000000001, 0.9896875, 192.0, 0.0, 0.0, 0.0, 0.0, 0.0, 0.0, 0.0, 0.0, 0.0, 1.645920367372219E9, 0.0, 2022-02-27 11:06:07.372
204.0, -3919.4677972159147, -6687.910161961337, -1631.2526620927647, -10374.852761608692, -1031.4212478901445, 579.9830651263077, -5583.175192257785, -3320.329287091409, -4534.923080792794, -8239.68002077103, -3960.773820969322, -2661.221046593314, -5097.874116644159, -4050.091391812729, -11365.236206678892, -14293.49354427976, 0.009093750000000001, -0.11090625000000001, 0.98684375, 192.0, 0.0, 40.0, 126.0, 72.0, 15.0, 96.0, 0.0, 0.0, 0.0, 1.645920367380262E9, 0.0, 2022-02-27 11:06:07.380
206.0, -3689.893029915456, -6605.275762710066, -1568.5783706400837, -10238.104789031124, -835.8434839062076, 694.8263281376753, -5554.632014588358, -3222.898033010725, -2797.03024590376, -7411.816109635367, -3905.6991226314453, -2529.6363269849217, -5068.503924429885, -3942.847721916166, -11017.331304232039, -13387.689100228441, 0.009093750000000001, -0.11090625000000001, 0.98684375, 192.0, 0.0, 0.0, 0.0, 0.0, 0.0, 0.0, 0.0, 0.0, 0.0, 1.645920367388128E9, 0.0, 2022-02-27 11:06:07.388
208.0, -3676.951369875833, -6541.126256123335, -1543.2091406833101, -10255.69561191745, -855.602426004699, 706.1810143209714, -5573.586293886458, -3335.5061215765622, -5272.977682707034, -8313.776053640373, -3927.648535686557, -2832.189539931958, -5082.272599014354, -4080.1321363606617, -11598.253142625468, -14529.103282583152, 0.009093750000000001, -0.11090625000000001, 0.98684375, 192.0, 0.0, 0.0, 0.0, 0.0, 0.0, 0.0, 0.0, 0.0, 0.0, 1.645920367394936E9, 0.0, 2022-02-27 11:06:07.394
210.0, -3881.849811297633, -6685.362063093432, -1631.8338074486028, -10347.851854306682, -1024.2463379199908, 574.8645156460424, -5569.495924651137, -3245.227425721577, -2981.54389638232, -7681.75812742211, -3921.9264891059984, -2456.613177849433, -5091.749738663404, -3973.0896321641962, -11005.730748859734, -13594.152163762114, 0.009093750000000001, -0.11090625000000001, 0.98684375, 192.0, 0.0, 0.0, 0.0, 0.0, 0.0, 0.0, 0.0, 0.0, 0.0, 1.645920367402844E9, 0.0, 2022-02-27 11:06:07.402
212.0, -3533.7884466395913, -6487.727938619607, -1507.0440181546235, -10165.662785251474, -733.2713286008035, 784.9262100370181, -5575.597950887436, -3273.45767896863, -4163.079460034306, -7789.895867096886, -3890.4105294240153, -2733.752457350786, -5057.216293479954, -4011.8252053052433, -11374.06514573874, -13943.420522620741, 0.009093750000000001, -0.11090625000000001, 0.98684375, 192.0, 0.0, 0.0, 0.0, 0.0, 0.0, 0.0, 0.0, 0.0, 0.0, 1.64592036740983E9, 0.0, 2022-02-27 11:06:07.409
214.0, -3876.5747996061805, -6643.340783517455, -1617.2157665748318, -10358.223063733943, -1028.9402042556053, 590.2872193202043, -5554.542607610537, -3325.9619266941463, -4562.9074648508395, -8240.194110893503, -3941.774838182311, -2650.8274854215965, -5099.349331778209, -4056.6851564270446, -11371.449991637468, -14305.585838030082, 0.011546875000000002, -0.10645312500000001, 0.986421875, 192.0, 0.0, 56.0, 126.0, 104.0, 15.0, 104.0, 0.0, 0.0, 0.0, 1.645920367417531E9, 0.0, 2022-02-27 11:06:07.417
216.0, -3662.9144743579004, -6578.6771868082515, -1559.9505972803352, -10228.381780193065, -844.314795054769, 686.1985547779268, -5555.168456455285, -3232.7328005710606, -2754.584283183132, -7405.8481938658, -3890.6340468685685, -2508.9162598748517, -5059.9655580479575, -3948.726230707912, -11000.61219937947, -13379.396603035522, 0.011546875000000002, -0.10645312500000001, 0.986421875, 192.0, 0.0, 0.0, 0.0, 0.0, 0.0, 0.0, 0.0, 0.0, 0.0, 1.645920367424716E9, 0.0, 2022-02-27 11:06:07.424
218.0, -3663.0262330801766, -6531.202081585179, -1543.2761959166762, -10252.387553738065, -866.5324290433442, 702.6270869525775, -5598.195564531751, -3339.3729733673304, -5265.266330869953, -8302.220201756978, -3930.6660211880235, -2835.922281255994, -5089.581619451239, -4090.972732421486, -11596.57676179132, -14518.419148733516, 0.011546875000000002, -0.10645312500000001, 0.986421875, 192.0, 0.0, 0.0, 0.0, 0.0, 0.0, 0.0, 0.0, 0.0, 0.0, 1.645920367432545E9, 0.0, 2022-02-27 11:06:07.432
220.0, -3888.9353142899654, -6688.960693950737, -1639.8804354525132, -10353.95388054298, -1030.2813089229237, 558.8383148715872, -5571.0605467630085, -3256.73857411606, -3032.304708040322, -7708.110834134917, -3940.389030026082, -2477.132079259405, -5106.077206859256, -3987.2382864044057, -11015.543164675613, -13615.83335588376, 0.011546875000000002, -0.10645312500000001, 0.986421875, 192.0, 0.0, 0.0, 0.0, 0.0, 0.0, 0.0, 0.0, 0.0, 0.0, 1.645920367439641E9, 0.0, 2022-02-27 11:06:07.439
222.0, -3525.965336080234, -6492.600618910864, -1512.9895821797352, -10170.289596353721, -744.737773506376, 771.7163290639317, -5612.768901916612, -3289.9532663766468, -4117.504253089935, -7775.456640178757, -3902.189898751962, -2749.443381958411, -5063.0948022717, -4012.4287024055366, -11366.331442157203, -13924.220374133633, 0.011546875000000002, -0.10645312500000001, 0.986421875, 192.0, 0.0, 0.0, 0.0, 0.0, 0.0, 0.0, 0.0, 0.0, 0.0, 1.645920367447191E9, 0.0, 2022-02-27 11:06:07.447
224.0, -3861.777944776767, -6643.69841142874, -1621.216728832332, -10361.911101569069, -1033.1870357021137, 579.714844192844, -5586.0809190369755, -3342.703383291171, -4611.164881129847, -8255.72857328994, -3945.395820784071, -2657.28713956918, -5102.947962635513, -4047.900920856109, -11397.847401839186, -14336.475948867315, 0.012, -0.1, 0.99, 192.0, 0.0, 48.0, 126.0, 112.0, 15.0, 120.0, 0.0, 0.0, 0.0, 1.645920367455098E9, 0.0, 2022-02-27 11:06:07.455
226.0, -3663.2497505247297, -6585.852096778405, -1571.7523183527373, -10236.36135296361, -844.5830159882327, 686.9138106004966, -5579.934189311765, -3231.235233692555, -2741.1508847654923, -7412.7995863914, -3899.462985928415, -2504.0659313280503, -5072.035500053823, -3941.976003882409, -11000.70160635729, -13378.703698957408, 0.012, -0.1, 0.99, 192.0, 0.0, 0.0, 0.0, 0.0, 0.0, 0.0, 0.0, 0.0, 0.0, 1.645920367462095E9, 0.0, 2022-02-27 11:06:07.462
228.0, -3634.885386810945, -6517.522813978531, -1546.4277918848745, -10251.69464965995, -841.5878822312216, 700.7942439072424, -5609.997285604154, -3354.9744909971346, -5256.035060409911, -8291.044329529324, -3929.0343438427863, -2831.161359687014, -5078.0481193123005, -4081.0485578833295, -11595.459174568556, -14516.563953943725, 0.012, -0.1, 0.99, 192.0, 0.0, 0.0, 0.0, 0.0, 0.0, 0.0, 0.0, 0.0, 0.0, 1.645920367469749E9, 0.0, 2022-02-27 11:06:07.469
230.0, -3877.759442062312, -6678.9918159236695, -1645.8930547109908, -10362.894578325102, -1037.4562188930772, 559.1959427828721, -5573.206314230718, -3261.2089230071215, -3071.5767230482966, -7722.550061053045, -3933.772913667311, -2470.9629977897403, -5089.805136895792, -3986.523030581836, -11021.75694963419, -13649.517434777908, 0.012, -0.1, 0.99, 192.0, 0.0, 0.0, 0.0, 0.0, 0.0, 0.0, 0.0, 0.0, 0.0, 1.645920367477779E9, 0.0, 2022-02-27 11:06:07.477
232.0, -3511.5931643954714, -6474.629816368797, -1510.9108699453916, -10171.697756254407, -747.3752793521022, 775.4267186435126, -5600.922477355299, -3284.074757584901, -4066.385813520648, -7751.607328844944, -3896.6019626381353, -2728.2092247258693, -5052.075392255234, -4010.037065748819, -11350.037020449285, -13910.630513504806, 0.012, -0.1, 0.99, 192.0, 0.0, 0.0, 0.0, 0.0, 0.0, 0.0, 0.0, 0.0, 0.0, 1.645920367491874E9, 0.0, 2022-02-27 11:06:07.491
234.0, -3845.2823573687506, -6627.091065298447, -1617.4839875082955, -10356.680793366528, -1033.8128845468623, 591.9859518988076, -5565.740831582646, -3300.302124059454, -4661.769230576662, -8256.600291323697, -3940.299623048261, -2667.0548518961496, -5091.705035174494, -4059.0767930837624, -11399.34496871769, -14356.592518877093, 0.014, -0.10200000000000001, 0.992, 192.0, 0.0, 56.0, 126.0, 104.0, 15.5, 0.0, 0.0, 0.0, 0.0, 1.645920367499576E9, 0.0, 2022-02-27 11:06:07.499
236.0, -3658.3323667445625, -6573.44687860571, -1567.9972252842458, -10237.367181464098, -857.7705452168639, 684.5221739437787, -5566.076107749475, -3210.269297393477, -2723.1353787345147, -7400.729644385535, -3889.3823491790713, -2493.046521311584, -5056.657499868572, -3943.786495183289, -10987.357614917471, -13374.099239599615, 0.014, -0.10200000000000001, 0.992, 192.0, 0.0, 0.0, 0.0, 0.0, 0.0, 0.0, 0.0, 0.0, 0.0, 1.645920367507455E9, 0.0, 2022-02-27 11:06:07.507
238.0, -3623.418941905373, -6504.2458777720785, -1538.671736558883, -10241.010515810314, -842.1243240981489, 723.9282994184852, -5599.2908000100615, -3338.3447931223864, -5245.350926560274, -8266.658576328586, -3918.2831547597834, -2824.835816006162, -5065.173514506044, -4077.4946305149356, -11591.189991377592, -14504.650474149046, 0.014, -0.10200000000000001, 0.992, 192.0, 0.0, 0.0, 0.0, 0.0, 0.0, 0.0, 0.0, 0.0, 0.0, 1.645920367515318E9, 0.0, 2022-02-27 11:06:07.515
240.0, -3876.6418548395463, -6677.650711256351, -1643.7472872432813, -10366.76143011587, -1037.657384593175, 564.1356783074949, -5574.212142731207, -3259.063155539412, -3115.006162524958, -7736.117569937417, -3929.5037304763478, -2473.980483291207, -5082.473764714452, -3987.104175937674, -11023.32157174606, -13668.203493142546, 0.014, -0.10200000000000001, 0.992, 192.0, 0.0, 0.0, 0.0, 0.0, 0.0, 0.0, 0.0, 0.0, 0.0, 1.645920367521997E9, 0.0, 2022-02-27 11:06:07.521
242.0, -3513.9177458188233, -6481.625912383308, -1514.2859833581429, -10183.722994771362, -745.5424363067671, 770.2411139298814, -5600.676608166291, -3276.9221993592028, -4012.942792528009, -7739.224462416704, -3895.394968437549, -2728.611556126065, -5043.134694473111, -4013.255716950383, -11330.166319628515, -13888.882266149792, 0.014, -0.10200000000000001, 0.992, 192.0, 0.0, 0.0, 0.0, 0.0, 0.0, 0.0, 0.0, 0.0, 0.0, 1.645920367530085E9, 0.0, 2022-02-27 11:06:07.530
244.0, -3840.610842777591, -6624.207690263712, -1620.3673625430301, -10371.00826156238, -1025.922718754139, 582.7770331832211, -5579.57656140048, -3326.2301476276098, -4697.241449027235, -8280.561361379787, -3940.9254718930097, -2691.127680674515, -5078.137526290122, -4073.6054269797123, -11405.044663553796, -14376.88790284251, 0.014, -0.10400000000000001, 0.994, 192.0, 0.0, 56.0, 126.0, 96.0, 15.5, 8.0, 0.0, 0.0, 0.0, 1.645920367538109E9, 0.0, 2022-02-27 11:06:07.538
246.0, -3664.0097098362103, -6579.25833216409, -1575.306245721131, -10255.740315406361, -863.9172749420733, 673.8827435830526, -5600.833070377478, -3249.965995546102, -2691.060625441149, -7408.597458433803, -3891.2375439688617, -2505.5411464621006, -5050.108438743167, -3954.895312177576, -10981.143829958895, -13372.668727954475, 0.014, -0.10400000000000001, 0.994, 192.0, 0.0, 0.0, 0.0, 0.0, 0.0, 0.0, 0.0, 0.0, 0.0, 1.645920367545067E9, 0.0, 2022-02-27 11:06:07.545
248.0, -3615.528776112649, -6506.458700473154, -1541.4880563602517, -10253.862768872115, -852.4731817809561, 711.5901364791556, -5620.860233409433, -3341.4740373461295, -5223.647382694171, -8264.669271072064, -3921.8594338726325, -2844.1030197266364, -5063.497133671896, -4094.549011534335, -11592.464040811545, -14502.996445059354, 0.014, -0.10400000000000001, 0.994, 192.0, 0.0, 0.0, 0.0, 0.0, 0.0, 0.0, 0.0, 0.0, 0.0, 1.645920367551627E9, 0.0, 2022-02-27 11:06:07.551
250.0, -3879.726395574379, -6674.521467032608, -1650.5198658132394, -10375.411555220075, -1057.1034022692922, 554.166800280428, -5562.38806991435, -3251.9776525470797, -3150.008994341969, -7755.027145746607, -3936.7680474243225, -2486.631570652911, -5089.358102006687, -4006.684304080523, -11039.28071728715, -13687.962435241037, 0.014, -0.10400000000000001, 0.994, 192.0, 0.0, 0.0, 0.0, 0.0, 0.0, 0.0, 0.0, 0.0, 0.0, 1.645920367559676E9, 0.0, 2022-02-27 11:06:07.559
252.0, -3513.671876629815, -6471.634682611786, -1517.4375793263412, -10181.06313718118, -758.3276341352027, 769.0341197292948, -5598.977875587688, -3289.4615279986297, -3948.6368237300903, -7713.542308037557, -3901.1840702514737, -2724.7670560797524, -5051.091915499201, -4015.356780929182, -11312.039054875262, -13859.824998357893, 0.014, -0.10400000000000001, 0.994, 192.0, 0.0, 0.0, 0.0, 0.0, 0.0, 0.0, 0.0, 0.0, 0.0, 1.645920367567596E9, 0.0, 2022-02-27 11:06:07.567
254.0, -3842.0190026782757, -6619.603230905918, -1621.9319846549017, -10373.601063919195, -1042.2841956954237, 572.6740446894222, -5569.7641455846015, -3328.621784284328, -4738.279251847178, -8289.54676265082, -3954.2471115883723, -2704.739893047797, -5088.240514783921, -4075.639435725145, -11412.666608413054, -14396.266865285263, 0.014, -0.108, 0.994, 192.0, 0.0, 56.0, 126.0, 80.0, 15.5, 8.0, 0.0, 0.0, 0.0, 1.645920367574412E9, 0.0, 2022-02-27 11:06:07.574
0.0, -3682.4275472673835, -6589.249561935611, -1586.2586005042317, -10268.860789401626, -887.0960339422267, 643.8643507795753, -5559.951729768722, -3246.5014751555295, -2680.421195080423, -7420.198013806107, -3910.303581989239, -2516.0241146116396, -5062.647767382595, -3976.755318254867, -10965.45290535127, -13381.475315269867, 0.014, -0.108, 0.994, 192.0, 0.0, 0.0, 0.0, 0.0, 0.0, 0.0, 0.0, 0.0, 0.0, 1.645920367582237E9, 0.0, 2022-02-27 11:06:07.582
2.0, -3597.468566592761, -6488.085566530892, -1543.1644371943996, -10252.521664204796, -849.2992340683024, 705.0410753537507, -5592.58527667347, -3339.2835663895094, -5208.0011615754565, -8259.193093680513, -3932.0518293442524, -2854.6753948539967, -5069.330938974731, -4099.980485436975, -11584.484468041, -14498.615503146113, 0.014, -0.108, 0.994, 192.0, 0.0, 0.0, 0.0, 0.0, 0.0, 0.0, 0.0, 0.0, 0.0, 1.645920367590244E9, 0.0, 2022-02-27 11:06:07.590
4.0, -3873.0432239822417, -6671.191057108767, -1651.1233629135327, -10382.765279145871, -1062.6466348942083, 540.8675123295203, -5559.236473946152, -3252.8940740697476, -3180.4744220345524, -7760.793895816076, -3931.0236490993084, -2487.235067753204, -5081.423232725052, -4002.8621557786655, -11036.240880041229, -13714.739825098495, 0.014, -0.108, 0.994, 192.0, 0.0, 0.0, 0.0, 0.0, 0.0, 0.0, 0.0, 0.0, 0.0, 1.645920367597337E9, 0.0, 2022-02-27 11:06:07.597
6.0, -3525.5630046800384, -6495.841621856884, -1527.2052916533103, -10197.715186800384, -757.4559161014457, 751.6221107986106, -5593.501698196137, -3269.5684754334065, -3903.9780383083867, -7708.9154969353085, -3908.984829066376, -2727.583375881121, -5045.280461940821, -4018.776597830844, -11292.369519754591, -13844.625812128284, 0.014, -0.108, 0.994, 192.0, 0.0, 0.0, 0.0, 0.0, 0.0, 0.0, 0.0, 0.0, 0.0, 1.645920367604964E9, 0.0, 2022-02-27 11:06:07.604
8.0, -3848.8586364815997, -6638.289289270555, -1633.6890022383932, -10382.161782045578, -1033.209387446569, 573.3669487675368, -5591.400634217338, -3330.1417029072886, -4788.414214660432, -8312.367893739689, -3963.2548646038613, -2726.0187537692495, -5086.474726971952, -4093.09614814474, -11425.965896363961, -14422.641923742525, 0.016, -0.11, 0.992, 192.0, 0.0, 64.0, 126.0, 72.0, 15.5, 0.0, 0.0, 0.0, 0.0, 1.645920367619913E9, 0.0, 2022-02-27 11:06:07.619
10.0, -3706.5897830235704, -6609.679056367762, -1602.597725701061, -10284.350548309154, -895.0309032238607, 646.9935950033182, -5574.145087497841, -3217.0195242189798, -2676.733157245297, -7431.239775567028, -3928.0508670867525, -2530.820969441053, -5065.598197650695, -3967.92637919502, -10966.50343734067, -13377.295539056724, 0.016, -0.11, 0.992, 192.0, 0.0, 0.0, 0.0, 0.0, 0.0, 0.0, 0.0, 0.0, 0.0, 1.645920367627114E9, 0.0, 2022-02-27 11:06:07.627
12.0, -3613.8747470229564, -6515.153529066269, -1551.054602987123, -10263.205798054434, -840.4702950084562, 710.4725492563903, -5608.745587914656, -3335.170845409733, -5198.6134289042275, -8259.930701247538, -3943.138294594085, -2867.214723493424, -5067.453392440485, -4100.874555215187, -11581.288168583891, -14492.513476909815, 0.016, -0.11, 0.992, 192.0, 0.0, 0.0, 0.0, 0.0, 0.0, 0.0, 0.0, 0.0, 0.0, 1.645920367634497E9, 0.0, 2022-02-27 11:06:07.634
14.0, -3897.6748463719905, -6697.700226032762, -1663.4391741084069, -10399.909067143091, -1058.1315825142362, 537.2688814722159, -5580.045948034042, -3268.137963788267, -3235.236195950055, -7808.581925461523, -3949.8214661862216, -2512.06785584305, -5085.178325793544, -4011.4452256495033, -11049.294298803128, -13749.697953426596, 0.016, -0.11, 0.992, 192.0, 0.0, 0.0, 0.0, 0.0, 0.0, 0.0, 0.0, 0.0, 0.0, 1.645920367642529E9, 0.0, 2022-02-27 11:06:07.642
16.0, -3528.736952392692, -6503.061235315948, -1535.6542510574163, -10203.884268270049, -750.8845032315854, 752.4714770879123, -5608.410311747827, -3274.262341769021, -3846.9587382028985, -7704.288685833059, -3918.327858248694, -2736.4570184298777, -5054.489380656407, -4023.7833885888326, -11288.592074941645, -13827.102044475323, 0.016, -0.11, 0.992, 192.0, 0.0, 0.0, 0.0, 0.0, 0.0, 0.0, 0.0, 0.0, 0.0, 1.645920367650695E9, 0.0, 2022-02-27 11:06:07.650
18.0, -3836.051086908709, -6627.381637976366, -1626.916423668435, -10382.564113445773, -1027.1073612102703, 582.8440884165869, -5588.651369649336, -3338.7247727781264, -4823.752322644273, -8323.923745623082, -3960.4385448024923, -2732.165483494459, -5083.144317048111, -4090.2127731100054, -11439.443998270512, -14442.534976307748, 0.016, -0.11, 0.992, 192.0, 0.0, 64.0, 126.0, 72.0, 15.5, 0.0, 0.0, 0.0, 0.0, 1.645920367657187E9, 0.0, 2022-02-27 11:06:07.657
20.0, -3698.0290648971877, -6604.180527231757, -1593.9252488524019, -10283.32236806421, -901.9152405160953, 652.9838625173405, -5583.823392846989, -3221.0428382209348, -2652.5932732335655, -7425.271859797462, -3917.5008437038477, -2509.720922675243, -5062.558360404773, -3962.9866436703974, -10960.088486681996, -13378.413126279489, 0.016, -0.11, 0.992, 192.0, 0.0, 0.0, 0.0, 0.0, 0.0, 0.0, 0.0, 0.0, 0.0, 1.645920367665091E9, 0.0, 2022-02-27 11:06:07.665
22.0, -3600.150775927398, -6501.76483413754, -1544.371431394986, -10258.2213590409, -837.4528095069898, 710.0925696006501, -5595.8709831084, -3328.711191262149, -5168.6173878452055, -8237.86952947015, -3936.8351026576884, -2865.1807147479913, -5070.850857597692, -4085.250685840927, -11577.063688881837, -14475.14617146804, 0.016, -0.11, 0.992, 192.0, 0.0, 0.0, 0.0, 0.0, 0.0, 0.0, 0.0, 0.0, 0.0, 1.645920367672148E9, 0.0, 2022-02-27 11:06:07.672
24.0, -3880.0840234856637, -6675.907275188837, -1653.2020751478763, -10396.355139774698, -1068.8380681083283, 519.9239277748976, -5578.123698010886, -3270.8872283562696, -3285.9523041191464, -7820.718922700754, -3946.759277195845, -2513.230146554726, -5091.928552619047, -4016.094388496207, -11056.156284350907, -13769.211026336077, 0.016, -0.11, 0.992, 192.0, 0.0, 0.0, 0.0, 0.0, 0.0, 0.0, 0.0, 0.0, 0.0, 1.645920367680376E9, 0.0, 2022-02-27 11:06:07.680
26.0, -3509.7156178612254, -6481.1788774942015, -1527.8758439869696, -10202.744329302828, -772.029253486306, 732.0419826557616, -5619.854404908944, -3287.718091931116, -3783.725653138835, -7664.480228958158, -3895.953762048932, -2711.646582084487, -5053.5729591337395, -4013.456882650481, -11273.03526080075, -13807.901895988214, 0.016, -0.11, 0.992, 192.0, 0.0, 0.0, 0.0, 0.0, 0.0, 0.0, 0.0, 0.0, 0.0, 1.645920367686791E9, 0.0, 2022-02-27 11:06:07.686
28.0, -3808.692551695413, -6604.828727820961, -1624.927118411913, -10381.223008778454, -1036.338631670312, 561.3193585061263, -5613.975896117198, -3344.9832612256128, -4858.330471316633, -8307.428158215065, -3946.5581114957467, -2735.004155040283, -5090.766261907371, -4087.776432964377, -11454.620832755665, -14458.583528826659, 0.016, -0.108, 0.992, 192.0, 0.0, 64.0, 126.0, 80.0, 15.5, 0.0, 0.0, 0.0, 0.0, 1.645920367694802E9, 0.0, 2022-02-27 11:06:07.694
30.0, -3689.6695124709026, -6590.2553904361, -1604.0729408351112, -10293.000673413359, -919.4166564246007, 612.5272050532348, -5586.952637070732, -3237.2478529510327, -2639.4727992383005, -7408.016313077965, -3907.5766691656913, -2505.2952772730923, -5068.436869196519, -3975.5259723098247, -10964.22355940623, -13381.184742591948, 0.016, -0.108, 0.992, 192.0, 0.0, 0.0, 0.0, 0.0, 0.0, 0.0, 0.0, 0.0, 0.0, 1.645920367702952E9, 0.0, 2022-02-27 11:06:07.702
32.0, -3569.0371476456107, -6485.179839751701, -1540.7728005376819, -10258.668393930006, -839.8667979081629, 689.3948542350357, -5629.443303280271, -3370.2183807156543, -5149.0149079579005, -8217.931773416016, -3926.1062653191407, -2864.2419414808683, -5071.499058186896, -4082.613179995201, -11579.589436005288, -14472.665127833501, 0.016, -0.108, 0.992, 192.0, 0.0, 0.0, 0.0, 0.0, 0.0, 0.0, 0.0, 0.0, 0.0, 1.645920367709637E9, 0.0, 2022-02-27 11:06:07.709
34.0, -3869.4669448693926, -6671.459278042231, -1655.079621682122, -10401.25017181041, -1078.7398909020294, 510.2232706812943, -5597.167384286808, -3287.673388442205, -3323.9502696931686, -7827.290335570614, -3936.5221782353137, -2518.9968966241954, -5092.308532274787, -4006.8184145472546, -11077.85982821701, -13801.889276729737, 0.016, -0.108, 0.992, 192.0, 0.0, 0.0, 0.0, 0.0, 0.0, 0.0, 0.0, 0.0, 0.0, 1.645920367717444E9, 0.0, 2022-02-27 11:06:07.717
36.0, -3499.5679258785162, -6469.623025610808, -1523.249032884721, -10203.370178147576, -767.2906836617808, 725.7164389749097, -5623.564794488525, -3280.5655337054177, -3724.8064547546455, -7636.138216988828, -3895.0820440151747, -2705.8574802705625, -5049.504941642874, -4009.165347715062, -11263.222844984872, -13788.522933545462, 0.016, -0.108, 0.992, 192.0, 0.0, 0.0, 0.0, 0.0, 0.0, 0.0, 0.0, 0.0, 0.0, 1.645920367725527E9, 0.0, 2022-02-27 11:06:07.725
38.0, -3796.5332027117256, -6601.431262663754, -1609.3479525265639, -10369.600101661696, -1026.302698409879, 568.7848411541988, -5603.939962856765, -3329.359391851353, -4888.527678075752, -8312.07732106177, -3939.584367225691, -2737.060515530171, -5084.552476948796, -4090.995084165941, -11459.426457813557, -14467.121895208586, 0.01, -0.11, 0.992, 192.0, 0.0, 40.0, 126.0, 72.0, 15.5, 0.0, 0.0, 0.0, 0.0, 1.645920367739181E9, 0.0, 2022-02-27 11:06:07.739
40.0, -3701.0241986541987, -6612.763597102595, -1588.2702575052092, -10294.095908891668, -922.8141215818074, 614.0918271651062, -5588.338445226961, -3223.0768469663676, -2619.9150228399067, -7412.710179413579, -3900.0217795397975, -2488.0620822980504, -5062.536008660318, -3959.87975119111, -10946.49862605317, -13372.400507021011, 0.01, -0.11, 0.992, 192.0, 0.0, 0.0, 0.0, 0.0, 0.0, 0.0, 0.0, 0.0, 0.0, 1.645920367747186E9, 0.0, 2022-02-27 11:06:07.747
42.0, -3596.8874212369233, -6515.667619188741, -1530.3568876215086, -10253.773361894293, -839.8667979081629, 698.1120345726055, -5621.217861320718, -3342.9492524801794, -5117.521300020373, -8194.149517315569, -3924.1616635515293, -2851.3002814412453, -5067.252226740387, -4089.005778909419, -11571.743973701476, -14445.53011006476, 0.01, -0.11, 0.992, 192.0, 0.0, 0.0, 0.0, 0.0, 0.0, 0.0, 0.0, 0.0, 0.0, 1.64592036775527E9, 0.0, 2022-02-27 11:06:07.755
44.0, -3939.0926288476744, -6742.023735287636, -1657.694775783393, -10408.670950969572, -1086.1606700611915, 510.71500905931106, -5595.3568929859275, -3275.8940191142583, -3388.300941979998, -7858.605129552499, -3955.454105788959, -2528.4516845287903, -5098.164689322078, -4021.41410367657, -11087.33696786606, -13814.294494902433, 0.01, -0.11, 0.992, 192.0, 0.0, 0.0, 0.0, 0.0, 0.0, 0.0, 0.0, 0.0, 0.0, 1.645920367762387E9, 0.0, 2022-02-27 11:06:07.762
46.0, -3619.485034881239, -6597.676169595262, -1530.9156812328913, -10211.461509640398, -778.4889076338897, 725.8281976971863, -5604.878736123888, -3269.032033566479, -3703.1029108885423, -7655.494827687125, -3926.7321141638895, -2723.448303156889, -5060.770220848349, -4014.3733041731484, -11246.347277921115, -13752.603680205784, 0.011, -0.112, 0.994, 192.0, 0.0, 48.0, 126.0, 56.0, 15.5, 16.0, 0.0, 0.0, 0.0, 1.645920367769724E9, 0.0, 2022-02-27 11:06:07.769
48.0, -3954.269463332828, -6762.609691930973, -1611.471368249818, -10376.216218020465, -1021.4970733519881, 573.8139836566429, -5596.273314508595, -3338.7024210336713, -4975.297150051254, -8366.883798466182, -3989.8310887612215, -2784.4238620309666, -5108.044160371323, -4093.09614814474, -11470.870550974674, -14475.079116234676, 0.011, -0.112, 0.994, 192.0, 0.0, 0.0, 0.0, 0.0, 0.0, 0.0, 0.0, 0.0, 0.0, 1.645920367777775E9, 0.0, 2022-02-27 11:06:07.777
50.0, -3923.200538539951, -6821.595945548528, -1598.6191151880164, -10303.79656598527, -917.7849790793633, 618.875100478542, -5572.96044504171, -3213.756169528505, -2677.67193051242, -7468.09780217383, -3961.6231872586236, -2537.5041410331896, -5082.183192036533, -3959.8573994466547, -10946.02923941961, -13365.78439066224, 0.011, -0.112, 0.994, 192.0, 0.0, 0.0, 0.0, 0.0, 0.0, 0.0, 0.0, 0.0, 0.0, 1.645920367784871E9, 0.0, 2022-02-27 11:06:07.784
52.0, -3824.048200136209, -6739.542691653096, -1537.8223702695811, -10257.439047984964, -810.3624952271575, 713.7806074357758, -5600.408387232827, -3328.7558947510597, -5176.395794915652, -8235.746113746896, -3998.7494347988886, -2916.3662095506443, -5088.352273506198, -4085.5859620077567, -11563.272662552914, -14418.193926595919, 0.011, -0.112, 0.994, 192.0, 0.0, 0.0, 0.0, 0.0, 0.0, 0.0, 0.0, 0.0, 0.0, 1.645920367791378E9, 0.0, 2022-02-27 11:06:07.791
54.0, -4153.557616896345, -6942.742400496292, -1657.5383135722059, -10418.796291207826, -1063.563056416876, 522.5614336206238, -5585.857401592422, -3262.4606206966187, -3510.2073562392425, -7919.4689297043005, -4019.670667609056, -2592.6011911155215, -5110.905183661603, -4016.2061472184837, -11088.208685899817, -13832.511166633507, 0.011, -0.112, 0.994, 192.0, 0.0, 0.0, 0.0, 0.0, 0.0, 0.0, 0.0, 0.0, 0.0, 1.645920367799323E9, 0.0, 2022-02-27 11:06:07.799
56.0, -3793.783938143723, -6765.023680332146, -1530.4909980882405, -10224.604335380118, -763.8485150156636, 732.4219623115018, -5577.944884055243, -3223.6579923222057, -3722.459521586838, -7673.823258140476, -3983.997283458386, -2765.983672855338, -5076.349386733697, -4004.3373709127154, -11234.32203940416, -13717.690255366595, 0.0115, -0.111, 0.993, 192.0, 0.0, 48.0, 126.0, 72.0, 15.5, 0.0, 0.0, 0.0, 0.0, 1.645920367807567E9, 0.0, 2022-02-27 11:06:07.807
58.0, -4061.9825198629524, -6860.532684389674, -1609.2585455487426, -10391.169535061066, -1002.5427940538876, 583.2911233056931, -5568.534799639559, -3307.3429235628755, -5068.950959318991, -8394.08587146829, -4033.193473004517, -2834.022382977293, -5114.369704052175, -4093.900810945131, -11476.436135344045, -14476.24140694635, 0.0115, -0.111, 0.993, 192.0, 0.0, 0.0, 0.0, 0.0, 0.0, 0.0, 0.0, 0.0, 0.0, 1.645920367814487E9, 0.0, 2022-02-27 11:06:07.814
60.0, -3964.8194867157326, -6852.731925574771, -1601.9495251118572, -10320.94035398249, -916.4885779009555, 619.2774318787375, -5565.517314138093, -3198.3781693432534, -2714.5970123525876, -7479.7654127795, -3996.0225219753415, -2570.2494466602143, -5096.1530323211, -3969.423946073526, -10944.330506841006, -13366.343184273623, 0.0115, -0.111, 0.993, 192.0, 0.0, 0.0, 0.0, 0.0, 0.0, 0.0, 0.0, 0.0, 0.0, 1.645920367821915E9, 0.0, 2022-02-27 11:06:07.821
62.0, -3786.4525659623823, -6693.296932375066, -1525.7300765192601, -10252.298146760244, -800.6841898780096, 722.7660087068092, -5617.35100952995, -3335.819045998937, -5146.198588156532, -8203.537249986799, -3998.0118272318637, -2918.2437560848903, -5097.024750354856, -4086.748252719433, -11561.90920614114, -14401.698339187902, 0.0115, -0.111, 0.993, 192.0, 0.0, 0.0, 0.0, 0.0, 0.0, 0.0, 0.0, 0.0, 0.0, 1.64592036783008E9, 0.0, 2022-02-27 11:06:07.830
64.0, -4087.3070463308154, -6863.393707679953, -1644.9989849327785, -10410.861421926193, -1061.5066959269877, 526.3612301780261, -5574.033328775565, -3232.7551523155157, -3545.187836311798, -7912.986923812262, -4002.6162865896567, -2588.533173624656, -5114.928497663557, -4012.965144272464, -11104.324293652093, -13845.229309228578, 0.0115, -0.111, 0.993, 192.0, 0.0, 0.0, 0.0, 0.0, 0.0, 0.0, 0.0, 0.0, 0.0, 1.645920367838137E9, 0.0, 2022-02-27 11:06:07.838
66.0, -3698.856079442034, -6669.55937976353, -1517.5940415375283, -10214.948381775426, -758.7746690243089, 736.4452763134572, -5582.05760503502, -3220.528748098463, -3627.688125096336, -7628.046885496007, -3950.983756897898, -2730.4667509158553, -5079.121003046155, -4003.5997633456905, -11215.814794995165, -13684.98965322848, 0.012750000000000001, -0.1105, 0.9895, 192.0, 0.0, 56.0, 126.0, 72.0, 15.0, 104.0, 0.0, 0.0, 0.0, 1.645920367844569E9, 0.0, 2022-02-27 11:06:07.844
68.0, -3948.2568440743503, -6750.629156902928, -1594.6181529305165, -10375.590369175718, -1004.1521196546698, 582.9558471388635, -5591.065358050509, -3323.4138278262412, -5047.716802086449, -8357.585472772775, -3995.1284521971293, -2800.897097694528, -5114.749683707915, -4083.775470706877, -11485.46624010399, -14483.572779127691, 0.012750000000000001, -0.1105, 0.9895, 192.0, 0.0, 0.0, 0.0, 0.0, 0.0, 0.0, 0.0, 0.0, 0.0, 1.645920367852522E9, 0.0, 2022-02-27 11:06:07.852
70.0, -3866.3153489011943, -6745.510607422663, -1590.0583970616337, -10313.94425796798, -944.8529416147402, 604.905260193975, -5595.267486008106, -3218.1371114417448, -2661.4669157823228, -7439.308755315395, -3954.515332521836, -2522.5955274814996, -5101.338637034731, -3966.004129171864, -10949.426704576816, -13369.494780241821, 0.012750000000000001, -0.1105, 0.9895, 192.0, 0.0, 0.0, 0.0, 0.0, 0.0, 0.0, 0.0, 0.0, 0.0, 1.645920367867638E9, 0.0, 2022-02-27 11:06:07.867
72.0, -3690.854154927034, -6609.723759856673, -1514.7106665027936, -10246.26317575731, -820.6890011655095, 705.2869445427591, -5617.909803141332, -3317.8035399679593, -5073.443659954508, -8180.313787497734, -3960.1479721245737, -2888.2030115369575, -5096.108328832189, -4085.518906774391, -11566.267796309925, -14386.096821558098, 0.012750000000000001, -0.1105, 0.9895, 192.0, 0.0, 0.0, 0.0, 0.0, 0.0, 0.0, 0.0, 0.0, 0.0, 1.645920367874269E9, 0.0, 2022-02-27 11:06:07.874
74.0, -4000.872850522143, -6793.946837657313, -1633.018449904734, -10417.544593518329, -1073.7107483995853, 502.78013977767705, -5582.459936435215, -3283.091280828867, -3565.5279237661275, -7932.812921144119, -3976.196524643484, -2580.4418421318346, -5118.01303839839, -4037.708525384489, -11118.204726958838, -13882.51201898003, 0.012750000000000001, -0.1105, 0.9895, 192.0, 0.0, 0.0, 0.0, 0.0, 0.0, 0.0, 0.0, 0.0, 0.0, 1.645920367882398E9, 0.0, 2022-02-27 11:06:07.882
76.0, -3625.8105785620905, -6607.130957499857, -1509.9497449338132, -10220.335152189155, -772.1186604641272, 706.4715869988903, -5613.104178083441, -3243.416934420697, -3547.7135834352475, -7603.549373572991, -3927.1791490529954, -2715.0887507306043, -5076.237628011421, -4018.329562941738, -11202.73902448881, -13681.145153182168, 0.015375000000000002, -0.11025, 0.98975, 192.0, 0.0, 72.0, 126.0, 72.0, 15.0, 120.0, 0.0, 0.0, 0.0, 1.645920367890302E9, 0.0, 2022-02-27 11:06:07.890
78.0, -3863.4096221220047, -6680.2211618687115, -1583.6434464029608, -10366.448505693497, -1000.307619608357, 588.8567076750645, -5617.283954296584, -3339.9094152342577, -5056.746906846393, -8358.36778382871, -3976.040062432297, -2797.343170326134, -5119.220032598977, -4108.809424496821, -11501.80536530082, -14500.940084569465, 0.015375000000000002, -0.11025, 0.98975, 192.0, 0.0, 0.0, 0.0, 0.0, 0.0, 0.0, 0.0, 0.0, 0.0, 1.645920367897317E9, 0.0, 2022-02-27 11:06:07.897
80.0, -3806.390322016516, -6694.436871342286, -1583.5093359362288, -10322.035589460802, -946.7081364045306, 590.9130681649528, -5607.471538480704, -3232.7328005710606, -2635.6953544253533, -7448.09299088633, -3939.8525881591545, -2506.524623218134, -5101.472747501462, -3971.7038240079673, -10945.269280108128, -13373.808666921695, 0.015375000000000002, -0.11025, 0.98975, 192.0, 0.0, 0.0, 0.0, 0.0, 0.0, 0.0, 0.0, 0.0, 0.0, 1.645920367904912E9, 0.0, 2022-02-27 11:06:07.904
82.0, -3612.28777316663, -6541.148607867791, -1503.311276830587, -10242.463379199908, -818.6549924200765, 714.2723458137925, -5629.73387595819, -3314.093150388378, -5025.119188442134, -8136.526720109788, -3945.5969864841686, -2869.4275461944994, -5100.511622489885, -4091.4868225439577, -11557.818836905819, -14367.343707960095, 0.015375000000000002, -0.11025, 0.98975, 192.0, 0.0, 0.0, 0.0, 0.0, 0.0, 0.0, 0.0, 0.0, 0.0, 1.645920367912987E9, 0.0, 2022-02-27 11:06:07.912
84.0, -3930.9789456103977, -6724.499967634674, -1619.5850514870945, -10412.403692293608, -1076.728233901052, 506.6469915684452, -5580.671796878791, -3289.5732867209063, -3600.28488639413, -7926.800301885642, -3954.962367410942, -2559.3194436215695, -5110.525204005862, -4032.0088305483855, -11125.49139565127, -13898.873495921314, 0.015375000000000002, -0.11025, 0.98975, 192.0, 0.0, 0.0, 0.0, 0.0, 0.0, 0.0, 0.0, 0.0, 0.0, 1.645920367920001E9, 0.0, 2022-02-27 11:06:07.920
86.0, -3568.5901127565044, -6534.443084531198, -1507.2004803658106, -10207.862878783093, -777.5054308778562, 717.6474592265439, -5602.2859337670725, -3230.6093848478063, -3481.9100477588236, -7559.985823629597, -3906.414378454015, -2676.8896194564845, -5063.988872049913, -3983.5949520581908, -11185.863457425054, -13647.550481265842, 0.0156875, -0.107125, 0.9918750000000001, 192.0, 0.0, 64.0, 126.0, 96.0, 15.5, 8.0, 0.0, 0.0, 0.0, 1.645920367926536E9, 0.0, 2022-02-27 11:06:07.926
88.0, -3801.7635109142675, -6619.9385070727485, -1575.9097428214245, -10352.053982264279, -994.8090904723514, 587.9626378968522, -5610.287858282073, -3317.9823539236017, -5076.975235578446, -8340.218167331, -3954.3812220551044, -2775.773736926763, -5095.393073009619, -4098.058235413818, -11506.812156058808, -14502.191782258962, 0.0156875, -0.107125, 0.9918750000000001, 192.0, 0.0, 0.0, 0.0, 0.0, 0.0, 0.0, 0.0, 0.0, 0.0, 1.645920367934639E9, 0.0, 2022-02-27 11:06:07.934
90.0, -3777.713033880357, -6660.12694360339, -1586.571524926606, -10319.688656292994, -958.8451336437623, 584.3416552950926, -5582.705805624224, -3222.8309777773593, -2634.6224706914986, -7441.499226272014, -3923.066428073219, -2489.6043526654666, -5085.603008938195, -3961.3102628362494, -10944.799893474566, -13371.21586456488, 0.0156875, -0.107125, 0.9918750000000001, 192.0, 0.0, 0.0, 0.0, 0.0, 0.0, 0.0, 0.0, 0.0, 0.0, 1.645920367942461E9, 0.0, 2022-02-27 11:06:07.942
92.0, -3589.6231042889485, -6517.455758745165, -1506.2393553542324, -10240.496425687841, -817.090370308205, 706.0692555986948, -5625.68821021178, -3296.837603668881, -4993.446766548964, -8127.004876971827, -3936.7903991687776, -2865.09130777017, -5087.882886872636, -4083.864877684698, -11548.878139123695, -14344.969611760333, 0.0156875, -0.107125, 0.9918750000000001, 192.0, 0.0, 0.0, 0.0, 0.0, 0.0, 0.0, 0.0, 0.0, 0.0, 1.645920367949701E9, 0.0, 2022-02-27 11:06:07.949
94.0, -3914.617468669113, -6695.353292864954, -1625.7988364456698, -10410.526145759362, -1085.7806904054512, 501.2378694102609, -5596.63094241988, -3278.285655770976, -3662.445087724339, -7952.14718009796, -3962.4949052923807, -2564.7956210131197, -5112.223936584465, -4034.378115460648, -11150.815922119133, -13926.679066023717, 0.0156875, -0.107125, 0.9918750000000001, 192.0, 0.0, 0.0, 0.0, 0.0, 0.0, 0.0, 0.0, 0.0, 0.0, 1.645920367957179E9, 0.0, 2022-02-27 11:06:07.957
96.0, -3545.903092134368, -6510.213793541646, -1509.5474135336178, -10210.25451543981, -788.0107507718504, 716.5745754926892, -5621.575489232003, -3219.0982364533234, -3432.0880093679443, -7548.4970269795695, -3908.4930906883587, -2661.0422326376715, -5069.554456419284, -3990.032254461319, -11190.6914342274, -13634.430007270576, 0.01684375, -0.1075625, 0.9929375, 192.0, 0.0, 72.0, 126.0, 80.0, 15.5, 8.0, 0.0, 0.0, 0.0, 1.645920367965173E9, 0.0, 2022-02-27 11:06:07.965
98.0, -3775.164935012452, -6590.434204391743, -1574.4345276873742, -10354.602081132183, -993.535041038399, 590.6895507203998, -5587.332616726472, -3327.101865661367, -5104.5796399807505, -8345.157902855624, -3953.4424487879814, -2781.696949207419, -5107.194794082021, -4096.00187492393, -11529.722694125498, -14516.183974287984, 0.01684375, -0.1075625, 0.9929375, 192.0, 0.0, 0.0, 0.0, 0.0, 0.0, 0.0, 0.0, 0.0, 0.0, 1.645920367973196E9, 0.0, 2022-02-27 11:06:07.973
100.0, -3759.630472616014, -6636.031763080569, -1589.8348796170808, -10324.091949950689, -961.5049912339439, 589.5943152420897, -5587.042044048553, -3202.7367595120386, -2630.174473544893, -7457.838351468844, -3921.8594338726325, -2484.3740444629248, -5087.502907216895, -3963.5007337928696, -10950.87956796641, -13379.55306524671, 0.01684375, -0.1075625, 0.9929375, 192.0, 0.0, 0.0, 0.0, 0.0, 0.0, 0.0, 0.0, 0.0, 0.0, 1.645920367986883E9, 0.0, 2022-02-27 11:06:07.986
102.0, -3556.028432372622, -6485.269246729523, -1505.769968720671, -10238.30595473122, -815.2575272628698, 712.417151024002, -5616.63575370738, -3306.292391573476, -4943.378858969076, -8107.089472662148, -3927.4697217309144, -2852.350813430645, -5082.67493041455, -4078.634569482156, -11552.700287425552, -14328.45167260786, 0.01684375, -0.1075625, 0.9929375, 192.0, 0.0, 0.0, 0.0, 0.0, 0.0, 0.0, 0.0, 0.0, 0.0, 1.645920367994897E9, 0.0, 2022-02-27 11:06:07.994
104.0, -3892.1539654915296, -6673.023900154102, -1625.0388771341893, -10413.856555683204, -1101.136338846247, 508.09985495804017, -5599.357855243427, -3271.1778010341886, -3701.851213199045, -7968.665119250431, -3955.16353311104, -2560.4370308443345, -5111.083997617245, -4037.909691084587, -11175.872227653532, -13950.95306050218, 0.01684375, -0.1075625, 0.9929375, 192.0, 0.0, 0.0, 0.0, 0.0, 0.0, 0.0, 0.0, 0.0, 0.0, 1.645920368002768E9, 0.0, 2022-02-27 11:06:08.002
106.0, -3538.437609486295, -6508.38095049631, -1506.217003609777, -10219.552841133218, -795.8562130756633, 707.4327120104685, -5624.8835474113885, -3240.198283219133, -3375.0463575180006, -7545.524244967013, -3907.397855210049, -2653.28617731168, -5070.672043642049, -3999.8893737661097, -11185.93051265842, -13615.02869308337, 0.016421875000000002, -0.10678125, 0.99446875, 192.0, 0.0, 64.0, 126.0, 88.0, 15.5, 16.0, 0.0, 0.0, 0.0, 1.645920368009397E9, 0.0, 2022-02-27 11:06:08.009
108.0, -3756.6800423479135, -6580.197105431213, -1567.4831351617736, -10353.372735187142, -989.6011340142649, 596.2998385786818, -5622.469559010215, -3322.6985720036714, -5128.183082125554, -8370.70594676804, -3956.4152308005373, -2786.4578707764, -5106.479538259451, -4105.523718061891, -11541.971450087005, -14532.009009362342, 0.016421875000000002, -0.10678125, 0.99446875, 192.0, 0.0, 0.0, 0.0, 0.0, 0.0, 0.0, 0.0, 0.0, 0.0, 1.645920368017465E9, 0.0, 2022-02-27 11:06:08.017
110.0, -3759.7422313382904, -6629.54975718853, -1585.6103999150278, -10328.182319186011, -971.4291657721003, 588.4320245304137, -5594.865154607911, -3198.758148998994, -2642.2444155507583, -7478.692529045646, -3929.839006643177, -2476.2827129701036, -5095.393073009619, -3969.222780373428, -10958.099181425474, -13387.59969325062, 0.016421875000000002, -0.10678125, 0.99446875, 192.0, 0.0, 0.0, 0.0, 0.0, 0.0, 0.0, 0.0, 0.0, 0.0, 1.645920368025392E9, 0.0, 2022-02-27 11:06:08.025
112.0, -3531.642679171882, -6469.935950033182, -1489.252029568199, -10227.375951692577, -800.0359892888057, 731.416133811013, -5630.717352714223, -3304.303086316954, -4898.96594273638, -8083.731899706352, -3927.7602944088335, -2842.828970292684, -5080.5738664357505, -4069.0233193663744, -11543.960755343529, -14304.065919407121, 0.016421875000000002, -0.10678125, 0.99446875, 192.0, 0.0, 0.0, 0.0, 0.0, 0.0, 0.0, 0.0, 0.0, 0.0, 1.645920368032026E9, 0.0, 2022-02-27 11:06:08.032
114.0, -3881.1569072195184, -6663.166780849312, -1613.6618392064381, -10407.195735835521, -1090.6980741856187, 515.4088753949255, -5607.180965802785, -3282.9571703621355, -3744.1630654529413, -7983.4843258243, -3954.1800563550064, -2555.586702297533, -5103.976142880457, -4032.120589270662, -11183.471820768336, -13970.71200260067, 0.016421875000000002, -0.10678125, 0.99446875, 192.0, 0.0, 0.0, 0.0, 0.0, 0.0, 0.0, 0.0, 0.0, 0.0, 1.645920368039107E9, 0.0, 2022-02-27 11:06:08.039
116.0, -3545.7242781787254, -6508.917392363238, -1502.3054483300982, -10216.513003887298, -794.1798322415152, 715.5016917588343, -5613.305343783539, -3210.7610357714934, -3321.7374469920933, -7534.951869839653, -3913.0528465572415, -2642.3338225285797, -5068.079241285234, -3990.2110684169616, -11167.870303138532, -13589.234779981945, 0.014, -0.106, 0.992, 192.0, 0.0, 56.0, 126.0, 88.0, 15.5, 0.0, 0.0, 0.0, 0.0, 1.645920368047139E9, 0.0, 2022-02-27 11:06:08.047
118.0, -3744.6101003420476, -6566.361375613377, -1558.5647891241063, -10343.85089204918, -974.2678373179242, 616.0811324216286, -5614.087654839475, -3306.158281106744, -5149.417239358097, -8370.929464212593, -3964.663024504546, -2793.476318535366, -5106.4571865149965, -4103.556764549824, -11542.597298931754, -14523.381236002593, 0.014, -0.106, 0.992, 192.0, 0.0, 0.0, 0.0, 0.0, 0.0, 0.0, 0.0, 0.0, 0.0, 1.645920368055029E9, 0.0, 2022-02-27 11:06:08.055
120.0, -3751.986176012299, -6616.697504126729, -1587.7561673827372, -10327.981153485913, -963.3154825348238, 597.7079984793662, -5587.980817315676, -3194.578372785851, -2634.9800986027835, -7481.1065174468185, -3927.2462042863617, -2471.007701278651, -5091.235648540932, -3965.5123907938473, -10950.20901563275, -13388.046728139727, 0.014, -0.106, 0.992, 192.0, 0.0, 0.0, 0.0, 0.0, 0.0, 0.0, 0.0, 0.0, 0.0, 1.645920368061726E9, 0.0, 2022-02-27 11:06:08.061
122.0, -3531.0615338160437, -6467.097278487358, -1487.5980004785063, -10228.381780193065, -787.3849019271019, 741.7426397493649, -5610.310210026528, -3277.4809929705852, -4855.469448026353, -8073.092469345626, -3924.9886780963757, -2843.454819137433, -5076.617607667161, -4063.3012727858154, -11529.968563314505, -14282.787058685668, 0.014, -0.106, 0.992, 192.0, 0.0, 0.0, 0.0, 0.0, 0.0, 0.0, 0.0, 0.0, 0.0, 1.64592036806984E9, 0.0, 2022-02-27 11:06:08.069
124.0, -3891.3493026911383, -6669.000586152147, -1618.1768915864102, -10408.313323058286, -1068.7710128749625, 529.490474401769, -5589.679549894279, -3254.972786304091, -3818.169691344463, -8022.622230365543, -3962.0255186588192, -2579.659531075899, -5110.480500516952, -4041.41891496407, -11189.417384793447, -13990.649758654805, 0.014, -0.106, 0.992, 192.0, 0.0, 0.0, 0.0, 0.0, 0.0, 0.0, 0.0, 0.0, 0.0, 1.645920368077632E9, 0.0, 2022-02-27 11:06:08.077
126.0, -3540.024583342622, -6493.159412522246, -1508.6086402664948, -10210.701550328917, -780.0758814902165, 730.3656018216136, -5608.432663492282, -3211.073960193868, -3276.229295281088, -7524.826529601399, -3907.643724399057, -2633.8625113800185, -5062.066622026757, -3985.137222425607, -11150.279480252204, -13562.747962802407, 0.01, -0.10400000000000001, 0.99, 192.0, 0.0, 40.0, 126.0, 96.0, 15.0, 120.0, 0.0, 0.0, 0.0, 1.645920368084707E9, 0.0, 2022-02-27 11:06:08.084
128.0, -3735.2223676708186, -6550.178712627735, -1561.470515903296, -10336.117188467644, -960.2756452889021, 630.5650628286676, -5607.672704180802, -3299.519813003518, -5169.265588434409, -8367.979033944492, -3958.5386465237916, -2796.4714522923773, -5095.750700920904, -4080.3780055496704, -11550.353354257746, -14528.700951182956, 0.01, -0.10400000000000001, 0.99, 192.0, 0.0, 0.0, 0.0, 0.0, 0.0, 0.0, 0.0, 0.0, 0.0, 1.64592036809247E9, 0.0, 2022-02-27 11:06:08.092
130.0, -3767.341824453095, -6622.352495473921, -1594.5510976971505, -10333.032647732813, -953.2348457854803, 597.0597978901623, -5591.378282472883, -3184.3859773142312, -2655.1413721014706, -7504.665256102712, -3932.9235473780095, -2479.724881616221, -5084.597180437706, -3954.895312177576, -10951.281899366606, -13396.138059632547, 0.01, -0.10400000000000001, 0.99, 192.0, 0.0, 0.0, 0.0, 0.0, 0.0, 0.0, 0.0, 0.0, 0.0, 1.645920368100318E9, 0.0, 2022-02-27 11:06:08.100
132.0, -3519.9974203106667, -6452.3227754024, -1495.9352011603357, -10219.195213221934, -772.4986401198674, 748.805790997242, -5638.026373151109, -3281.9960453505573, -4818.164386530446, -8051.388925479523, -3921.8370821281774, -2832.055429465226, -5065.285273228321, -4049.42083947907, -11525.207641745525, -14255.853206617023, 0.01, -0.10400000000000001, 0.99, 192.0, 0.0, 0.0, 0.0, 0.0, 0.0, 0.0, 0.0, 0.0, 0.0, 1.645920368114449E9, 0.0, 2022-02-27 11:06:08.114
134.0, -3878.0276629957752, -6649.532216731574, -1625.888243423491, -10409.386206792142, -1062.3337104718341, 537.5371024056795, -5608.477366981193, -3262.7958968634484, -3868.2152471798954, -8038.089637528616, -3954.135352866096, -2576.2844176631475, -5104.959619636491, -4028.2090339909837, -11211.120928659551, -14013.046206599023, 0.01, -0.10400000000000001, 0.99, 192.0, 0.0, 0.0, 0.0, 0.0, 0.0, 0.0, 0.0, 0.0, 0.0, 1.645920368122133E9, 0.0, 2022-02-27 11:06:08.122
136.0, -3533.564929195038, -6491.371272965822, -1509.1674338778776, -10217.675294598972, -758.8640760021301, 724.1071133741276, -5615.518166484615, -3214.8514050068147, -3227.6589545797056, -7512.890698062265, -3899.5970963951468, -2624.4747787087895, -5052.969462033447, -3974.475440320425, -11146.01029706124, -13549.4486748515, 0.012, -0.108, 0.988, 192.0, 0.0, 48.0, 126.0, 80.0, 15.0, 112.0, 0.0, 0.0, 0.0, 1.645920368130018E9, 0.0, 2022-02-27 11:06:08.130
138.0, -3710.702504003347, -6539.136950866813, -1556.888408289958, -10338.62058384664, -930.793694352352, 621.713772024366, -5611.226631549195, -3309.421635797219, -5184.487126408473, -8376.472696837509, -3949.1732655970177, -2809.994257687838, -5083.636055426127, -4098.52762204738, -11553.5273019704, -14533.238355307383, 0.012, -0.108, 0.988, 192.0, 0.0, 0.0, 0.0, 0.0, 0.0, 0.0, 0.0, 0.0, 0.0, 1.645920368136987E9, 0.0, 2022-02-27 11:06:08.136
140.0, -3758.6469958599805, -6618.418588449787, -1594.4840424637846, -10337.055961734768, -958.1298778211925, 586.9344576519081, -5614.06530309502, -3182.4190238021642, -2671.7040147428534, -7513.382436440282, -3928.229681042395, -2480.462489183246, -5079.188058279522, -3971.815582730244, -10956.042820935587, -13406.08458591516, 0.012, -0.108, 0.988, 192.0, 0.0, 0.0, 0.0, 0.0, 0.0, 0.0, 0.0, 0.0, 0.0, 1.645920368144707E9, 0.0, 2022-02-27 11:06:08.144
142.0, -3511.2578882286416, -6452.434534124677, -1493.029474381146, -10220.335152189155, -760.0934219471719, 751.5327038207894, -5649.112838400941, -3267.6015219213396, -4780.99343550127, -8040.950660818895, -3919.445445471459, -2834.000031232838, -5059.7867440923155, -4064.6870809420448, -11520.200850987536, -14232.853261572513, 0.012, -0.108, 0.988, 192.0, 0.0, 0.0, 0.0, 0.0, 0.0, 0.0, 0.0, 0.0, 0.0, 1.645920368152671E9, 0.0, 2022-02-27 11:06:08.152
144.0, -3873.490258871348, -6649.778085920583, -1631.9008626819686, -10416.650523740116, -1059.7409081150186, 529.1328464904841, -5613.886489139377, -3268.450888210641, -3926.843872886166, -8066.766925664774, -3956.549341267269, -2590.388368414446, -5096.287142787832, -4048.0126795783854, -11227.325943389647, -14039.130692378367, 0.012, -0.108, 0.988, 192.0, 0.0, 0.0, 0.0, 0.0, 0.0, 0.0, 0.0, 0.0, 0.0, 1.645920368160581E9, 0.0, 2022-02-27 11:06:08.160
146.0, -3551.0439933590883, -6511.376084253322, -1537.6882598028494, -10231.64513488354, -780.5676198682332, 708.3491335331361, -5628.705695713245, -3212.839748005837, -3197.193526887122, -7521.518471422014, -3906.704951131934, -2629.23570027777, -5060.837276081715, -3989.138184683107, -11146.479683694803, -13531.991962431905, 0.01, -0.108, 0.99, 192.0, 0.0, 40.0, 126.0, 80.0, 15.0, 120.0, 0.0, 0.0, 0.0, 1.645920368166768E9, 0.0, 2022-02-27 11:06:08.166
148.0, -3713.5188238047153, -6551.720982995151, -1577.8319928445808, -10343.38150541562, -934.8170083543073, 620.2385568903156, -5641.043858652575, -3326.5654237944395, -5219.17703380311, -8396.969246503026, -3958.0245564013194, -2827.6297840630755, -5086.362968249675, -4120.76760778041, -11582.897494184674, -14550.382143304605, 0.01, -0.108, 0.99, 192.0, 0.0, 0.0, 0.0, 0.0, 0.0, 0.0, 0.0, 0.0, 0.0, 1.645920368174322E9, 0.0, 2022-02-27 11:06:08.174
150.0, -3773.6450163894915, -6633.304850257022, -1614.310039795642, -10348.880034551625, -961.7061569340417, 576.7197104358328, -5614.579393217492, -3190.599762272807, -2689.1160236735373, -7548.765247913033, -3935.4716462459146, -2485.49163168569, -5082.138488547622, -3989.9428474834976, -10975.153562444873, -13425.172975679992, 0.01, -0.108, 0.99, 192.0, 0.0, 0.0, 0.0, 0.0, 0.0, 0.0, 0.0, 0.0, 0.0, 1.645920368182316E9, 0.0, 2022-02-27 11:06:08.182
152.0, -3505.535841648083, -6452.7698102915065, -1506.9769629212574, -10226.057198769713, -753.4996573328564, 741.2061978824376, -5641.625004008413, -3271.088394056367, -4735.239414601257, -8039.16252126247, -3918.8643001156215, -2839.476208624388, -5056.791610335304, -4073.717185701989, -11522.257211477425, -14217.072929987065, 0.01, -0.108, 0.99, 192.0, 0.0, 0.0, 0.0, 0.0, 0.0, 0.0, 0.0, 0.0, 0.0, 1.645920368190308E9, 0.0, 2022-02-27 11:06:08.190
154.0, -3867.4776396128705, -6643.921928873293, -1629.7550952142592, -10413.297762071821, -1050.2190649770575, 528.5964046235567, -5610.10904432643, -3257.7667543610046, -3979.5269345673246, -8090.392719554034, -3954.3812220551044, -2601.005447030717, -5090.207468295988, -4056.819266893777, -11246.079056987652, -14065.438695602263, 0.01, -0.108, 0.99, 192.0, 0.0, 0.0, 0.0, 0.0, 0.0, 0.0, 0.0, 0.0, 0.0, 1.645920368196869E9, 0.0, 2022-02-27 11:06:08.196
156.0, -3547.087734590499, -6506.749273151073, -1524.9701172077796, -10228.35942844861, -775.2702564323255, 715.5687469922003, -5627.364591045927, -3204.1896229016334, -3145.8962733621925, -7509.29206720496, -3904.760349364323, -2620.764389129208, -5045.61573810765, -3990.367530628149, -11131.794587587667, -13509.14847959858, 0.012, -0.10400000000000001, 0.992, 192.0, 0.0, 48.0, 126.0, 96.0, 15.5, 0.0, 0.0, 0.0, 0.0, 1.645920368206305E9, 0.0, 2022-02-27 11:06:08.206
158.0, -3699.63839049797, -6540.9921456566035, -1557.4472019013408, -10333.09970296618, -922.7694180928968, 625.9606034708743, -5636.64056499488, -3308.2146415966326, -5226.597812962272, -8391.828345278305, -3946.0887248621852, -2828.1438741855472, -5074.1142122881665, -4116.677238545089, -11586.71964248653, -14543.989544390386, 0.012, -0.10400000000000001, 0.992, 192.0, 0.0, 0.0, 0.0, 0.0, 0.0, 0.0, 0.0, 0.0, 0.0, 1.645920368212898E9, 0.0, 2022-02-27 11:06:08.212
160.0, -3777.5118681802596, -6629.348591488432, -1604.69878967986, -10355.876130566136, -965.2153808135249, 560.5593991946458, -5619.675590953301, -3201.976800200558, -2704.4046168809673, -7559.114105595841, -3922.261765272828, -2481.714186872743, -5070.359119219675, -3991.619228317646, -10969.677385053325, -13434.4713013734, 0.012, -0.10400000000000001, 0.992, 192.0, 0.0, 0.0, 0.0, 0.0, 0.0, 0.0, 0.0, 0.0, 0.0, 1.645920368220116E9, 0.0, 2022-02-27 11:06:08.220
162.0, -3506.9887050376783, -6454.602653336841, -1501.9478204188133, -10230.818120338694, -749.1634189085269, 720.5084825168232, -5640.462713296737, -3265.813382364915, -4698.5602019500975, -8026.600840878587, -3916.0479803142525, -2836.034039978271, -5052.365964933153, -4086.9941219084412, -11507.102728736727, -14198.878610000445, 0.012, -0.10400000000000001, 0.992, 192.0, 0.0, 0.0, 0.0, 0.0, 0.0, 0.0, 0.0, 0.0, 0.0, 1.645920368234567E9, 0.0, 2022-02-27 11:06:08.234
164.0, -3872.484430370859, -6647.587614963963, -1633.241967349287, -10425.457111055508, -1054.1529720011918, 522.9637650208193, -5626.559928245536, -3271.1107458008228, -4039.6531271521008, -8117.818310000695, -3954.805905199755, -2617.1210547829933, -5083.591351937217, -4075.8629531696984, -11258.283109460248, -14087.49986737965, 0.012, -0.10400000000000001, 0.992, 192.0, 0.0, 0.0, 0.0, 0.0, 0.0, 0.0, 0.0, 0.0, 0.0, 1.645920368242654E9, 0.0, 2022-02-27 11:06:08.242
166.0, -3551.803952670569, -6505.341113250389, -1532.480303344763, -10239.110617531613, -772.6998058199651, 702.738845674854, -5646.564739533036, -3238.3430884293425, -3112.592174123785, -7501.088976989863, -3904.737997619867, -2618.2386420057587, -5048.432057909019, -3996.4025016310816, -11124.373808428503, -13493.703424179963, 0.01, -0.10200000000000001, 0.982, 192.0, 0.0, 40.0, 126.0, 104.0, 15.0, 88.0, 0.0, 0.0, 0.0, 1.645920368249259E9, 0.0, 2022-02-27 11:06:08.249
168.0, -3693.983399150777, -6535.068933375947, -1562.766917081704, -10336.47481637893, -915.9521360340282, 632.4649611073686, -5669.497629344181, -3303.8336996833923, -5245.8650166827465, -8388.497935354464, -3944.0547161167524, -2830.222586419891, -5074.941226833013, -4120.253517657938, -11593.760441989953, -14544.235413579396, 0.01, -0.10200000000000001, 0.982, 192.0, 0.0, 0.0, 0.0, 0.0, 0.0, 0.0, 0.0, 0.0, 0.0, 1.645920368257164E9, 0.0, 2022-02-27 11:06:08.257
170.0, -3790.811156131167, -6640.099780571435, -1616.9922491302789, -10362.782819602826, -972.7032152060527, 564.2921405186821, -5621.150806087352, -3193.7290064965496, -2734.1994922398917, -7576.123783126329, -3925.7486374078558, -2488.7996898650754, -5073.845991354703, -4003.040969734308, -10976.896998512388, -13435.521833362798, 0.01, -0.10200000000000001, 0.982, 192.0, 0.0, 0.0, 0.0, 0.0, 0.0, 0.0, 0.0, 0.0, 0.0, 1.645920368265129E9, 0.0, 2022-02-27 11:06:08.265
172.0, -3506.8769463154017, -6458.08952547187, -1503.9147739308803, -10222.391512679043, -742.1449711495604, 735.4841513018789, -5630.762056203134, -3279.9843883495796, -4657.96943401926, -8008.406520891967, -3914.3715994801046, -2840.213816191413, -5048.789685820304, -4084.870706185187, -11499.860763533206, -14162.288804327109, 0.01, -0.10200000000000001, 0.982, 192.0, 0.0, 0.0, 0.0, 0.0, 0.0, 0.0, 0.0, 0.0, 0.0, 1.645920368272168E9, 0.0, 2022-02-27 11:06:08.272
174.0, -3863.364918633094, -6642.64787943934, -1632.280842337709, -10411.867250426681, -1038.9314340271276, 525.5342156331797, -5611.159576315829, -3268.070908554901, -4104.048502927841, -8135.900871265039, -3952.1236958651184, -2623.267784508203, -5080.6856251580275, -4078.388700293148, -11272.185894511449, -14103.436661176285, 0.01, -0.10200000000000001, 0.982, 192.0, 0.0, 0.0, 0.0, 0.0, 0.0, 0.0, 0.0, 0.0, 0.0, 1.645920368279886E9, 0.0, 2022-02-27 11:06:08.279
176.0, -3553.2121125712533, -6513.611258698852, -1539.92343424838, -10238.238899497856, -777.706596577954, 696.2344880383597, -5629.912689913833, -3212.146843927723, -3066.569932290308, -7489.555476850925, -3895.618485882102, -2597.9209062958844, -5040.161912460556, -3993.094443451696, -11111.543907111158, -13470.85994134664, 0.012, -0.10200000000000001, 0.98, 192.0, 0.0, 48.0, 126.0, 104.0, 15.0, 80.0, 0.0, 0.0, 0.0, 1.645920368286824E9, 0.0, 2022-02-27 11:06:08.286
178.0, -3688.462518270316, -6544.344907324899, -1568.2877979621646, -10332.1385779546, -907.2573074409137, 634.9013012529971, -5621.754303187645, -3302.8055194384483, -5263.098211657788, -8386.396871375666, -3946.5804632402023, -2831.7201532983963, -5068.548627918795, -4122.57809908129, -11591.72643324452, -14539.519195499326, 0.012, -0.10200000000000001, 0.98, 192.0, 0.0, 0.0, 0.0, 0.0, 0.0, 0.0, 0.0, 0.0, 0.0, 1.64592036829483E9, 0.0, 2022-02-27 11:06:08.294
180.0, -3801.3164760251616, -6653.980213878181, -1625.7094294678486, -10372.371717974152, -978.2464478309689, 562.0793178176067, -5601.3471604999495, -3194.2878001079325, -2764.64256818802, -7599.257838637572, -3936.96921312442, -2491.236030010704, -5076.90818034508, -3996.64837082009, -10971.6890420543, -13446.697705590452, 0.012, -0.10200000000000001, 0.98, 192.0, 0.0, 0.0, 0.0, 0.0, 0.0, 0.0, 0.0, 0.0, 0.0, 1.645920368301815E9, 0.0, 2022-02-27 11:06:08.301
182.0, -3499.8584985564353, -6457.687194071674, -1507.602811766006, -10225.699570858427, -747.1070584186385, 738.8369129701749, -5644.284861598595, -3284.5888477073727, -4609.309686340057, -7992.380320117512, -3917.5678989372136, -2832.3236503986896, -5053.6847178560165, -4069.515057744391, -11484.616873814688, -14140.495853483184, 0.012, -0.10200000000000001, 0.98, 192.0, 0.0, 0.0, 0.0, 0.0, 0.0, 0.0, 0.0, 0.0, 0.0, 1.645920368309477E9, 0.0, 2022-02-27 11:06:08.309
184.0, -3864.7954302782337, -6648.436981253265, -1638.5393307851948, -10421.724369731472, -1055.3599662017782, 528.5964046235567, -5615.004076362143, -3281.9960453505573, -4153.468209918525, -8151.100057494647, -3954.269463332828, -2628.319278755102, -5085.8488781272035, -4066.6987379430225, -11285.686348162455, -14128.9847050887, 0.012, -0.10400000000000001, 0.983, 192.0, 0.0, 48.0, 126.0, 88.0, 15.0, 104.0, 0.0, 0.0, 0.0, 1.645920368317488E9, 0.0, 2022-02-27 11:06:08.317
186.0, -3555.380231783418, -6511.1749185532235, -1537.800018525126, -10240.898757088036, -787.8766403051186, 697.7767584057759, -5628.884509668888, -3216.751303285516, -3028.16963531609, -7488.415537883704, -3900.222945239895, -2597.2056504733146, -5043.581729362218, -3982.231495646417, -11096.09885169254, -13454.81138882773, 0.012, -0.10400000000000001, 0.983, 192.0, 0.0, 0.0, 0.0, 0.0, 0.0, 0.0, 0.0, 0.0, 0.0, 1.645920368325489E9, 0.0, 2022-02-27 11:06:08.325
188.0, -3669.9999773502327, -6517.567517467442, -1567.0584520171228, -10327.556470341262, -909.1572057196148, 647.8206095481646, -5637.9146144288325, -3311.2097753536436, -5264.081688413821, -8375.668034037119, -3937.8632829026324, -2830.088475953159, -5068.4815726854295, -4101.031017426374, -11593.693386756586, -14533.327762285206, 0.012, -0.10400000000000001, 0.983, 192.0, 0.0, 0.0, 0.0, 0.0, 0.0, 0.0, 0.0, 0.0, 0.0, 1.645920368332052E9, 0.0, 2022-02-27 11:06:08.332
190.0, -3797.919010867955, -6634.109513057413, -1627.7434382132815, -10368.706031883483, -992.0374741598933, 559.7547363942548, -5608.745587914656, -3211.006904960502, -2781.0487486182155, -7601.604771805379, -3930.3754485101044, -2481.647131639377, -5074.67300589955, -3977.045890932786, -10977.7910682906, -13459.214682485424, 0.012, -0.10400000000000001, 0.983, 192.0, 0.0, 0.0, 0.0, 0.0, 0.0, 0.0, 0.0, 0.0, 0.0, 1.645920368340035E9, 0.0, 2022-02-27 11:06:08.340
192.0, -3484.1899256932647, -6437.391810106255, -1510.3967798229194, -10216.3118381872, -751.2644828873257, 743.4190205835129, -5661.361594362449, -3273.5023824575405, -4563.913293351328, -7957.802171445152, -3912.4046459680376, -2813.1458536560363, -5049.482589898418, -4043.967013831975, -11474.916216721085, -14109.941018812779, 0.012, -0.10400000000000001, 0.983, 192.0, 0.0, 0.0, 0.0, 0.0, 0.0, 0.0, 0.0, 0.0, 0.0, 1.645920368348127E9, 0.0, 2022-02-27 11:06:08.348
194.0, -3844.3435841016276, -6623.335972229955, -1631.342069070586, -10415.264715583888, -1054.0859167678257, 522.2932126871601, -5635.455922538748, -3294.6247809678057, -4206.0171611329515, -8149.960118527427, -3942.423038771515, -2615.7352466267644, -5080.52916294684, -4047.7221069004668, -11297.935104123962, -14147.424894264328, 0.011, -0.10800000000000001, 0.9855, 192.0, 0.0, 40.0, 126.0, 64.0, 15.0, 112.0, 0.0, 0.0, 0.0, 1.645920368361673E9, 0.0, 2022-02-27 11:06:08.361
196.0, -3549.70288869177, -6500.468432959132, -1544.0138034837012, -10242.93276583347, -808.9543353264733, 680.7894326197426, -5657.092411171486, -3219.1876434311444, -2985.6119138731856, -7465.52735156147, -3886.4095671665154, -2567.5001820922116, -5048.186188720011, -3967.680510006012, -11089.058052189119, -13446.317725934712, 0.011, -0.10800000000000001, 0.9855, 192.0, 0.0, 0.0, 0.0, 0.0, 0.0, 0.0, 0.0, 0.0, 0.0, 1.645920368369698E9, 0.0, 2022-02-27 11:06:08.369
198.0, -3640.361564202495, -6503.798842882972, -1561.828143814581, -10317.788758014292, -908.7995778083299, 637.8070280321871, -5664.021451952631, -3328.9570604511573, -5271.658929784171, -8362.659318764128, -3927.849701386655, -2816.69978102443, -5071.007319808879, -4090.637456254656, -11605.875087484728, -14537.954573387453, 0.011, -0.10800000000000001, 0.9855, 192.0, 0.0, 0.0, 0.0, 0.0, 0.0, 0.0, 0.0, 0.0, 0.0, 1.645920368377868E9, 0.0, 2022-02-27 11:06:08.377
200.0, -3783.524487438737, -6617.904498327315, -1633.309022582653, -10366.783781860326, -1007.1249016672257, 548.9364920778861, -5639.702753985257, -3229.4694458805857, -2799.0419029047375, -7597.894382225798, -3920.451273971948, -2459.29538718407, -5072.1472587761, -3976.442393832492, -10989.346920173994, -13479.688880406486, 0.011, -0.10800000000000001, 0.9855, 192.0, 0.0, 0.0, 0.0, 0.0, 0.0, 0.0, 0.0, 0.0, 0.0, 1.645920368384353E9, 0.0, 2022-02-27 11:06:08.384
202.0, -3477.3055884010305, -6432.65324028173, -1511.7602362346931, -10219.59754462213, -759.8922562470742, 727.2363575978706, -5663.730879274712, -3308.2816968299985, -4509.129167691371, -7921.145310538449, -3908.8060151107334, -2796.4043970590114, -5050.175493976533, -4046.4927609554247, -11460.231120613947, -14095.367681427919, 0.011, -0.10800000000000001, 0.9855, 192.0, 0.0, 0.0, 0.0, 0.0, 0.0, 0.0, 0.0, 0.0, 0.0, 1.645920368392311E9, 0.0, 2022-02-27 11:06:08.392
204.0, -3833.1900636184296, -6615.602268648418, -1634.3148510831418, -10415.152956861612, -1059.0256522924487, 517.3534771625373, -5640.932099930299, -3295.831775168392, -4257.359118146792, -8162.499447166854, -3944.747620194867, -2623.2454327637474, -5078.897485601603, -4061.133153573651, -11306.205249572427, -14180.61723478046, 0.0135, -0.10800000000000001, 0.98675, 192.0, 0.0, 64.0, 126.0, 80.0, 15.0, 112.0, 0.0, 0.0, 0.0, 1.645920368400485E9, 0.0, 2022-02-27 11:06:08.400
206.0, -3547.6465282018817, -6502.256572515556, -1552.9097977769136, -10248.78892288076, -812.1953382724928, 662.1257259995612, -5643.167274375829, -3226.228442934566, -2936.728648749429, -7452.898615944221, -3883.928523531976, -2569.7577082821977, -5040.340726416198, -3972.776707741822, -11068.71796473479, -13434.001914739838, 0.0135, -0.10800000000000001, 0.98675, 192.0, 0.0, 0.0, 0.0, 0.0, 0.0, 0.0, 0.0, 0.0, 0.0, 1.645920368407443E9, 0.0, 2022-02-27 11:06:08.407
208.0, -3621.407284904395, -6485.336301962889, -1561.6940333478492, -10313.608981801151, -904.6198015951875, 627.5028738382905, -5669.475277599726, -3338.7918280114923, -5263.679357013626, -8345.22495808899, -3919.2442797713616, -2822.5335863272653, -5061.999566793391, -4095.8454127127425, -11597.984921692005, -14542.089646111686, 0.0135, -0.10800000000000001, 0.98675, 192.0, 0.0, 0.0, 0.0, 0.0, 0.0, 0.0, 0.0, 0.0, 0.0, 1.64592036841404E9, 0.0, 2022-02-27 11:06:08.414
210.0, -3769.308777965162, -6608.315599955989, -1636.8853016955022, -10370.449467950997, -1012.2881546364016, 527.3447069340596, -5643.837826709489, -3224.552062100418, -2808.9437256984384, -7590.808879233466, -3905.788529609267, -2456.590826104978, -5061.708994115472, -3973.581370542213, -10989.279864940629, -13497.547924226275, 0.0135, -0.10800000000000001, 0.98675, 192.0, 0.0, 0.0, 0.0, 0.0, 0.0, 0.0, 0.0, 0.0, 0.0, 1.645920368422019E9, 0.0, 2022-02-27 11:06:08.422
212.0, -3457.2113701357093, -6418.79515871944, -1519.7174572607826, -10212.02030325178, -756.5841980676888, 719.8602819276192, -5664.602597308469, -3275.424632480697, -4442.990355848116, -7885.807202554608, -3889.047073012242, -2783.6862544639416, -5039.133732215611, -4037.2391387509274, -11454.866701944675, -14064.298756635042, 0.0135, -0.10800000000000001, 0.98675, 192.0, 0.0, 0.0, 0.0, 0.0, 0.0, 0.0, 0.0, 0.0, 0.0, 1.645920368430143E9, 0.0, 2022-02-27 11:06:08.430
214.0, -3815.174557587452, -6601.341855685932, -1634.538368527695, -10410.68260797055, -1067.3181494853675, 503.49539560024687, -5655.21486463724, -3300.905621159747, -4301.593220423844, -8158.587891887176, -3933.124713078107, -2627.648726421443, -5079.6350931686275, -4055.6569761821006, -11325.71832248191, -14197.202229166298, 0.01375, -0.11000000000000001, 0.988375, 192.0, 0.0, 56.0, 126.0, 64.0, 15.0, 120.0, 0.0, 0.0, 0.0, 1.645920368437088E9, 0.0, 2022-02-27 11:06:08.437
216.0, -3544.0478973445774, -6494.902848589761, -1555.3461379225419, -10243.916242589503, -827.9756698579396, 661.678691110455, -5666.636606053902, -3209.196413659622, -2908.2972298022783, -7426.680019698146, -3880.687520585957, -2549.194103383315, -5044.90048228508, -3965.6912047494898, -11070.863732202499, -13415.695836030942, 0.01375, -0.11000000000000001, 0.988375, 192.0, 0.0, 0.0, 0.0, 0.0, 0.0, 0.0, 0.0, 0.0, 0.0, 1.645920368444525E9, 0.0, 2022-02-27 11:06:08.444
218.0, -3605.850470763501, -6475.210961724635, -1554.6979373333381, -10301.583743284196, -901.1105777157043, 635.5271500977457, -5675.622007324935, -3332.8239122419254, -5266.786249492914, -8326.225975301979, -3914.170433780007, -2814.866937979095, -5063.474781927441, -4095.4654330570024, -11615.843965511796, -14532.59015471818, 0.01375, -0.11000000000000001, 0.988375, 192.0, 0.0, 0.0, 0.0, 0.0, 0.0, 0.0, 0.0, 0.0, 0.0, 1.64592036845264E9, 0.0, 2022-02-27 11:06:08.452
220.0, -3770.9628070548547, -6612.629486635863, -1633.599595260572, -10368.549569672296, -1019.1054366952702, 521.555605120135, -5645.469504054726, -3227.6142510907953, -2838.8056562907286, -7603.303504383983, -3906.01204705382, -2452.075773725006, -5066.045232539801, -3982.0526816907745, -11003.406167436382, -13513.730587211918, 0.01375, -0.11000000000000001, 0.988375, 192.0, 0.0, 0.0, 0.0, 0.0, 0.0, 0.0, 0.0, 0.0, 0.0, 1.645920368459741E9, 0.0, 2022-02-27 11:06:08.459
222.0, -3441.8557216949134, -6422.013809921004, -1511.089683901034, -10207.080567727156, -747.5540933077447, 720.933165661474, -5679.60061783798, -3277.033958081479, -4381.143078940282, -7864.0589551995945, -3885.9848840218647, -2768.889399634528, -5035.4903978693965, -4039.675478896556, -11446.21657684047, -14045.903270948324, 0.01375, -0.11000000000000001, 0.988375, 192.0, 0.0, 0.0, 0.0, 0.0, 0.0, 0.0, 0.0, 0.0, 0.0, 1.645920368467274E9, 0.0, 2022-02-27 11:06:08.467
224.0, -3808.9607726288764, -6603.711140598195, -1632.7502289712704, -10402.121889844168, -1051.4484109220996, 511.56437534861277, -5653.672594269824, -3297.262286813532, -4343.569796510911, -8170.926054826505, -3931.135407821585, -2628.1404647994596, -5072.795459365304, -4060.1720285620727, -11342.7280000124, -14219.553973621605, 0.013875, -0.11100000000000002, 0.9901875, 192.0, 0.0, 56.0, 126.0, 64.0, 15.5, 0.0, 0.0, 0.0, 0.0, 1.645920368482423E9, 0.0, 2022-02-27 11:06:08.482
226.0, -3550.2840340476077, -6507.375121995821, -1559.280044946676, -10244.318573989698, -820.9572220989731, 647.2841676812372, -5661.898036229377, -3224.753227800516, -2873.80848810774, -7418.074598082852, -3882.274494442284, -2538.755838722687, -5045.8169038077485, -3963.9030651930652, -11063.174732109874, -13409.660865028009, 0.013875, -0.11100000000000002, 0.9901875, 192.0, 0.0, 0.0, 0.0, 0.0, 0.0, 0.0, 0.0, 0.0, 0.0, 1.645920368489351E9, 0.0, 2022-02-27 11:06:08.489
228.0, -3593.3334938685293, -6472.28288320099, -1556.5531321231285, -10291.726623979404, -884.346769374224, 638.9916704883183, -5683.422766139837, -3325.6713540162273, -5273.491772829506, -8319.051065331825, -3919.2889832602723, -2826.9815834738715, -5065.128811017134, -4088.6928544870443, -11616.089834700804, -14531.271401795317, 0.013875, -0.11100000000000002, 0.9901875, 192.0, 0.0, 0.0, 0.0, 0.0, 0.0, 0.0, 0.0, 0.0, 0.0, 1.645920368496901E9, 0.0, 2022-02-27 11:06:08.496
230.0, -3761.2174464723407, -6603.085291753447, -1627.9893074022898, -10366.694374882505, -1016.2891168939016, 523.4107999099255, -5661.361594362449, -3222.87568126627, -2865.404232192544, -7608.399702119792, -3898.7253783613896, -2450.131171957394, -5070.984968064424, -3969.423946073526, -11007.340074460517, -13528.795662974795, 0.013875, -0.11100000000000002, 0.9901875, 192.0, 0.0, 0.0, 0.0, 0.0, 0.0, 0.0, 0.0, 0.0, 0.0, 1.645920368504917E9, 0.0, 2022-02-27 11:06:08.504
232.0, -3434.6584599803045, -6410.145033615236, -1501.6125442519838, -10200.598561835119, -752.963215465929, 725.1352936190717, -5698.957228536276, -3268.6967573996494, -4330.471674260101, -7828.698495471299, -3874.6749013274793, -2760.775716397252, -5045.101647985179, -4027.136150257129, -11438.996963381405, -14016.823651411969, 0.013875, -0.11100000000000002, 0.9901875, 192.0, 0.0, 0.0, 0.0, 0.0, 0.0, 0.0, 0.0, 0.0, 0.0, 1.645920368513056E9, 0.0, 2022-02-27 11:06:08.513
234.0, -3788.8665543635557, -6586.343835156422, -1616.925193896913, -10395.304607785298, -1057.5504371583984, 520.9074045309311, -5665.273149642128, -3310.360409064342, -4397.638666348299, -8175.99990081786, -3923.8040356402444, -2632.3202410126023, -5087.86053512818, -4056.6181011936787, -11360.408229876546, -14240.162282009398, 0.0159375, -0.11150000000000002, 0.99109375, 192.0, 0.0, 72.0, 126.0, 64.0, 15.5, 0.0, 0.0, 0.0, 0.0, 1.645920368519588E9, 0.0, 2022-02-27 11:06:08.519
236.0, -3537.029449585611, -6495.23812475659, -1541.8009807826259, -10242.016344310803, -836.2458153064032, 653.0956212396171, -5686.149678963385, -3230.6093848478063, -2843.186598203969, -7398.516821684459, -3871.3444914036386, -2528.4740362732455, -5049.99668002089, -3958.583350012702, -11058.503217518713, -13404.385853336556, 0.0159375, -0.11150000000000002, 0.99109375, 192.0, 0.0, 0.0, 0.0, 0.0, 0.0, 0.0, 0.0, 0.0, 0.0, 1.645920368527615E9, 0.0, 2022-02-27 11:06:08.527
238.0, -3578.80485997258, -6468.505438388042, -1539.766972037193, -10290.13965012308, -895.343827646235, 631.6155948180669, -5670.481106100215, -3308.102882874356, -5267.099173915288, -8302.890754090638, -3912.58345992368, -2825.662830551008, -5071.05202329779, -4093.297313844838, -11621.431901625623, -14527.091625582174, 0.0159375, -0.11150000000000002, 0.99109375, 192.0, 0.0, 0.0, 0.0, 0.0, 0.0, 0.0, 0.0, 0.0, 0.0, 1.645920368534445E9, 0.0, 2022-02-27 11:06:08.534
240.0, -3773.4214989449383, -6610.59547789043, -1621.4178945324297, -10371.05296505129, -1029.5660531003539, 511.6984858153446, -5629.309192813539, -3215.96899222958, -2907.4702152574323, -7626.41520815077, -3910.7282651338896, -2466.1573727318496, -5085.223029282454, -3983.1479171690844, -11008.79293785011, -13544.955974215982, 0.0159375, -0.11150000000000002, 0.99109375, 192.0, 0.0, 0.0, 0.0, 0.0, 0.0, 0.0, 0.0, 0.0, 0.0, 1.645920368542622E9, 0.0, 2022-02-27 11:06:08.542
242.0, -3436.513654770095, -6414.771844717485, -1494.1023581150007, -10200.822079279671, -757.6794335459988, 719.6814679719768, -5676.180800936318, -3268.584998677373, -4281.521353902978, -7810.25830629567, -3884.3979101655377, -2764.4637542323776, -5058.602101636184, -4031.450036937003, -11416.6452189261, -13989.375709220853, 0.0159375, -0.11150000000000002, 0.99109375, 192.0, 0.0, 0.0, 0.0, 0.0, 0.0, 0.0, 0.0, 0.0, 0.0, 1.645920368549262E9, 0.0, 2022-02-27 11:06:08.549
244.0, -3783.569190927648, -6578.565428085974, -1607.8727373925135, -10394.611703707184, -1066.7146523850743, 505.7752735346882, -5681.299350416583, -3312.774397465515, -4443.124466314848, -8182.884238110094, -3922.619393184113, -2643.741982429264, -5100.19869806751, -4061.7590024183996, -11374.534532372301, -14259.876520618978, 0.01596875, -0.11075000000000002, 0.9885468749999999, 192.0, 0.0, 64.0, 126.0, 72.0, 15.0, 104.0, 0.0, 0.0, 0.0, 1.645920368557189E9, 0.0, 2022-02-27 11:06:08.557
246.0, -3549.434667758306, -6497.003912568559, -1540.0798964595672, -10252.186388037968, -848.2263503344477, 621.9819929578297, -5649.649280267869, -3246.1438472442446, -2805.2333361188576, -7394.918190827155, -3873.5349623602588, -2526.4400275278126, -5068.101593029689, -3959.4997715353697, -11052.490598260236, -13395.042824154238, 0.01596875, -0.11075000000000002, 0.9885468749999999, 192.0, 0.0, 0.0, 0.0, 0.0, 0.0, 0.0, 0.0, 0.0, 0.0, 1.645920368565307E9, 0.0, 2022-02-27 11:06:08.565
248.0, -3574.4462698037946, -6461.822266795906, -1529.73103877676, -10285.266969831822, -880.3234553722687, 627.3687633715587, -5677.343091647994, -3323.2797173595095, -5254.55984527586, -8285.746966093417, -3908.046055799253, -2825.7745892732846, -5082.406709481086, -4083.864877684698, -11623.756483048974, -14532.567802973725, 0.01596875, -0.11075000000000002, 0.9885468749999999, 192.0, 0.0, 0.0, 0.0, 0.0, 0.0, 0.0, 0.0, 0.0, 0.0, 1.645920368571835E9, 0.0, 2022-02-27 11:06:08.571
