%OpenBCI Raw EEG Data
%Number of channels = 16
%Sample Rate = 125 Hz
%Board = OpenBCI_GUI$BoardCytonSerialDaisy
Sample Index, EXG Channel 0, EXG Channel 1, EXG Channel 2, EXG Channel 3, EXG Channel 4, EXG Channel 5, EXG Channel 6, EXG Channel 7, EXG Channel 8, EXG Channel 9, EXG Channel 10, EXG Channel 11, EXG Channel 12, EXG Channel 13, EXG Channel 14, EXG Channel 15, Accel Channel 0, Accel Channel 1, Accel Channel 2, Other, Other, Other, Other, Other, Other, Other, Analog Channel 0, Analog Channel 1, Analog Channel 2, Timestamp, Other, Timestamp (Formatted)
0.0, -2825.506368339821, -5581.878791079377, -1599.8037576441477, -10767.550559943982, -1007.951916212072, 500.6120205655123, -5168.036242489367, -2211.705113852634, 0.0, 0.0, 0.0, 0.0, 0.0, 0.0, 0.0, 0.0, 0.0, 0.0, 0.0, 192.0, 0.0, 0.0, 0.0, 0.0, 0.0, 0.0, 0.0, 0.0, 0.0, 1.645920710055323E9, 0.0, 2022-02-27 11:11:50.055
26.0, -3314.428426555208, -5931.370667382559, -1863.7555079168687, -11058.905548918909, -1422.867348535937, 189.72160693664634, -5178.8321350612805, -2181.731424538067, -3094.531964603897, -7818.997838377695, -4400.969076272139, -2989.9705040419703, -4565.679081163297, -3722.392466353472, -10127.284840021712, -14314.303018367651, 0.0, 0.0, 0.0, 192.0, 0.0, 0.0, 0.0, 0.0, 0.0, 0.0, 0.0, 0.0, 0.0, 1.645920710055326E9, 0.0, 2022-02-27 11:11:50.055
0.0, -1396.9840284566915, -2783.9768271418607, -797.6220008876326, -5354.91917788019, -505.57410783459045, 211.7604269695791, -2617.881014094474, -995.501994550466, -3100.6786943291063, -4333.153883594738, -2199.43400614667, -1735.8811778880572, -2221.3610674573265, -1883.6932639710028, -5430.021039250021, -7827.424446037347, 0.008, -0.106, 0.972, 192.0, 0.0, 32.0, 126.0, 88.0, 15.0, 48.0, 0.0, 0.0, 0.0, 1.64592071018382E9, 0.0, 2022-02-27 11:11:50.183
2.0, -2936.080448160225, -5607.560945458526, -1672.826906779636, -10818.914868702277, -1157.7086040626293, 336.1031813744523, -5278.744432776503, -2158.351499837816, -5700.65596111488, -8407.496918141474, -4416.369428201846, -3455.4008788348297, -4444.30910877098, -3706.343913834562, -10783.08502234042, -15384.459839398844, 0.008, -0.106, 0.972, 192.0, 0.0, 0.0, 0.0, 0.0, 0.0, 0.0, 0.0, 0.0, 0.0, 1.64592071018997E9, 0.0, 2022-02-27 11:11:50.189
4.0, -3287.427519253197, -5892.858611686064, -1873.9702551329442, -11020.147624033407, -1446.6272528919285, 109.97058272011076, -5289.249752670497, -2074.7559755749676, -2549.819952228064, -7539.802198386455, -4408.702779853676, -2995.1561087556015, -4582.264075549135, -3680.147669332942, -10088.124583736013, -13990.381537721341, 0.008, -0.106, 0.972, 192.0, 0.0, 0.0, 0.0, 0.0, 0.0, 0.0, 0.0, 0.0, 0.0, 1.645920710197795E9, 0.0, 2022-02-27 11:11:50.197
6.0, -2748.750477880297, -5519.137444393331, -1566.3208444500976, -10696.740233509568, -979.7216629650192, 444.9114733828871, -5215.421940734618, -2062.283702168906, -4026.1526735010953, -7688.351892036426, -4371.3753666133125, -3335.8861012323027, -4473.0981556294155, -3634.86303506649, -10484.89039956217, -14467.613633586603, 0.009000000000000001, -0.10400000000000001, 0.976, 192.0, 0.0, 40.0, 126.0, 104.0, 15.0, 80.0, 0.0, 0.0, 0.0, 1.645920710204614E9, 0.0, 2022-02-27 11:11:50.204
8.0, -3292.0319786109903, -5862.929625860408, -1875.2219528224414, -11036.397342252416, -1461.6252734214395, 109.56825131991522, -5274.989339708011, -2160.027880671964, -4788.2801041937, -8349.337679068765, -4444.130294815337, -3237.136094228756, -4525.937679521761, -3752.008527756754, -10520.049693590367, -15095.205914402713, 0.009000000000000001, -0.10400000000000001, 0.976, 192.0, 0.0, 0.0, 0.0, 0.0, 0.0, 0.0, 0.0, 0.0, 0.0, 1.645920710212487E9, 0.0, 2022-02-27 11:11:50.212
10.0, -2990.9316290535485, -5709.998990297197, -1708.276773485753, -10837.869148000378, -1191.3032759789558, 279.28504696906174, -5236.007897377956, -2032.7570477434456, -2303.50372833058, -7207.074130424754, -4366.994424700073, -3093.503784358953, -4551.418668200811, -3632.627860620959, -10113.583220670607, -13712.258781463956, 0.009000000000000001, -0.10400000000000001, 0.976, 192.0, 0.0, 0.0, 0.0, 0.0, 0.0, 0.0, 0.0, 0.0, 0.0, 1.645920710219463E9, 0.0, 2022-02-27 11:11:50.219
12.0, -2932.213596369457, -5613.551212972548, -1662.053365952178, -10820.792415236523, -1153.260606916023, 337.9360244197875, -5276.263389141964, -2169.8179447433886, -5697.124385490941, -8408.011008263948, -4416.235317735114, -3465.928550473279, -4452.936882130728, -3729.7014867903576, -10781.073365339442, -15391.545342391175, 0.009000000000000001, -0.10400000000000001, 0.976, 192.0, 0.0, 0.0, 0.0, 0.0, 0.0, 0.0, 0.0, 0.0, 0.0, 1.645920710227305E9, 0.0, 2022-02-27 11:11:50.227
14.0, -3284.0524058404453, -5893.685626230911, -1868.359967274662, -11021.37696997845, -1432.4338951628083, 102.10276867184267, -5261.980624435023, -2091.028045538431, -2547.450667315801, -7538.818721630421, -4403.3607129288575, -3001.6828181365513, -4585.058043606048, -3695.011579395721, -10087.85636280255, -14002.116203560377, 0.009000000000000001, -0.10400000000000001, 0.976, 192.0, 0.0, 0.0, 0.0, 0.0, 0.0, 0.0, 0.0, 0.0, 0.0, 1.645920710235066E9, 0.0, 2022-02-27 11:11:50.235
16.0, -2738.625137642043, -5514.220060613163, -1552.0604314876118, -10692.739271252069, -973.9772646400053, 460.64710147942327, -5218.282964024897, -2082.3779204342272, -3988.132356182618, -7674.2255895406715, -4360.154790896749, -3332.0192494415346, -4476.3838620643455, -3649.168151517886, -10476.486143646973, -14467.34541265314, 0.0115, -0.10600000000000001, 0.981, 192.0, 0.0, 56.0, 126.0, 80.0, 15.0, 104.0, 0.0, 0.0, 0.0, 1.645920710243192E9, 0.0, 2022-02-27 11:11:50.243
18.0, -3280.0290918384903, -5848.400991964459, -1857.1617433025533, -11027.65781017039, -1446.671956380839, 116.31847814541796, -5292.490755616517, -2174.310645378905, -4824.065247066646, -8355.171484371602, -4433.3567539878795, -3240.2429867080436, -4520.975592252683, -3758.0211470152317, -10534.198347830576, -15132.063941009515, 0.0115, -0.10600000000000001, 0.981, 192.0, 0.0, 0.0, 0.0, 0.0, 0.0, 0.0, 0.0, 0.0, 0.0, 1.645920710249905E9, 0.0, 2022-02-27 11:11:50.249
20.0, -2997.0336552898475, -5709.954286808287, -1709.439064197429, -10839.567880578981, -1195.3265899809112, 284.0236167935868, -5250.871807440735, -2043.9776234600097, -2272.278341326516, -7202.179098389041, -4364.468677576623, -3087.5805720782964, -4556.045479303059, -3642.7755526036685, -10111.213935758346, -13712.191726230589, 0.0115, -0.10600000000000001, 0.981, 192.0, 0.0, 0.0, 0.0, 0.0, 0.0, 0.0, 0.0, 0.0, 0.0, 1.64592071025774E9, 0.0, 2022-02-27 11:11:50.257
22.0, -2922.825863698228, -5608.946753614754, -1660.9581304738679, -10814.086891899931, -1150.332528392378, 352.7328792492008, -5281.739566533514, -2178.892752992243, -5675.1302689469185, -8396.924543014115, -4413.173128744737, -3472.92464648779, -4458.725983944653, -3734.082428703598, -10786.571894475448, -15385.666833599429, 0.0115, -0.10600000000000001, 0.981, 192.0, 0.0, 0.0, 0.0, 0.0, 0.0, 0.0, 0.0, 0.0, 0.0, 1.645920710272266E9, 0.0, 2022-02-27 11:11:50.272
24.0, -3299.31864730342, -5906.984914181819, -1879.0217493798436, -11034.363333506983, -1456.1714477743444, 102.97448670559963, -5278.2079909095755, -2092.212687994562, -2590.5001271367228, -7571.519323768535, -4408.166337986749, -3012.5457659418307, -4588.835488418995, -3714.882280216489, -10098.09346176308, -14035.35324756542, 0.0115, -0.10600000000000001, 0.981, 192.0, 0.0, 0.0, 0.0, 0.0, 0.0, 0.0, 0.0, 0.0, 0.0, 1.64592071027945E9, 0.0, 2022-02-27 11:11:50.279
26.0, -2756.9759198398497, -5527.8546247309005, -1572.1770014973881, -10703.26694289052, -984.3484740672677, 443.68212743784517, -5242.959289903556, -2079.0251587659313, -3945.842855673177, -7673.823258140476, -4373.901113736762, -3347.0172699710456, -4484.430490068256, -3667.273064526685, -10475.457963402028, -14448.61465079959, 0.012750000000000001, -0.10700000000000001, 0.9864999999999999, 192.0, 0.0, 56.0, 126.0, 80.0, 15.5, 0.0, 0.0, 0.0, 0.0, 1.645920710287341E9, 0.0, 2022-02-27 11:11:50.287
28.0, -3285.84054539687, -5856.134695545995, -1874.5961039776928, -11029.13302530444, -1464.9109798563695, 124.63332708279218, -5323.1126455202875, -2170.9802354550643, -4889.5111548317855, -8374.304577625344, -4449.628823951343, -3268.786164377471, -4532.509092391621, -3765.978368041321, -10557.466513808551, -15157.679040155297, 0.012750000000000001, -0.10700000000000001, 0.9864999999999999, 192.0, 0.0, 0.0, 0.0, 0.0, 0.0, 0.0, 0.0, 0.0, 0.0, 1.645920710295533E9, 0.0, 2022-02-27 11:11:50.295
30.0, -3004.8344141047496, -5715.586926411024, -1717.8433201126243, -10842.697124802724, -1202.5685551844306, 294.7077506432236, -5234.935013644102, -2024.3304400837947, -2261.8177249214323, -7203.386092589628, -4371.062442190939, -3088.3852348786872, -4566.036709074582, -3635.310069955596, -10113.225592759323, -13705.24033370499, 0.012750000000000001, -0.10700000000000001, 0.9864999999999999, 192.0, 0.0, 0.0, 0.0, 0.0, 0.0, 0.0, 0.0, 0.0, 0.0, 1.64592071030211E9, 0.0, 2022-02-27 11:11:50.302
32.0, -2921.305945075267, -5603.425872734293, -1658.633549050516, -10809.281266842041, -1141.168313165702, 352.30819610454995, -5267.166229148654, -2172.678968033668, -5660.601635050969, -8385.61456031973, -4414.178957245226, -3472.0976319429437, -4452.646309452809, -3713.8093964826344, -10779.642853694302, -15371.317013659122, 0.012750000000000001, -0.10700000000000001, 0.9864999999999999, 192.0, 0.0, 0.0, 0.0, 0.0, 0.0, 0.0, 0.0, 0.0, 0.0, 1.64592071031006E9, 0.0, 2022-02-27 11:11:50.310
34.0, -3309.3769323083084, -5912.259925873271, -1885.0343686383212, -11031.27879277215, -1459.546561187096, 93.63145752328128, -5252.32467083033, -2092.927943817132, -2616.1152262825044, -7581.510553540058, -4412.30141071098, -3018.6477921781293, -4589.57309598602, -3708.1320533909866, -10100.373339697522, -14046.797340726536, 0.012750000000000001, -0.10700000000000001, 0.9864999999999999, 192.0, 0.0, 0.0, 0.0, 0.0, 0.0, 0.0, 0.0, 0.0, 0.0, 1.645920710318E9, 0.0, 2022-02-27 11:11:50.318
36.0, -2768.6211787010648, -5547.52415985157, -1572.668739875405, -10704.317474879917, -989.0646921473375, 439.3905925024262, -5242.042868380889, -2073.1466499741855, -3902.547526663247, -7658.288795744038, -4380.1819539287035, -3349.1183339498443, -4490.085481415449, -3659.3605469895065, -10459.029431227378, -14426.352313322106, 0.012375, -0.10650000000000001, 0.98925, 192.0, 0.0, 48.0, 126.0, 88.0, 15.5, 0.0, 0.0, 0.0, 0.0, 1.645920710325181E9, 0.0, 2022-02-27 11:11:50.325
38.0, -3315.8812899448026, -5895.809041954165, -1874.5066969998716, -11037.492577730725, -1461.960549588269, 101.70043727164713, -5279.7949647659025, -2164.4982295630252, -4947.603338671129, -8409.262705953444, -4458.703632200198, -3294.1777460787, -4530.340973179456, -3781.646940904491, -10567.52479881344, -15188.703261459264, 0.012375, -0.10650000000000001, 0.98925, 192.0, 0.0, 0.0, 0.0, 0.0, 0.0, 0.0, 0.0, 0.0, 0.0, 1.645920710331772E9, 0.0, 2022-02-27 11:11:50.331
40.0, -3083.6019615652517, -5798.802471018133, -1739.5245122342722, -10863.663061101803, -1221.4781309936204, 255.34632865742788, -5221.076932081811, -2029.6054517752473, -2257.7720591750217, -7229.425874880061, -4391.938971512195, -3120.2141189830445, -4579.961845870238, -3677.376053020484, -10097.244095473778, -13713.801051831371, 0.012375, -0.10650000000000001, 0.98925, 192.0, 0.0, 0.0, 0.0, 0.0, 0.0, 0.0, 0.0, 0.0, 0.0, 1.645920710339712E9, 0.0, 2022-02-27 11:11:50.339
42.0, -3022.1346643131574, -5709.060217030074, -1674.9056190139795, -10812.276400599052, -1133.3452026063446, 353.5151903051365, -5254.045755153389, -2158.083278904352, -5682.036957983609, -8402.154851216657, -4450.008803607083, -3505.9158213038236, -4486.688016258242, -3724.426475098905, -10778.793487405, -15360.52112108721, 0.012375, -0.10650000000000001, 0.98925, 192.0, 0.0, 0.0, 0.0, 0.0, 0.0, 0.0, 0.0, 0.0, 0.0, 1.645920710347694E9, 0.0, 2022-02-27 11:11:50.347
44.0, -3476.4562221117285, -6074.667701085532, -1909.1519009055974, -11044.354563278504, -1466.5203054571516, 90.05517841043215, -5251.542359774395, -2086.1330135027188, -2762.83207688714, -7655.919510831775, -4465.453859025701, -3067.911036957626, -4607.6333055059085, -3723.0630186871317, -10114.611400915552, -14093.668948849316, 0.012375, -0.10650000000000001, 0.98925, 192.0, 0.0, 0.0, 0.0, 0.0, 0.0, 0.0, 0.0, 0.0, 0.0, 1.645920710354961E9, 0.0, 2022-02-27 11:11:50.354
46.0, -2963.997776984904, -5741.961984868287, -1595.7133884088264, -10708.944285982167, -977.9558751530499, 447.75014492871105, -5207.0623883083335, -2042.1447804146744, -3905.520308675803, -7683.9709501231855, -4432.4179807207565, -3391.0725582924556, -4503.205955410714, -3657.952387088822, -10441.483311829963, -14382.542894189704, 0.013187500000000001, -0.10725000000000001, 0.990625, 192.0, 0.0, 56.0, 126.0, 80.0, 15.5, 0.0, 0.0, 0.0, 0.0, 1.645920710362337E9, 0.0, 2022-02-27 11:11:50.362
48.0, -3516.577603409005, -6086.692939602487, -1895.1597088765752, -11036.151473063406, -1439.2288254772218, 126.24265268357429, -5280.845496755302, -2156.6304155147573, -5074.427136710541, -8471.15468635019, -4524.060132987515, -3351.9123020067577, -4541.047458773549, -3780.104670537075, -10565.982528446022, -15189.373813792923, 0.013187500000000001, -0.10725000000000001, 0.990625, 192.0, 0.0, 0.0, 0.0, 0.0, 0.0, 0.0, 0.0, 0.0, 0.0, 1.645920710370309E9, 0.0, 2022-02-27 11:11:50.370
50.0, -3266.103955042834, -5960.338528196637, -1760.8033729557244, -10871.396764683339, -1210.6598866772517, 267.59508461893614, -5233.392743276685, -2028.4655128080265, -2329.1858827097276, -7265.166314264097, -4458.323652544457, -3156.423945000642, -4585.14745058387, -3659.7405266452465, -10090.404461670454, -13693.505667865953, 0.013187500000000001, -0.10725000000000001, 0.990625, 192.0, 0.0, 0.0, 0.0, 0.0, 0.0, 0.0, 0.0, 0.0, 0.0, 1.64592071037837E9, 0.0, 2022-02-27 11:11:50.378
52.0, -3148.7796483969273, -5826.317468442616, -1691.4459099109067, -10816.9032117013, -1129.2548333710233, 351.4141263263376, -5245.507388771462, -2162.0395376729416, -5742.654888946401, -8428.239336996001, -4504.0329699555605, -3542.5056269771612, -4482.977626678661, -3737.457542116349, -10776.647719937291, -15350.306373871133, 0.013187500000000001, -0.10725000000000001, 0.990625, 192.0, 0.0, 0.0, 0.0, 0.0, 0.0, 0.0, 0.0, 0.0, 0.0, 1.645920710384452E9, 0.0, 2022-02-27 11:11:50.384
54.0, -3562.2645690756526, -6142.237024573926, -1929.1790639375527, -11057.117409362485, -1472.7787939046377, 80.93566667266687, -5249.508351028961, -2094.60432465128, -2862.4985054133545, -7695.95148515123, -4508.458615357711, -3094.241391925978, -4625.693515025797, -3735.021201970721, -10128.715351666851, -14116.333617726998, 0.013187500000000001, -0.10725000000000001, 0.990625, 192.0, 0.0, 0.0, 0.0, 0.0, 0.0, 0.0, 0.0, 0.0, 0.0, 1.645920710399902E9, 0.0, 2022-02-27 11:11:50.399
56.0, -2993.4126726880877, -5748.019307615675, -1610.2420223047761, -10718.130852953298, -988.8188229583292, 434.74142965572236, -5207.352960986253, -2069.168039461141, -3898.8594888281214, -7670.694013916733, -4457.630748466343, -3389.8208606029584, -4524.060132987515, -3670.603474450526, -10440.835111240758, -14365.421457936938, 0.015593750000000002, -0.10562500000000001, 0.9903124999999999, 192.0, 0.0, 72.0, 126.0, 96.0, 15.0, 120.0, 0.0, 0.0, 0.0, 1.645920710407091E9, 0.0, 2022-02-27 11:11:50.407
58.0, -3487.7662048061143, -6042.324726858703, -1894.8020809652903, -11031.61406893898, -1427.8070840605599, 135.1609987212418, -5254.55984527586, -2155.9375114366426, -5177.222809460498, -8469.902988660693, -4526.049438244037, -3358.28254917652, -4543.349688452446, -3782.4069002159717, -10586.166153689164, -15229.651657301387, 0.015593750000000002, -0.10562500000000001, 0.9903124999999999, 192.0, 0.0, 0.0, 0.0, 0.0, 0.0, 0.0, 0.0, 0.0, 0.0, 1.645920710414547E9, 0.0, 2022-02-27 11:11:50.414
60.0, -3258.8172863504037, -5942.971222754863, -1781.2105156434197, -10892.452107960238, -1220.5393577264974, 254.38520364584969, -5199.440443449073, -2014.8085969458339, -2310.499824345091, -7251.554101890815, -4458.435411266734, -3148.265558274455, -4589.9083721528505, -3664.210875536308, -10078.178057453402, -13683.670900305618, 0.015593750000000002, -0.10562500000000001, 0.9903124999999999, 192.0, 0.0, 0.0, 0.0, 0.0, 0.0, 0.0, 0.0, 0.0, 0.0, 1.645920710422604E9, 0.0, 2022-02-27 11:11:50.422
62.0, -3103.427958897109, -5789.481793580269, -1688.1378517315213, -10821.038284425531, -1106.3442953043336, 357.11382116244096, -5232.118693842733, -2151.6236247567685, -5704.522812905648, -8404.479432640008, -4498.2215163971805, -3553.390926526896, -4476.517972531077, -3751.785010312201, -10764.756591887068, -15321.942010157349, 0.015593750000000002, -0.10562500000000001, 0.9903124999999999, 192.0, 0.0, 0.0, 0.0, 0.0, 0.0, 0.0, 0.0, 0.0, 0.0, 1.64592071043048E9, 0.0, 2022-02-27 11:11:50.430
64.0, -3513.8283388410023, -6094.4713466729345, -1935.258738429396, -11066.549845522624, -1470.4318607368305, 80.39922480573951, -5246.602624249772, -2096.7277403745343, -2931.8783202026275, -7718.0126569286185, -4501.618981554387, -3106.0878164872906, -4611.76837823014, -3751.4497341453716, -10135.86790989255, -14154.152769345375, 0.015593750000000002, -0.10562500000000001, 0.9903124999999999, 192.0, 0.0, 0.0, 0.0, 0.0, 0.0, 0.0, 0.0, 0.0, 0.0, 1.645920710437149E9, 0.0, 2022-02-27 11:11:50.437
66.0, -2936.5274830493313, -5705.215716983762, -1606.8445571475695, -10722.042408232977, -983.0297211444046, 430.00285983119727, -5199.0828155377885, -2068.609245849758, -3816.940345399421, -7634.551243132501, -4438.832931379429, -3376.253351718587, -4511.99019098165, -3684.1933350793524, -10421.746721475927, -14337.191204689885, 0.014796875000000001, -0.1048125, 0.98915625, 192.0, 0.0, 56.0, 126.0, 96.0, 15.0, 112.0, 0.0, 0.0, 0.0, 1.645920710445297E9, 0.0, 2022-02-27 11:11:50.445
68.0, -3423.0355528635446, -5998.09062458165, -1885.0567203827763, -11029.580060193546, -1429.7740375726269, 146.00159478206572, -5270.429583839129, -2159.1785143826623, -5159.207303429521, -8453.809732652871, -4497.953295463717, -3335.528473321018, -4530.631545857375, -3789.6265136750358, -10584.109793199277, -15235.708980048774, 0.014796875000000001, -0.1048125, 0.98915625, 192.0, 0.0, 0.0, 0.0, 0.0, 0.0, 0.0, 0.0, 0.0, 0.0, 1.645920710452179E9, 0.0, 2022-02-27 11:11:50.452
70.0, -3192.0973291513124, -5890.422271540436, -1762.7926782122468, -10883.757279367122, -1219.555880970464, 262.20831420520716, -5200.803899860847, -2015.389742301672, -2278.492126285091, -7234.544424360326, -4421.465625937656, -3123.0974940177794, -4583.00168311616, -3667.697747671336, -10070.42200212741, -13681.99451947147, 0.014796875000000001, -0.1048125, 0.98915625, 192.0, 0.0, 0.0, 0.0, 0.0, 0.0, 0.0, 0.0, 0.0, 0.0, 1.645920710460347E9, 0.0, 2022-02-27 11:11:50.460
72.0, -3034.3834202746657, -5733.758894653189, -1668.8259445221358, -10811.672903498758, -1101.3598562908003, 364.31108287704984, -5230.263499052942, -2138.6149094837797, -5670.950492733776, -8387.022720220413, -4461.497600257111, -3532.4026384833624, -4472.964045162684, -3744.632452086503, -10753.357202214862, -15315.683521709863, 0.014796875000000001, -0.1048125, 0.98915625, 192.0, 0.0, 0.0, 0.0, 0.0, 0.0, 0.0, 0.0, 0.0, 0.0, 1.645920710466913E9, 0.0, 2022-02-27 11:11:50.466
74.0, -3454.640919523349, -6051.488942085379, -1923.9934592239213, -11060.112543119496, -1464.7768693896378, 88.46820455410536, -5238.019554378933, -2083.2719902124395, -2894.595610451175, -7701.829993942976, -4473.209914351692, -3091.022740724414, -4615.746988743185, -3747.180550954408, -10122.210994030356, -14141.144054072387, 0.014796875000000001, -0.1048125, 0.98915625, 192.0, 0.0, 0.0, 0.0, 0.0, 0.0, 0.0, 0.0, 0.0, 0.0, 1.645920710474769E9, 0.0, 2022-02-27 11:11:50.474
76.0, -2878.658816654541, -5659.372289105927, -1608.69975193736, -10723.942306511677, -982.694444977575, 434.76378140017766, -5197.473489937007, -2051.3313473858057, -3800.7576824137786, -7625.454083139191, -4420.169224759248, -3373.5711423839502, -4517.84634802894, -3680.7735181776907, -10410.01205563689, -14329.16692843043, 0.0133984375, -0.10340625, 0.987578125, 192.0, 0.0, 48.0, 126.0, 104.0, 15.0, 104.0, 0.0, 0.0, 0.0, 1.645920710482824E9, 0.0, 2022-02-27 11:11:50.482
78.0, -3354.393345641297, -5941.227786687349, -1884.520278515849, -11029.84828112701, -1419.738104312194, 126.35441140585083, -5267.747374504492, -2191.7897095429553, -5208.22467902001, -8473.903950918193, -4483.804641223507, -3358.550770109984, -4532.866720302906, -3793.761586399268, -10589.854191524291, -15264.49802690721, 0.0133984375, -0.10340625, 0.987578125, 192.0, 0.0, 0.0, 0.0, 0.0, 0.0, 0.0, 0.0, 0.0, 0.0, 1.645920710489991E9, 0.0, 2022-02-27 11:11:50.489
80.0, -3147.7291164075277, -5851.552587932657, -1780.1152801651099, -10886.8194683575, -1231.2234915761342, 254.407555390305, -5214.952554101057, -2024.196329617063, -2258.889646397787, -7233.896223771122, -4407.719303097642, -3118.1577584931565, -4591.920029153827, -3678.761861176713, -10066.376336381, -13693.57272309932, 0.0133984375, -0.10340625, 0.987578125, 192.0, 0.0, 0.0, 0.0, 0.0, 0.0, 0.0, 0.0, 0.0, 0.0, 1.645920710497543E9, 0.0, 2022-02-27 11:11:50.497
82.0, -2976.8947335356156, -5677.968940492742, -1673.4527556243845, -10799.915885915267, -1094.8331469098505, 381.79014704109994, -5232.677487454115, -2138.3466885503162, -5643.636661009391, -8352.51162678142, -4451.036983852027, -3524.087789545988, -4484.274027857069, -3740.7656002957347, -10748.752742857068, -15300.439631991343, 0.0133984375, -0.10340625, 0.987578125, 192.0, 0.0, 0.0, 0.0, 0.0, 0.0, 0.0, 0.0, 0.0, 0.0, 1.645920710505453E9, 0.0, 2022-02-27 11:11:50.505
84.0, -3414.9218696262683, -6007.5677642307, -1927.748552292413, -11062.168903609385, -1464.5533519450846, 103.66739078371415, -5246.736734716504, -2085.440109424604, -2952.598387312697, -7709.161366124316, -4461.609358979387, -3080.495069085964, -4616.037561421104, -3738.731591550302, -10131.129340068024, -14175.498685300194, 0.0133984375, -0.10340625, 0.987578125, 192.0, 0.0, 0.0, 0.0, 0.0, 0.0, 0.0, 0.0, 0.0, 0.0, 1.645920710519548E9, 0.0, 2022-02-27 11:11:50.519
86.0, -2853.244883208857, -5630.650297480857, -1612.0301618612007, -10734.358219427852, -981.3533403102566, 442.92216812636474, -5189.40451018864, -2049.0961729402748, -3751.2038649563633, -7606.656266052279, -4420.012762548061, -3366.8209155584477, -4522.4061038978225, -3660.791058634646, -10395.617532207672, -14301.696634494858, 0.008, -0.1, 0.99, 192.0, 0.0, 32.0, 126.0, 112.0, 15.0, 120.0, 0.0, 0.0, 0.0, 1.645920710527115E9, 0.0, 2022-02-27 11:11:50.527
88.0, -3307.4099787962414, -5895.585524509612, -1863.911970128056, -11032.66460092838, -1409.031618718102, 147.40975468275008, -5260.661871512159, -2173.349520367327, -5233.0351153654, -8480.698881232605, -4471.622940495365, -3359.0425084880007, -4529.08927548996, -3782.004568815776, -10600.784194562935, -15278.31140498059, 0.008, -0.1, 0.99, 192.0, 0.0, 0.0, 0.0, 0.0, 0.0, 0.0, 0.0, 0.0, 0.0, 1.645920710535697E9, 0.0, 2022-02-27 11:11:50.535
90.0, -3100.4775286290087, -5805.396235632448, -1755.1930850974425, -10891.580389926481, -1227.9601368856595, 257.2238751916737, -5204.447234207062, -2017.356695813739, -2221.3834192017816, -7213.377322361151, -4380.070195206427, -3105.305505431355, -4587.874363407417, -3660.4557824678163, -10058.262653143724, -13682.799182271861, 0.008, -0.1, 0.99, 192.0, 0.0, 0.0, 0.0, 0.0, 0.0, 0.0, 0.0, 0.0, 0.0, 1.645920710542258E9, 0.0, 2022-02-27 11:11:50.542
92.0, -2918.2884595738005, -5626.269355567617, -1644.8872262105021, -10790.930484644234, -1088.3287892733563, 380.6502080738793, -5229.950574630568, -2164.4982295630252, -5599.357855243427, -8325.64482994614, -4413.1060735113715, -3507.927478304801, -4472.092327128927, -3720.0008296967544, -10746.852844578367, -15291.83421037605, 0.008, -0.1, 0.99, 192.0, 0.0, 0.0, 0.0, 0.0, 0.0, 0.0, 0.0, 0.0, 0.0, 1.64592071054976E9, 0.0, 2022-02-27 11:11:50.549
94.0, -3372.900590050291, -5961.947853797419, -1916.2150521534745, -11050.054258114607, -1480.6019044639952, 95.53135580198239, -5272.485944329017, -2110.4293597256374, -2937.7121255054626, -7693.962179894707, -4429.802826619485, -3052.5777402612857, -4620.574965545531, -3722.6159837980254, -10132.381037757521, -14185.08758367152, 0.008, -0.1, 0.99, 192.0, 0.0, 0.0, 0.0, 0.0, 0.0, 0.0, 0.0, 0.0, 0.0, 1.645920710557828E9, 0.0, 2022-02-27 11:11:50.557
96.0, -2818.9796589588714, -5602.174175044796, -1591.4665569623182, -10719.337847153885, -1002.4086835871558, 433.1991592883062, -5223.781493160903, -2078.3099029433615, -3695.950352662844, -7574.7379749700995, -4383.601770830366, -3340.8258367569256, -4535.571281381998, -3661.9757010907774, -10406.189907335032, -14299.550867027148, 0.012, -0.1, 0.99, 192.0, 0.0, 48.0, 126.0, 112.0, 15.0, 120.0, 0.0, 0.0, 0.0, 1.645920710565754E9, 0.0, 2022-02-27 11:11:50.565
98.0, -3281.5043069725407, -5868.2493410407715, -1865.5659992177486, -11019.052388555097, -1424.0519909920683, 154.07057453043157, -5285.740528791014, -2202.7197125816006, -5266.294511114897, -8473.501619517996, -4462.391670035323, -3359.7354125661154, -4549.049383288549, -3780.685815892913, -10618.375017449263, -15301.60192270302, 0.012, -0.1, 0.99, 192.0, 0.0, 0.0, 0.0, 0.0, 0.0, 0.0, 0.0, 0.0, 0.0, 1.645920710571825E9, 0.0, 2022-02-27 11:11:50.571
100.0, -3079.042205696369, -5781.055185920619, -1764.2455416018418, -10892.563866682514, -1245.8862359388156, 266.7680700740898, -5241.282909069409, -2073.1690017186406, -2203.1667474707065, -7204.123700156653, -4385.747538298076, -3099.717569317528, -4595.518660011132, -3652.498561441727, -10073.081859717591, -13685.190818928579, 0.012, -0.1, 0.99, 192.0, 0.0, 0.0, 0.0, 0.0, 0.0, 0.0, 0.0, 0.0, 0.0, 1.645920710579589E9, 0.0, 2022-02-27 11:11:50.579
102.0, -2864.6219211366083, -5585.522125425592, -1641.7356302423038, -10782.727394429136, -1096.5095277439987, 399.7833013276221, -5269.826086738835, -2172.611912800302, -5547.255938918107, -8291.267846973878, -4406.467605408145, -3496.9527717772453, -4479.043719654527, -3720.760789008235, -10761.13560928531, -15278.154942769403, 0.012, -0.1, 0.99, 192.0, 0.0, 0.0, 0.0, 0.0, 0.0, 0.0, 0.0, 0.0, 0.0, 1.645920710589284E9, 0.0, 2022-02-27 11:11:50.589
104.0, -3335.8861012323027, -5933.896414506008, -1913.778712007846, -11060.470171030782, -1494.0800063705453, 97.25244012504103, -5287.886296258724, -2130.3000605464053, -3032.662335951607, -7735.692886792766, -4419.141044514304, -3066.659339268129, -4612.126006141425, -3730.0367629571874, -10174.2011516334, -14250.086456547555, 0.012, -0.1, 0.99, 192.0, 0.0, 0.0, 0.0, 0.0, 0.0, 0.0, 0.0, 0.0, 0.0, 1.645920710595628E9, 0.0, 2022-02-27 11:11:50.595
106.0, -2793.2975045797234, -5576.581427643469, -1591.533612195684, -10723.361161155839, -1022.8828815082171, 419.3410777260158, -5226.977792618012, -2096.3254089743386, -3580.347130339996, -7528.15693952524, -4362.300558364458, -3326.453665072163, -4536.733572093674, -3665.663738925903, -10397.025692108356, -14263.653965431926, 0.014, -0.106, 0.99, 192.0, 0.0, 56.0, 126.0, 88.0, 15.0, 120.0, 0.0, 0.0, 0.0, 1.645920710602113E9, 0.0, 2022-02-27 11:11:50.602
108.0, -3256.5597601604177, -5847.372811719515, -1851.0597170662545, -11010.961057062275, -1427.7847323161045, 144.74989709256855, -5295.441185884618, -2207.212413217117, -5281.0243107109445, -8472.495791017507, -4448.243015795114, -3348.0454502159896, -4550.368136211412, -3793.6051241880805, -10636.39052348024, -15317.739882199752, 0.014, -0.106, 0.99, 192.0, 0.0, 0.0, 0.0, 0.0, 0.0, 0.0, 0.0, 0.0, 0.0, 1.645920710610135E9, 0.0, 2022-02-27 11:11:50.610
110.0, -3067.6651677686177, -5764.984281657253, -1763.9996724128334, -10883.332596222472, -1251.295358097, 251.45712512220445, -5244.903891671168, -2057.5227805999257, -2180.636189059757, -7205.263639123874, -4378.2373521610925, -3080.9644557195256, -4596.837412933995, -3659.5170092006933, -10068.61151082653, -13679.155847925646, 0.014, -0.106, 0.99, 192.0, 0.0, 0.0, 0.0, 0.0, 0.0, 0.0, 0.0, 0.0, 0.0, 1.645920710618025E9, 0.0, 2022-02-27 11:11:50.618
112.0, -2837.285737667768, -5551.815694786989, -1621.8649294215359, -10771.193894290196, -1068.8380681083283, 400.8338333170216, -5244.121580615232, -2181.9996454715306, -5493.701159203191, -8260.020108225359, -4390.9778465006175, -3479.250190168642, -4461.430545023745, -3707.439149312872, -10744.707077110657, -15253.769189568662, 0.014, -0.106, 0.99, 192.0, 0.0, 0.0, 0.0, 0.0, 0.0, 0.0, 0.0, 0.0, 0.0, 1.645920710624595E9, 0.0, 2022-02-27 11:11:50.624
114.0, -3310.718036975627, -5903.967428680352, -1898.713636244969, -11046.545034235125, -1471.7506136596935, 97.61006803632594, -5267.345043104297, -2117.8054353958887, -2976.8947335356156, -7694.118642105895, -4397.325741925924, -3037.244443564945, -4599.206697846258, -3714.882280216489, -10151.29061356671, -14226.684180102848, 0.014, -0.106, 0.99, 192.0, 0.0, 0.0, 0.0, 0.0, 0.0, 0.0, 0.0, 0.0, 0.0, 1.645920710631912E9, 0.0, 2022-02-27 11:11:50.631
116.0, -2770.0516903462044, -5550.04990697502, -1576.3344259660753, -10715.672161063214, -995.6361050171978, 435.65785117838993, -5215.93603085709, -2069.749184816979, -3568.076022634032, -7509.090901504863, -4352.197569870659, -3297.8210804249147, -4515.454711372222, -3644.206064248808, -10379.568979688762, -14246.376066967972, 0.01, -0.106, 0.992, 192.0, 0.0, 40.0, 126.0, 88.0, 15.5, 0.0, 0.0, 0.0, 0.0, 1.645920710647712E9, 0.0, 2022-02-27 11:11:50.647
118.0, -3234.1856639606553, -5823.031762007686, -1832.7312866129025, -11009.262324483672, -1410.9762204857136, 158.92090307723322, -5282.678339800637, -2204.4631486491144, -5297.855174285791, -8456.447238498598, -4423.164358516259, -3333.4050575977635, -4523.948374265239, -3769.4205366874385, -10628.67917164316, -15326.211193348312, 0.01, -0.106, 0.992, 192.0, 0.0, 0.0, 0.0, 0.0, 0.0, 0.0, 0.0, 0.0, 0.0, 1.645920710654397E9, 0.0, 2022-02-27 11:11:50.654
120.0, -3089.5028221014527, -5780.7646132427, -1756.8918176760458, -10903.292704021062, -1263.5664658029636, 240.75063952811237, -5242.7581242034585, -2058.5062573559594, -2158.28444460445, -7199.720406498958, -4367.039128188983, -3080.584476063785, -4603.028846148115, -3665.4849249702606, -10053.278214130189, -13679.647586303663, 0.01, -0.106, 0.992, 192.0, 0.0, 0.0, 0.0, 0.0, 0.0, 0.0, 0.0, 0.0, 0.0, 1.64592071066325E9, 0.0, 2022-02-27 11:11:50.663
122.0, -2858.855171067139, -5574.145087497841, -1625.307098067653, -10779.173467060742, -1077.2199722790685, 398.93393503832044, -5241.484074769506, -2173.058947689408, -5482.190010808708, -8270.078393230247, -4402.801919317475, -3485.3969198938516, -4480.898914444318, -3718.078579673598, -10740.035562519499, -15239.307610906078, 0.01, -0.106, 0.992, 192.0, 0.0, 0.0, 0.0, 0.0, 0.0, 0.0, 0.0, 0.0, 0.0, 1.645920710670392E9, 0.0, 2022-02-27 11:11:50.670
124.0, -3321.7374469920933, -5909.376550838537, -1895.5173367878601, -11057.318575062583, -1470.7000816702941, 98.39237909226169, -5263.366432591251, -2142.124133363263, -3023.3863620026546, -7732.876566991397, -4409.328628698424, -3048.599129748241, -4607.253325850168, -3733.2777659032067, -10161.237139849323, -14258.043677573643, 0.01, -0.106, 0.992, 192.0, 0.0, 0.0, 0.0, 0.0, 0.0, 0.0, 0.0, 0.0, 0.0, 1.645920710677473E9, 0.0, 2022-02-27 11:11:50.677
126.0, -2765.8495623886065, -5543.433790616249, -1572.6016846420391, -10721.595373343871, -992.6409712601867, 440.0834965805408, -5225.301411783864, -2085.4624611690597, -3484.6593123268262, -7490.941285007154, -4346.162598867726, -3289.5732867209063, -4508.100987446426, -3650.8668840964897, -10369.488342939418, -14225.47718590226, 0.014, -0.108, 0.986, 192.0, 0.0, 56.0, 126.0, 80.0, 15.0, 104.0, 0.0, 0.0, 0.0, 1.645920710685072E9, 0.0, 2022-02-27 11:11:50.685
128.0, -3199.428701332653, -5784.676168522378, -1826.2492807208635, -10995.806574321578, -1392.7819004990936, 190.1686418257525, -5305.633581356237, -2203.189099215162, -5326.1077792772985, -8452.513331474463, -4418.716361369653, -3337.2495576440765, -4522.786083553563, -3759.6751761049245, -10643.163102050197, -15339.823405721594, 0.014, -0.108, 0.986, 192.0, 0.0, 0.0, 0.0, 0.0, 0.0, 0.0, 0.0, 0.0, 0.0, 1.645920710692897E9, 0.0, 2022-02-27 11:11:50.692
130.0, -3088.5193453454194, -5773.455592805814, -1758.4787915323725, -10909.662951190825, -1263.5441140585083, 242.94111048473246, -5231.381086275707, -2070.039757494898, -2112.3292580043385, -7183.984778402421, -4353.2928053489695, -3042.810027934316, -4586.600313973465, -3653.3255759865733, -10055.558092064632, -13672.919711222616, 0.014, -0.108, 0.986, 192.0, 0.0, 0.0, 0.0, 0.0, 0.0, 0.0, 0.0, 0.0, 0.0, 1.645920710700098E9, 0.0, 2022-02-27 11:11:50.700
132.0, -2859.793944334262, -5575.15091599833, -1620.345010798575, -10779.620501949848, -1080.460975225088, 401.9067170508763, -5253.688127242104, -2179.0268634589747, -5439.878158554811, -8257.024974468348, -4398.979771015617, -3485.575733849494, -4486.017463924582, -3726.4381320998828, -10735.051123505966, -15216.777052495128, 0.014, -0.108, 0.986, 192.0, 0.0, 0.0, 0.0, 0.0, 0.0, 0.0, 0.0, 0.0, 0.0, 1.645920710707126E9, 0.0, 2022-02-27 11:11:50.707
134.0, -3341.8316652574144, -5934.835187773131, -1905.1509386480975, -11069.254406601716, -1500.606715751495, 83.28259984047412, -5283.483002601029, -2136.826769927355, -3072.1578684041347, -7767.275901708115, -4421.1527015152815, -3059.305615342333, -4614.048256164581, -3753.6402051019913, -10175.989291189826, -14276.729735938281, 0.014, -0.108, 0.986, 192.0, 0.0, 0.0, 0.0, 0.0, 0.0, 0.0, 0.0, 0.0, 0.0, 1.645920710714681E9, 0.0, 2022-02-27 11:11:50.714
136.0, -2793.632780746553, -5573.00514853062, -1579.8660015900139, -10732.391265915783, -1023.7993030308847, 409.1933857433064, -5230.621126964227, -2096.6830368856236, -3453.8809602118686, -7498.116194977307, -4352.0634594039275, -3289.238010554077, -4533.13494123637, -3687.233172325274, -10371.030613306835, -14212.66963632937, 0.014, -0.106, 0.99, 192.0, 0.0, 56.0, 126.0, 88.0, 15.0, 120.0, 0.0, 0.0, 0.0, 1.64592071072274E9, 0.0, 2022-02-27 11:11:50.722
138.0, -3219.6346783202507, -5811.408854890926, -1818.8955567950675, -11008.36825470546, -1408.226955917711, 152.32713846291765, -5294.9494475066, -2229.988840817075, -5371.571227499393, -8493.260561616487, -4426.0253818065385, -3355.645043330794, -4534.587804625965, -3814.571060487159, -10658.33993653535, -15373.820409038117, 0.014, -0.106, 0.99, 192.0, 0.0, 0.0, 0.0, 0.0, 0.0, 0.0, 0.0, 0.0, 0.0, 1.645920710729779E9, 0.0, 2022-02-27 11:11:50.729
140.0, -3092.4756041140085, -5779.915246953398, -1753.0249658852777, -10917.910744894833, -1274.6752827972512, 223.69625850871307, -5248.457819039562, -2078.891048299199, -2113.357438249283, -7212.930287472044, -4368.067308433928, -3066.6816910125845, -4598.714959468241, -3696.4420910408608, -10050.953632706838, -13687.493048607475, 0.014, -0.106, 0.99, 192.0, 0.0, 0.0, 0.0, 0.0, 0.0, 0.0, 0.0, 0.0, 0.0, 1.645920710737241E9, 0.0, 2022-02-27 11:11:50.737
142.0, -2829.2614614083127, -5548.731154052157, -1594.3052285081421, -10768.265815766552, -1067.9663500745714, 409.68512412132316, -5260.550112789883, -2189.4427763751482, -5386.59159977336, -8229.15234913258, -4390.687273822698, -3479.473707613195, -4470.483001528144, -3737.457542116349, -10728.144434469275, -15207.143450634892, 0.014, -0.106, 0.99, 192.0, 0.0, 0.0, 0.0, 0.0, 0.0, 0.0, 0.0, 0.0, 0.0, 1.645920710745238E9, 0.0, 2022-02-27 11:11:50.745
144.0, -3328.621784284328, -5906.269658359249, -1888.2530198398854, -11059.37493555247, -1511.313201345587, 96.02309417999913, -5314.998962283011, -2154.99873816952, -3150.4560292310753, -7784.576151916523, -4416.704704368675, -3055.3493565737435, -4611.634267763408, -3750.8462370450784, -10188.77448901826, -14332.653800565458, 0.014, -0.106, 0.99, 192.0, 0.0, 0.0, 0.0, 0.0, 0.0, 0.0, 0.0, 0.0, 0.0, 1.645920710753226E9, 0.0, 2022-02-27 11:11:50.753
146.0, -2771.795126413718, -5542.047982460021, -1576.8708678330026, -10721.483614621595, -1035.3104514253678, 423.05146730559676, -5251.22943535202, -2113.379789993738, -3353.678089818727, -7451.222235110073, -4351.2364448590815, -3265.6569201537277, -4539.214615728213, -3655.672509154381, -10353.976232287436, -14172.838827710013, 0.014, -0.10400000000000001, 0.99, 192.0, 0.0, 56.0, 126.0, 96.0, 15.0, 120.0, 0.0, 0.0, 0.0, 1.645920710766877E9, 0.0, 2022-02-27 11:11:50.766
148.0, -3188.4539948050974, -5777.434203318859, -1803.4505013764503, -10989.838658552011, -1412.8537670199594, 170.5885136829035, -5295.016502739966, -2233.0957332963626, -5383.529410782982, -8471.735831706028, -4419.319858469947, -3345.4302961147187, -4530.050400501537, -3783.5468391831923, -10666.051288372433, -15375.988528250282, 0.014, -0.10400000000000001, 0.99, 192.0, 0.0, 0.0, 0.0, 0.0, 0.0, 0.0, 0.0, 0.0, 0.0, 1.645920710774796E9, 0.0, 2022-02-27 11:11:50.774
150.0, -3089.301656401355, -5767.442973547337, -1752.3320618071632, -10916.167308827318, -1301.87735579936, 218.6894677507243, -5273.9835112075225, -2087.9435048035984, -2087.965856548054, -7197.149955886598, -4357.71845075112, -3039.0549348658246, -4605.7557589716625, -3675.565561719604, -10048.852568728038, -13681.435725860087, 0.014, -0.10400000000000001, 0.99, 192.0, 0.0, 0.0, 0.0, 0.0, 0.0, 0.0, 0.0, 0.0, 0.0, 1.645920710782955E9, 0.0, 2022-02-27 11:11:50.782
152.0, -2810.4636443213994, -5528.838101486934, -1589.0302168166897, -10763.817818619946, -1066.982873318538, 401.9737722842422, -5271.390708850707, -2196.0141892450083, -5331.583956668849, -8191.891991125583, -4378.639683561288, -3465.0344806950666, -4477.926132431761, -3723.957088465344, -10731.452492648661, -15180.924854388817, 0.014, -0.10400000000000001, 0.99, 192.0, 0.0, 0.0, 0.0, 0.0, 0.0, 0.0, 0.0, 0.0, 0.0, 1.645920710789462E9, 0.0, 2022-02-27 11:11:50.789
154.0, -3313.8696329438253, -5893.238591341805, -1881.525144758838, -11054.6587174724, -1503.1771663638553, 90.99395167755505, -5298.771595808458, -2157.993871926531, -3127.009049297458, -7773.10970701095, -4403.20425071767, -3051.0578216383246, -4603.230011848213, -3741.1902834403854, -10190.942608230425, -14329.368094130528, 0.012, -0.10500000000000001, 0.988, 192.0, 0.0, 40.0, 126.0, 88.0, 15.0, 104.0, 0.0, 0.0, 0.0, 1.645920710797446E9, 0.0, 2022-02-27 11:11:50.797
156.0, -2763.189704798425, -5533.509616078093, -1569.5618473961172, -10719.918992509723, -1008.8906894791949, 426.13600804042915, -5224.317935027831, -2089.1057955152746, -3335.3049558764646, -7439.3758105487605, -4342.183988354682, -3266.5733416763956, -4524.887147532362, -3643.0437735371324, -10347.516578139852, -14161.66295548236, 0.012, -0.10500000000000001, 0.988, 192.0, 0.0, 0.0, 0.0, 0.0, 0.0, 0.0, 0.0, 0.0, 0.0, 1.645920710805646E9, 0.0, 2022-02-27 11:11:50.805
158.0, -3158.145029323701, -5754.5460169966245, -1794.6662658055147, -10969.811495520056, -1382.2542288606442, 189.76631042555695, -5302.593744110316, -2232.827512362899, -5389.050291663443, -8461.834008912327, -4410.669733365743, -3338.747124522582, -4509.799720025029, -3763.117344751042, -10669.560512251915, -15378.1789992069, 0.012, -0.10500000000000001, 0.988, 192.0, 0.0, 0.0, 0.0, 0.0, 0.0, 0.0, 0.0, 0.0, 0.0, 1.645920710812743E9, 0.0, 2022-02-27 11:11:50.812
160.0, -3065.295882856355, -5751.506179750702, -1750.9909571398446, -10901.63867493137, -1290.3662074048768, 225.52910155404825, -5245.060353882355, -2105.7801968789336, -2056.9416352440876, -7174.954673642478, -4340.686421476176, -3015.0268095763695, -4586.667369206831, -3649.570482918082, -10040.336554090567, -13674.41727810112, 0.012, -0.10500000000000001, 0.988, 192.0, 0.0, 0.0, 0.0, 0.0, 0.0, 0.0, 0.0, 0.0, 0.0, 1.64592071081907E9, 0.0, 2022-02-27 11:11:50.819
162.0, -2792.4704900348775, -5523.339572350928, -1586.7726906267037, -10748.708039368157, -1053.7729923454515, 409.30514446558294, -5264.975758192034, -2188.660465319212, -5298.704540575092, -8174.435278705988, -4370.391889857279, -3449.8799979543687, -4470.706518972697, -3710.59074528107, -10721.17069019922, -15171.134790317392, 0.012, -0.10500000000000001, 0.988, 192.0, 0.0, 0.0, 0.0, 0.0, 0.0, 0.0, 0.0, 0.0, 0.0, 1.645920710827123E9, 0.0, 2022-02-27 11:11:50.827
164.0, -3316.775359723015, -5905.129719392028, -1884.7437959604022, -11054.010516883198, -1495.1752418488554, 89.63049526578132, -5286.433432869128, -2150.573092767369, -3248.5131321565073, -7813.5440127306, -4407.115805997349, -3057.428068808087, -4599.318456568534, -3745.459466631349, -10213.07083524118, -14388.689623914914, 0.011, -0.10650000000000001, 0.987, 192.0, 0.0, 40.0, 126.0, 80.0, 15.0, 104.0, 0.0, 0.0, 0.0, 1.645920710835288E9, 0.0, 2022-02-27 11:11:50.835
166.0, -2788.3130655661903, -5567.372508927883, -1585.2751237481982, -10727.563289113437, -1026.2579949209685, 418.9834498147309, -5236.700801456071, -2075.739452331001, -3259.778411361982, -7426.054170853397, -4353.426915815701, -3256.6268153937835, -4534.94543253725, -3654.7784393761685, -10329.545775597784, -14124.827280620013, 0.011, -0.10650000000000001, 0.987, 192.0, 0.0, 0.0, 0.0, 0.0, 0.0, 0.0, 0.0, 0.0, 0.0, 1.645920710841801E9, 0.0, 2022-02-27 11:11:50.841
168.0, -3185.5482680259074, -5794.4662325938025, -1807.8314432896905, -10979.869780524943, -1378.7897084700714, 180.51268822105985, -5297.408139396684, -2228.468922194114, -5433.753780574058, -8489.326654592354, -4434.228472021637, -3368.2961306924976, -4524.551871365532, -3777.2883507357064, -10678.791782711958, -15381.397650408466, 0.011, -0.10650000000000001, 0.987, 192.0, 0.0, 0.0, 0.0, 0.0, 0.0, 0.0, 0.0, 0.0, 0.0, 1.645920710849684E9, 0.0, 2022-02-27 11:11:50.849
170.0, -3102.8915170301816, -5793.281590137672, -1764.5584660242162, -10910.735834924679, -1294.8365562959382, 219.47177880666004, -5263.209970380065, -2087.250600725484, -2073.057242996364, -7201.70971175548, -4368.29082587848, -3050.1190483712016, -4603.833508948506, -3663.562674947104, -10042.817597725105, -13666.907091964138, 0.011, -0.10650000000000001, 0.987, 192.0, 0.0, 0.0, 0.0, 0.0, 0.0, 0.0, 0.0, 0.0, 0.0, 1.645920710857878E9, 0.0, 2022-02-27 11:11:50.857
172.0, -2805.8591849636064, -5546.205406928708, -1591.0642255621226, -10746.808141089457, -1046.888655053217, 415.83185384653257, -5257.622034266238, -2199.2551921910276, -5287.61807532526, -8175.642272906575, -4385.9934074870835, -3477.484402356673, -4481.837687711441, -3716.2233848838077, -10716.543879096971, -15143.32922021499, 0.011, -0.10650000000000001, 0.987, 192.0, 0.0, 0.0, 0.0, 0.0, 0.0, 0.0, 0.0, 0.0, 0.0, 1.645920710864816E9, 0.0, 2022-02-27 11:11:50.864
174.0, -3332.354525608364, -5924.329867879137, -1891.292857085807, -11052.557653493603, -1481.67478819785, 99.66642852621419, -5296.37995915174, -2140.6489182292125, -3227.8824720242587, -7815.779187176131, -4411.2285269771255, -3070.3473771032545, -4598.916125168339, -3735.2894229041844, -10203.951323503414, -14366.963728304354, 0.0125, -0.10625000000000001, 0.9895, 192.0, 0.0, 56.0, 126.0, 88.0, 15.5, 0.0, 0.0, 0.0, 0.0, 1.645920710872393E9, 0.0, 2022-02-27 11:11:50.872
176.0, -2788.380120799556, -5569.205351973218, -1587.9349813383797, -10719.561364598438, -1002.8557184762619, 437.44599073481453, -5226.821330406825, -2066.8881615266996, -3261.275978240488, -7419.661571939179, -4349.045973902461, -3268.3838329772752, -4522.56256610901, -3634.7512763442132, -10325.924792996026, -14109.829260090502, 0.0125, -0.10625000000000001, 0.9895, 192.0, 0.0, 0.0, 0.0, 0.0, 0.0, 0.0, 0.0, 0.0, 0.0, 1.645920710879481E9, 0.0, 2022-02-27 11:11:50.879
178.0, -3176.1828870991335, -5788.364206357504, -1802.2882106647744, -10968.69390829729, -1349.7324406781722, 212.47568279214894, -5271.480115828528, -2205.0442940049525, -5480.781850908023, -8491.15949763769, -4429.199329519192, -3378.9132093087687, -4515.879394516873, -3765.821905830134, -10677.115401877809, -15388.99724352327, 0.0125, -0.10625000000000001, 0.9895, 192.0, 0.0, 0.0, 0.0, 0.0, 0.0, 0.0, 0.0, 0.0, 0.0, 1.645920710894584E9, 0.0, 2022-02-27 11:11:50.894
180.0, -3129.110113276257, -5814.5380991146685, -1788.7430535248584, -10924.30334380905, -1291.1485184608125, 220.16468288477458, -5258.650214511182, -2073.2360569520065, -2087.8093943368667, -7216.707732284991, -4369.363709612335, -3052.0412983943584, -4603.5876397594975, -3664.2332272807635, -10035.307411588123, -13671.243330388466, 0.0125, -0.10625000000000001, 0.9895, 192.0, 0.0, 0.0, 0.0, 0.0, 0.0, 0.0, 0.0, 0.0, 0.0, 1.64592071090206E9, 0.0, 2022-02-27 11:11:50.902
182.0, -2816.163339157503, -5557.493037878638, -1601.8154146451254, -10743.522434654527, -1041.4124776616666, 421.75506612718897, -5263.209970380065, -2174.154183167718, -5250.491827784995, -8166.478057679899, -4391.335474411902, -3485.1957541937536, -4490.621923282376, -3718.883242473989, -10709.905410993744, -15114.003731489627, 0.0125, -0.10625000000000001, 0.9895, 192.0, 0.0, 0.0, 0.0, 0.0, 0.0, 0.0, 0.0, 0.0, 0.0, 1.645920710910107E9, 0.0, 2022-02-27 11:11:50.910
184.0, -3341.9881274686013, -5924.531033579235, -1902.2452118689075, -11054.792827939133, -1486.3910062779196, 95.39724533525055, -5299.598610353304, -2175.338825623849, -3329.2699848735315, -7855.811161495586, -4419.431617192223, -3088.496993600964, -4612.573041030531, -3746.9570335098547, -10225.543108647242, -14412.315417804173, 0.01125, -0.107125, 0.98975, 192.0, 0.0, 40.0, 126.0, 80.0, 15.0, 120.0, 0.0, 0.0, 0.0, 1.645920710918146E9, 0.0, 2022-02-27 11:11:50.918
186.0, -2811.1341966550585, -5582.594046901947, -1604.2070513018432, -10725.931611768201, -1025.565090842854, 425.6219179179571, -5251.8552841967685, -2071.3361586733054, -3206.335390369343, -7405.669379910158, -4353.024584415506, -3261.7677166185044, -4543.4167436858115, -3647.6482328949255, -10319.778063270816, -14092.50665813764, 0.01125, -0.107125, 0.98975, 192.0, 0.0, 0.0, 0.0, 0.0, 0.0, 0.0, 0.0, 0.0, 0.0, 1.645920710924744E9, 0.0, 2022-02-27 11:11:50.924
188.0, -3192.3879018292314, -5800.635314063467, -1817.5097486388386, -10974.237140922207, -1366.384490297376, 203.4902815211155, -5310.953296536601, -2202.29502943695, -5529.374543353862, -8502.357721609798, -4442.655079681287, -3390.580819914439, -4534.0290110145825, -3770.8734000770332, -10703.892791735267, -15399.033176783703, 0.01125, -0.107125, 0.98975, 192.0, 0.0, 0.0, 0.0, 0.0, 0.0, 0.0, 0.0, 0.0, 0.0, 1.645920710932815E9, 0.0, 2022-02-27 11:11:50.932
190.0, -3130.361810965754, -5817.734398571778, -1789.4583093474282, -10930.49477702317, -1301.095044743424, 205.23371758862945, -5267.479153571028, -2089.306961215372, -2099.6334671537243, -7222.675648054558, -4379.332587639402, -3052.89066468366, -4613.489462553199, -3672.570427962593, -10048.94197570586, -13676.920673480116, 0.01125, -0.107125, 0.98975, 192.0, 0.0, 0.0, 0.0, 0.0, 0.0, 0.0, 0.0, 0.0, 0.0, 1.64592071094086E9, 0.0, 2022-02-27 11:11:50.940
192.0, -2842.3595836591226, -5596.876811608889, -1606.2634117917314, -10762.253196508074, -1052.2977772114011, 415.9212608243538, -5248.837798695302, -2148.024993899464, -5243.56278700385, -8170.479019937399, -4401.885497794807, -3497.0421787550663, -4493.79587099503, -3730.528501335204, -10710.9782947276, -15104.168963929293, 0.01125, -0.107125, 0.98975, 192.0, 0.0, 0.0, 0.0, 0.0, 0.0, 0.0, 0.0, 0.0, 0.0, 1.645920710946786E9, 0.0, 2022-02-27 11:11:50.946
194.0, -3376.230999974132, -5976.029452804262, -1908.7048660164912, -11080.184409640362, -1502.4395587968302, 74.85599218082335, -5298.1680987081645, -2153.791743968933, -3383.71883436666, -7906.370807453491, -4440.621070935854, -3118.716552104539, -4629.023924949637, -3777.2212955023406, -10240.988164065859, -14429.61566801258, 0.011625, -0.1085625, 0.9898750000000001, 192.0, 0.0, 48.0, 126.0, 72.0, 15.0, 120.0, 0.0, 0.0, 0.0, 1.645920710954226E9, 0.0, 2022-02-27 11:11:50.954
196.0, -2844.0359644932705, -5630.359724802938, -1609.638525204483, -10748.79744634598, -1036.3833351592225, 399.4480251607925, -5245.641499238193, -2093.285571728417, -3217.623021319273, -7446.28249958545, -4374.81753525943, -3291.7861094219816, -4558.2135985152245, -3677.0631285981094, -10324.1366534396, -14093.579541871493, 0.011625, -0.1085625, 0.9898750000000001, 192.0, 0.0, 0.0, 0.0, 0.0, 0.0, 0.0, 0.0, 0.0, 0.0, 1.645920710962406E9, 0.0, 2022-02-27 11:11:50.962
198.0, -3204.5696025573734, -5824.931660286386, -1807.1608909560314, -10979.467449124748, -1369.0219961431023, 183.9548568671771, -5304.985380767033, -2229.921785583709, -5561.024613502576, -8538.321678438388, -4446.991318105616, -3418.4534452502066, -4537.001793027138, -3796.622609689547, -10711.984123228089, -15428.58218295362, 0.011625, -0.1085625, 0.9898750000000001, 192.0, 0.0, 0.0, 0.0, 0.0, 0.0, 0.0, 0.0, 0.0, 0.0, 1.645920710970301E9, 0.0, 2022-02-27 11:11:50.970
200.0, -3162.9953578705026, -5851.01614606573, -1798.5107658518275, -10938.45199804926, -1316.1601205063012, 199.6904849637133, -5276.0398716974105, -2089.8210513378444, -2101.734531132523, -7253.00696528041, -4382.595942329877, -3074.460098083031, -4619.01034343366, -3690.0941956155534, -10048.316126861111, -13691.046975975869, 0.011625, -0.1085625, 0.9898750000000001, 192.0, 0.0, 0.0, 0.0, 0.0, 0.0, 0.0, 0.0, 0.0, 0.0, 1.645920710976972E9, 0.0, 2022-02-27 11:11:50.976
202.0, -2834.2235486773907, -5584.940980069755, -1612.2536793057538, -10748.305707967962, -1032.1812072016248, 414.37899045693763, -5258.650214511182, -2188.8169275303994, -5205.520117940917, -8158.118505253614, -4401.103186738871, -3504.0159230251224, -4494.645237284331, -3719.397332596461, -10717.236783175085, -15089.84149573344, 0.011625, -0.1085625, 0.9898750000000001, 192.0, 0.0, 0.0, 0.0, 0.0, 0.0, 0.0, 0.0, 0.0, 0.0, 1.645920710985088E9, 0.0, 2022-02-27 11:11:50.985
204.0, -3372.4088516722745, -5964.6077113876, -1923.680534801547, -11066.080458889062, -1501.6795994853496, 70.87738166777869, -5279.526743832439, -2153.8140957133887, -3422.409704018796, -7911.712874378309, -4439.369373246357, -3118.627145126718, -4621.53609055711, -3764.2125802293517, -10250.778228137282, -14453.353220624116, 0.0108125, -0.10528125, 0.9899375, 192.0, 0.0, 40.0, 126.0, 104.0, 15.0, 120.0, 0.0, 0.0, 0.0, 1.64592071099318E9, 0.0, 2022-02-27 11:11:50.993
206.0, -2844.192426704458, -5627.811625935034, -1628.4139905469408, -10741.577832886915, -1047.760373086974, 397.7939960710998, -5254.179865620121, -2081.5956093782916, -3159.4861339910194, -7423.103740585297, -4374.079927692405, -3280.9455133611577, -4562.61689217292, -3672.0563378401207, -10321.029760960313, -14060.476608333185, 0.0108125, -0.10528125, 0.9899375, 192.0, 0.0, 0.0, 0.0, 0.0, 0.0, 0.0, 0.0, 0.0, 0.0, 1.645920711000097E9, 0.0, 2022-02-27 11:11:51.000
208.0, -3194.6454280192174, -5812.727607813788, -1821.9353940409892, -10971.733745543212, -1367.03269088658, 192.18029882673014, -5300.403273153695, -2218.477692422592, -5586.215029503707, -8539.729838339072, -4450.947576874206, -3426.2318523206536, -4539.125208750393, -3793.493365465804, -10728.993800758577, -15427.844575386594, 0.0108125, -0.10528125, 0.9899375, 192.0, 0.0, 0.0, 0.0, 0.0, 0.0, 0.0, 0.0, 0.0, 0.0, 1.64592071101486E9, 0.0, 2022-02-27 11:11:51.014
210.0, -3175.1547068541895, -5848.49039894228, -1818.9402602839782, -10938.20612886025, -1330.9569753357143, 191.24152555960723, -5246.9826039055115, -2084.121356501741, -2111.70340915959, -7258.796067094335, -4395.045863991483, -3071.5767230482966, -4630.968526717249, -3693.0669776281093, -10053.367621108011, -13685.682557306596, 0.0108125, -0.10528125, 0.9899375, 192.0, 0.0, 0.0, 0.0, 0.0, 0.0, 0.0, 0.0, 0.0, 0.0, 1.645920711022709E9, 0.0, 2022-02-27 11:11:51.022
212.0, -2832.9047957545276, -5587.064395793009, -1618.3780572865078, -10745.51173991105, -1046.3298614418343, 414.915432323865, -5243.831007937313, -2164.5876365408467, -5178.541562383361, -8146.964984770416, -4414.737750856609, -3505.3346759479855, -4508.324504890979, -3733.12130369202, -10709.88305924929, -15062.751181453608, 0.0108125, -0.10528125, 0.9899375, 192.0, 0.0, 0.0, 0.0, 0.0, 0.0, 0.0, 0.0, 0.0, 0.0, 1.645920711029678E9, 0.0, 2022-02-27 11:11:51.029
214.0, -3379.2708372200536, -5970.9109033239965, -1928.486159859438, -11074.171790381884, -1503.959477419791, 71.57028574589322, -5286.187563680121, -2167.4263080866704, -3479.741928546659, -7938.400857257946, -4450.724059429653, -3128.171340009134, -4626.699343526286, -3769.331129709617, -10265.485675988875, -14475.01206100131, 0.01140625, -0.105640625, 0.98896875, 192.0, 0.0, 48.0, 126.0, 88.0, 15.0, 112.0, 0.0, 0.0, 0.0, 1.645920711037287E9, 0.0, 2022-02-27 11:11:51.037
216.0, -2850.4285634074886, -5631.767884703623, -1626.3352783125972, -10750.138551013297, -1045.2569777079796, 395.53646988111376, -5239.785342190903, -2070.866772039744, -3161.363680525265, -7429.362229032783, -4380.539581839988, -3285.371158763309, -4558.817095615518, -3661.9086458574116, -10311.37380735562, -14057.123846664888, 0.01140625, -0.105640625, 0.98896875, 192.0, 0.0, 0.0, 0.0, 0.0, 0.0, 0.0, 0.0, 0.0, 0.0, 1.645920711045374E9, 0.0, 2022-02-27 11:11:51.045
218.0, -3188.744567483016, -5812.392331646959, -1809.5301758682938, -10967.621024563436, -1350.5594552230186, 204.54081351051494, -5280.510220588472, -2206.206584716628, -5604.230535534684, -8546.234195975567, -4455.797905421007, -3431.1715878452765, -4533.246699958647, -3777.422461202438, -10724.366989656328, -15428.224555042334, 0.01140625, -0.105640625, 0.98896875, 192.0, 0.0, 0.0, 0.0, 0.0, 0.0, 0.0, 0.0, 0.0, 0.0, 1.645920711052315E9, 0.0, 2022-02-27 11:11:51.052
220.0, -3187.403462815698, -5865.5447799616795, -1809.6419345905704, -10947.772675487122, -1322.2844984870553, 193.65551396078038, -5245.46268528255, -2077.3040744428727, -2111.3234295038496, -7272.475334700983, -4399.806785560463, -3072.984882948981, -4618.719770755741, -3678.985378621266, -10047.153836149435, -13687.828324774306, 0.01140625, -0.105640625, 0.98896875, 192.0, 0.0, 0.0, 0.0, 0.0, 0.0, 0.0, 0.0, 0.0, 0.0, 1.645920711059816E9, 0.0, 2022-02-27 11:11:51.059
222.0, -2823.4500078499327, -5575.441488676249, -1601.1225105670107, -10739.208547974653, -1021.8770530077283, 430.7404673982224, -5237.818388678836, -2180.122098937285, -5129.859462959703, -8126.915469994005, -4409.619201376343, -3495.8798880433906, -4492.253600627613, -3709.3166958471174, -10698.01428294352, -15034.431521228735, 0.01140625, -0.105640625, 0.98896875, 192.0, 0.0, 0.0, 0.0, 0.0, 0.0, 0.0, 0.0, 0.0, 0.0, 1.645920711066932E9, 0.0, 2022-02-27 11:11:51.066
224.0, -3379.4049476867854, -5966.351147455114, -1923.1887964235302, -11071.020194413686, -1499.7797012066485, 85.47307079709421, -5277.783307764925, -2170.5332005659584, -3583.722243752747, -7971.548494285166, -4447.863036139373, -3134.4521802010754, -4608.4603200507545, -3763.0949930065863, -10283.948216908959, -14536.434654764493, 0.01, -0.10400000000000001, 0.994, 192.0, 0.0, 40.0, 126.0, 96.0, 15.5, 8.0, 0.0, 0.0, 0.0, 1.645920711074997E9, 0.0, 2022-02-27 11:11:51.074
226.0, -2866.5218194153094, -5640.015678407631, -1641.4450575643848, -10752.17255975873, -1041.2336637060241, 402.17493798434, -5210.906888354646, -2060.02617597892, -3050.633138493674, -7397.801565861889, -4383.981750486106, -3270.9095801007247, -4558.727688637697, -3668.681224427369, -10294.788812969782, -14010.565162964484, 0.01, -0.10400000000000001, 0.994, 192.0, 0.0, 0.0, 0.0, 0.0, 0.0, 0.0, 0.0, 0.0, 0.0, 1.645920711082031E9, 0.0, 2022-02-27 11:11:51.082
228.0, -3176.942846410614, -5790.2417528917495, -1817.1968242164642, -10956.758076758157, -1332.0522108140244, 223.07040966396448, -5275.391671108207, -2203.0326370039747, -5629.06332362453, -8534.655992347716, -4459.3071293004905, -3438.704125726715, -4516.795816039541, -3783.010397316265, -10738.001553774066, -15431.86788938855, 0.01, -0.10400000000000001, 0.994, 192.0, 0.0, 0.0, 0.0, 0.0, 0.0, 0.0, 0.0, 0.0, 0.0, 1.64592071108955E9, 0.0, 2022-02-27 11:11:51.089
230.0, -3187.492869793519, -5852.49136119978, -1831.1890162454865, -10943.190567873784, -1327.6712689007843, 205.01020014407638, -5240.120618357732, -2071.090289484297, -2114.005638838487, -7260.271282228385, -4403.673637351231, -3057.718641486006, -4611.477805552221, -3676.9960733647436, -10058.75439152174, -13685.548446839864, 0.01, -0.10400000000000001, 0.994, 192.0, 0.0, 0.0, 0.0, 0.0, 0.0, 0.0, 0.0, 0.0, 0.0, 1.645920711097598E9, 0.0, 2022-02-27 11:11:51.097
232.0, -2814.732827512363, -5566.657253105313, -1613.7959496731698, -10734.358219427852, -1021.4970733519881, 437.0213075901637, -5251.631766752215, -2159.7149562495897, -5096.041273598823, -8103.3120278492015, -4411.452044421679, -3492.772995564103, -4485.123394146371, -3707.081521401587, -10705.435062102684, -15011.811555839964, 0.01, -0.10400000000000001, 0.994, 192.0, 0.0, 0.0, 0.0, 0.0, 0.0, 0.0, 0.0, 0.0, 0.0, 1.645920711105541E9, 0.0, 2022-02-27 11:11:51.105
234.0, -3379.2931889645088, -5962.104316008606, -1931.1236657051643, -11073.009499670208, -1505.4346925538414, 81.56151551741547, -5276.352796119785, -2165.414651085693, -3572.948702925289, -7968.19573261687, -4445.359640760379, -3138.0284593139245, -4603.3864740594, -3763.4749726623268, -10291.2795890903, -14525.482299981393, 0.012, -0.108, 0.988, 192.0, 0.0, 48.0, 126.0, 80.0, 15.0, 112.0, 0.0, 0.0, 0.0, 1.645920711112145E9, 0.0, 2022-02-27 11:11:51.112
236.0, -2874.479040441399, -5641.647355752869, -1644.1049151545662, -10761.001498818578, -1049.3473469433006, 393.7259785802339, -5218.260612280442, -2079.0698622548416, -3064.4688683115087, -7397.622751906247, -4383.9370469971955, -3275.670501669705, -4552.625662401398, -3666.5578087041154, -10301.94137119548, -14016.287209545042, 0.012, -0.108, 0.988, 192.0, 0.0, 0.0, 0.0, 0.0, 0.0, 0.0, 0.0, 0.0, 0.0, 1.64592071112001E9, 0.0, 2022-02-27 11:11:51.120
238.0, -3186.5764482708514, -5804.166889687406, -1813.7323038258917, -10973.588940333002, -1327.5595101785077, 208.96645891266573, -5263.969929691545, -2228.2007012606505, -5672.045728212086, -8555.510169924519, -4461.9446351462175, -3453.8586084674134, -4517.667534073297, -3794.2309730328293, -10745.22116723313, -15454.890186177516, 0.012, -0.108, 0.988, 192.0, 0.0, 0.0, 0.0, 0.0, 0.0, 0.0, 0.0, 0.0, 0.0, 1.645920711127216E9, 0.0, 2022-02-27 11:11:51.127
240.0, -3207.810605503393, -5879.469916757335, -1835.525254669816, -10978.50632411317, -1331.2475480136334, 179.84213588740062, -5252.436429552607, -2099.5217084314477, -2141.2747670739614, -7294.4470995005495, -4413.955439800673, -3082.6855400425843, -4619.122102155937, -3709.2049371248413, -10055.267519386713, -13711.364711685743, 0.012, -0.108, 0.988, 192.0, 0.0, 0.0, 0.0, 0.0, 0.0, 0.0, 0.0, 0.0, 0.0, 1.645920711141791E9, 0.0, 2022-02-27 11:11:51.141
242.0, -2815.0010484458267, -5567.998357772632, -1611.1584438274438, -10753.826588848424, -1013.7633697704518, 428.92997609734255, -5243.22751083702, -2166.9122179641986, -5061.664290626561, -8108.967019196394, -4410.356808943368, -3508.3074579605413, -4483.402309823312, -3737.055210716154, -10701.12117542281, -15009.509326161067, 0.012, -0.108, 0.988, 192.0, 0.0, 0.0, 0.0, 0.0, 0.0, 0.0, 0.0, 0.0, 0.0, 1.645920711149811E9, 0.0, 2022-02-27 11:11:51.149
244.0, -3411.703218424704, -5979.315159239192, -1946.1887414680411, -11092.611979557512, -1502.5289657746514, 69.49157351154966, -5286.232267169031, -2177.3728343692824, -3674.984416363766, -8014.6203058505425, -4466.392632292823, -3164.0682416043574, -4606.336904327501, -3788.9336095969215, -10308.646894532072, -14570.878692970122, 0.012, -0.11, 0.988, 192.0, 0.0, 48.0, 126.0, 72.0, 15.0, 112.0, 0.0, 0.0, 0.0, 1.645920711157792E9, 0.0, 2022-02-27 11:11:51.157
246.0, -2890.8405173826836, -5647.101181399963, -1664.5120578422616, -10775.016042592055, -1054.1306202567364, 373.7658707816447, -5218.908812869646, -2088.2340774815175, -3034.718696441495, -7388.07855702383, -4409.216869976148, -3282.8230598954037, -4557.587749670476, -3685.266218813207, -10290.98901641238, -13988.928674331746, 0.012, -0.11, 0.988, 192.0, 0.0, 0.0, 0.0, 0.0, 0.0, 0.0, 0.0, 0.0, 0.0, 1.645920711164454E9, 0.0, 2022-02-27 11:11:51.164
248.0, -3169.2538463179885, -5783.066842921597, -1818.3814666725955, -10960.200245404274, -1317.7694461070832, 212.2968688365065, -5296.402310896196, -2246.9985183475637, -5703.025246027141, -8541.808550573414, -4467.666681726776, -3457.3007771135303, -4513.1301299488705, -3795.594429444603, -10756.978184816622, -15461.841578703115, 0.012, -0.11, 0.988, 192.0, 0.0, 0.0, 0.0, 0.0, 0.0, 0.0, 0.0, 0.0, 0.0, 1.645920711172503E9, 0.0, 2022-02-27 11:11:51.172
250.0, -3210.515166582485, -5861.096782815073, -1859.8886561261006, -10969.476219353226, -1351.4088215123204, 164.19591476868567, -5256.638557510204, -2088.681112370624, -2155.9151596921874, -7291.116689576708, -4415.385951445813, -3070.593246292263, -4619.233860878213, -3701.7618062212237, -10060.65428980044, -13720.037188534403, 0.012, -0.11, 0.988, 192.0, 0.0, 0.0, 0.0, 0.0, 0.0, 0.0, 0.0, 0.0, 0.0, 1.645920711180445E9, 0.0, 2022-02-27 11:11:51.180
252.0, -2804.160452385003, -5546.317165650984, -1626.89407192398, -10741.17550148672, -1020.3347826403121, 426.56069118508, -5263.254673868975, -2169.3262063653715, -5015.75380751536, -8053.266472013769, -4411.273230466036, -3485.4863268716726, -4494.533478562054, -3715.2846116166847, -10689.520620050505, -14969.164427419237, 0.012, -0.11, 0.988, 192.0, 0.0, 0.0, 0.0, 0.0, 0.0, 0.0, 0.0, 0.0, 0.0, 1.645920711187367E9, 0.0, 2022-02-27 11:11:51.187
254.0, -3371.4030231717857, -5943.194740199416, -1951.3072909483067, -11082.017252685697, -1515.6270880254613, 63.68011995316982, -5284.935865990623, -2175.0482529459305, -3685.5120880022155, -7988.714634026842, -4451.9087018857845, -3149.8972356196923, -4607.119215383436, -3777.3554059690723, -10314.301885879266, -14581.048736697287, 0.016, -0.11, 0.988, 192.0, 0.0, 64.0, 126.0, 72.0, 15.0, 112.0, 0.0, 0.0, 0.0, 1.645920711193938E9, 0.0, 2022-02-27 11:11:51.193
0.0, -3170.8631719187706, -5915.232707885827, -1951.0167182703876, -11054.278737816661, -1367.680891475784, 79.92983817217805, -5529.173377653763, -2366.423888972269, -2989.0987860082137, -7357.523722353426, -4388.116823210338, -3263.5111526860182, -4565.164991040825, -3679.0300821101764, -10293.358301324643, -13987.498162686607, 0.016, -0.11, 0.988, 192.0, 0.0, 0.0, 0.0, 0.0, 0.0, 0.0, 0.0, 0.0, 0.0, 1.645920711202165E9, 0.0, 2022-02-27 11:11:51.202
2.0, -4933.208815241911, -7484.235761670561, -3478.3561203904296, -12651.042658214887, -3062.926597944093, -1488.3579597899866, -6960.959072227368, -3912.3375907346717, -6869.02634728269, -9747.193425559215, -5724.393513726415, -4715.681638202863, -5762.860865933999, -4994.027911904802, -11950.337821285466, -16641.901927221053, 0.016, -0.11, 0.988, 192.0, 0.0, 0.0, 0.0, 0.0, 0.0, 0.0, 0.0, 0.0, 0.0, 1.645920711210199E9, 0.0, 2022-02-27 11:11:51.210
4.0, -1987.070082076798, -4696.056806571103, -752.2479596433592, -9827.145615475847, -213.81678745946735, 1270.875486239849, -4153.803486085354, -995.0996631502704, -2872.5791421626977, -8060.709602917386, -5246.781438205414, -3898.613619639113, -5440.995745777577, -4483.871696456873, -10849.469703372682, -14500.62716014709, 0.016, -0.11, 0.988, 192.0, 0.0, 0.0, 0.0, 0.0, 0.0, 0.0, 0.0, 0.0, 0.0, 1.645920711217069E9, 0.0, 2022-02-27 11:11:51.217
6.0, -2048.4256206066157, -4811.950601571871, -922.8141215818074, -10036.424998810888, -306.0847885709749, 1116.5143390314984, -4596.524488511621, -1490.995465635713, -3316.03775215599, -6297.872221216228, -2570.964702482784, -1659.7287845288258, -2713.769997807741, -2008.3712945427055, -8991.637407736469, -13270.163627882437, 0.016, -0.11, 0.988, 192.0, 0.0, 0.0, 0.0, 0.0, 0.0, 0.0, 0.0, 0.0, 0.0, 1.645920711224707E9, 0.0, 2022-02-27 11:11:51.224
8.0, -3264.584036419873, -5831.592480134068, -1851.1938275329862, -10996.722995844246, -1424.3425636699872, 139.34077493438423, -5228.765932174437, -2122.7228191760564, -3571.6523017468817, -7823.535242502123, -4237.846045237308, -2943.0318406858255, -4408.099282753383, -3595.2333921472305, -10144.898014652494, -14446.848862987623, 0.016, -0.11, 0.986, 192.0, 0.0, 64.0, 126.0, 72.0, 15.0, 104.0, 0.0, 0.0, 0.0, 1.645920711232722E9, 0.0, 2022-02-27 11:11:51.232
10.0, -2842.538397614765, -5590.931247583777, -1641.378002331019, -10752.351373714373, -1056.6116638912754, 363.48406833220344, -5229.7270571860145, -2085.484812913515, -2866.544171159765, -7298.090433846764, -4326.0013253690395, -3197.551154798407, -4518.673362573786, -3625.5870611175374, -10241.435198954965, -13932.110539926356, 0.016, -0.11, 0.986, 192.0, 0.0, 0.0, 0.0, 0.0, 0.0, 0.0, 0.0, 0.0, 0.0, 1.645920711240674E9, 0.0, 2022-02-27 11:11:51.240
12.0, -3120.5046916609635, -5733.89300511992, -1800.589478086171, -10942.877643451411, -1318.5070536741084, 200.9198309087552, -5316.250659972508, -2242.9081491122424, -5696.565591879558, -8514.651181060217, -4438.072972067949, -3444.9179106852903, -4507.743359535141, -3776.818964102145, -10765.315385498452, -15473.308023608688, 0.016, -0.11, 0.986, 192.0, 0.0, 0.0, 0.0, 0.0, 0.0, 0.0, 0.0, 0.0, 0.0, 1.645920711247265E9, 0.0, 2022-02-27 11:11:51.247
14.0, -3198.5122798099856, -5848.177474519905, -1853.071374067232, -10977.478143868226, -1370.8771909328927, 125.79561779446814, -5284.108851445777, -2129.1377698347296, -2148.1367526217405, -7294.111823333719, -4405.5958873743875, -3054.231769350978, -4633.494273840699, -3696.330332318584, -10071.696051561363, -13745.160549302167, 0.016, -0.11, 0.986, 192.0, 0.0, 0.0, 0.0, 0.0, 0.0, 0.0, 0.0, 0.0, 0.0, 1.645920711262382E9, 0.0, 2022-02-27 11:11:51.262
16.0, -2780.5346584957433, -5526.066485174476, -1611.3372577830862, -10735.140530483786, -1016.8702622497395, 399.4703769052478, -5276.419851353151, -2179.0045117145196, -4919.574251124174, -8021.30347744268, -4402.868974550841, -3475.4056901223294, -4501.596629809932, -3713.340009849073, -10692.851029974347, -14953.227633622604, 0.016, -0.11, 0.986, 192.0, 0.0, 0.0, 0.0, 0.0, 0.0, 0.0, 0.0, 0.0, 0.0, 1.645920711270427E9, 0.0, 2022-02-27 11:11:51.270
18.0, -3345.363240881353, -5908.5718880381455, -1936.4657326299828, -11074.171790381884, -1509.1003786445117, 50.87257038027887, -5308.136976735232, -2196.5282793674805, -3764.79372558519, -8021.325829187135, -4439.391724990813, -3145.2257210285334, -4606.895697938883, -3767.1853622419076, -10355.429095677031, -14647.500472962915, 0.01, -0.10400000000000001, 0.986, 192.0, 0.0, 40.0, 126.0, 96.0, 15.0, 104.0, 0.0, 0.0, 0.0, 1.64592071127697E9, 0.0, 2022-02-27 11:11:51.276
20.0, -2855.7035750989407, -5607.58329720298, -1654.3196623706417, -10772.020908835044, -1080.97506534756, 346.00500416815333, -5247.183769605609, -2105.1319962897296, -2889.47706097091, -7320.5092335354375, -4366.301520621958, -3232.911614526703, -4567.534275953088, -3667.5859889490594, -10297.873353704616, -13973.148342746299, 0.01, -0.10400000000000001, 0.986, 192.0, 0.0, 0.0, 0.0, 0.0, 0.0, 0.0, 0.0, 0.0, 0.0, 1.645920711284981E9, 0.0, 2022-02-27 11:11:51.284
22.0, -3111.586345623296, -5730.741409151722, -1796.946143739956, -10940.530710283603, -1319.6693443857844, 203.28911582101773, -5308.695770346614, -2249.3901550042815, -5700.834775070522, -8521.78138754146, -4436.553053444988, -3451.6010822774274, -4523.300173676035, -3793.2474962767956, -10793.23271432313, -15488.06017494919, 0.01, -0.10400000000000001, 0.986, 192.0, 0.0, 0.0, 0.0, 0.0, 0.0, 0.0, 0.0, 0.0, 0.0, 1.645920711293002E9, 0.0, 2022-02-27 11:11:51.293
24.0, -3193.974875685558, -5840.846102338565, -1847.7740106313242, -10973.343071143994, -1364.998682141147, 139.2737197010183, -5305.722988334059, -2129.964784379576, -2120.934679619632, -7292.100166332742, -4391.737805812098, -3044.6428709796514, -4631.124988928436, -3699.3478178200508, -10074.042984729169, -13749.317973770854, 0.01, -0.10400000000000001, 0.986, 192.0, 0.0, 0.0, 0.0, 0.0, 0.0, 0.0, 0.0, 0.0, 0.0, 1.645920711299583E9, 0.0, 2022-02-27 11:11:51.299
26.0, -2772.0856990916373, -5513.929487935244, -1600.4966617222622, -10727.205661202153, -1008.5554133123653, 413.39551370090413, -5287.66277881417, -2186.894677507243, -4882.000968694802, -8005.456090623867, -4399.069177993439, -3465.347405117441, -4501.708388532208, -3696.4867945297715, -10688.917122950212, -14933.960429902128, 0.01, -0.10400000000000001, 0.986, 192.0, 0.0, 0.0, 0.0, 0.0, 0.0, 0.0, 0.0, 0.0, 0.0, 1.645920711307749E9, 0.0, 2022-02-27 11:11:51.307
28.0, -3340.401153612275, -5911.768187495254, -1927.4132761255833, -11072.070726403086, -1505.8593756984922, 47.09512556733198, -5307.108796490288, -2206.4971573945472, -3814.4816535093373, -8036.949698561395, -4442.4986174701, -3146.1868460401115, -4608.52737528412, -3777.400109457983, -10362.559302158274, -14672.959109897509, 0.008, -0.10400000000000001, 0.984, 192.0, 0.0, 32.0, 126.0, 96.0, 15.0, 96.0, 0.0, 0.0, 0.0, 1.645920711314681E9, 0.0, 2022-02-27 11:11:51.314
30.0, -2859.101040256148, -5611.472500738204, -1656.8007060051807, -10774.099621069387, -1088.7311206735517, 329.7999894380557, -5250.782400462914, -2113.6927144161123, -2824.0982084391367, -7324.130216137197, -4362.658186275743, -3227.5024923685187, -4572.116383566426, -3674.4256227523833, -10277.130934850089, -13945.253365666076, 0.008, -0.10400000000000001, 0.984, 192.0, 0.0, 0.0, 0.0, 0.0, 0.0, 0.0, 0.0, 0.0, 0.0, 1.645920711322812E9, 0.0, 2022-02-27 11:11:51.322
32.0, -3087.714682545028, -5709.529603663636, -1783.0210069442996, -10936.619155003924, -1307.1523674908124, 208.36296181237245, -5333.640317158737, -2283.5883240209014, -5708.456719929782, -8524.418893387186, -4434.161416788271, -3457.7925154915474, -4520.930888763773, -3794.1639177994634, -10792.249237567095, -15494.273959907767, 0.008, -0.10400000000000001, 0.984, 192.0, 0.0, 0.0, 0.0, 0.0, 0.0, 0.0, 0.0, 0.0, 0.0, 1.64592071132941E9, 0.0, 2022-02-27 11:11:51.329
34.0, -3191.3150180953767, -5828.910270799431, -1853.65251942307, -10986.441193394803, -1384.8693829619149, 130.48948413008264, -5306.57235462336, -2143.152313608207, -2127.036705855931, -7299.006855369432, -4388.317988910436, -3040.530149999875, -4633.538977329609, -3703.2593730997296, -10077.641615586474, -13768.361660046776, 0.008, -0.10400000000000001, 0.984, 192.0, 0.0, 0.0, 0.0, 0.0, 0.0, 0.0, 0.0, 0.0, 0.0, 1.645920711338791E9, 0.0, 2022-02-27 11:11:51.338
36.0, -2756.908864606484, -5503.401816296794, -1602.7094844233377, -10733.50885313855, -1026.1238844542365, 406.399417686393, -5309.85806105829, -2188.258133919017, -4820.958354587359, -7993.028520706716, -4392.855393034863, -3466.7555650181253, -4518.405141640323, -3720.9619547083325, -10685.653768259737, -14910.222877290593, 0.009000000000000001, -0.10300000000000001, 0.987, 192.0, 0.0, 40.0, 126.0, 104.0, 15.0, 120.0, 0.0, 0.0, 0.0, 1.645920711345967E9, 0.0, 2022-02-27 11:11:51.345
38.0, -3329.739371507093, -5895.853745443076, -1934.3646686511838, -11080.385575340459, -1529.5298730766624, 39.2496632635192, -5329.885224090245, -2205.6477911052457, -3857.3075958857057, -8058.742649405319, -4442.051582580993, -3160.111982835768, -4623.234823135713, -3789.6265136750358, -10380.083069811233, -14703.648055034644, 0.009000000000000001, -0.10300000000000001, 0.987, 192.0, 0.0, 0.0, 0.0, 0.0, 0.0, 0.0, 0.0, 0.0, 0.0, 1.645920711353806E9, 0.0, 2022-02-27 11:11:51.353
40.0, -2857.6481768665526, -5608.611477447925, -1669.340034644608, -10782.928560129234, -1108.7582837055068, 325.01671612462, -5254.693955742593, -2117.2019382955955, -2798.483109293355, -7315.122463121708, -4368.179067156204, -3224.0156202334906, -4586.4438517622775, -3677.48781174276, -10276.058051116235, -13937.206737662165, 0.009000000000000001, -0.10300000000000001, 0.987, 192.0, 0.0, 0.0, 0.0, 0.0, 0.0, 0.0, 0.0, 0.0, 0.0, 1.645920711360199E9, 0.0, 2022-02-27 11:11:51.360
42.0, -3074.2589323829334, -5697.861993057966, -1781.7916609992578, -10930.986515401188, -1317.7247426181725, 200.49514776410436, -5342.603366685315, -2262.6223877218235, -5714.2234699992505, -8515.031160715957, -4439.771704646552, -3452.0034136776226, -4530.832711557474, -3792.5322404542258, -10794.685577712724, -15489.356576127599, 0.009000000000000001, -0.10300000000000001, 0.987, 192.0, 0.0, 0.0, 0.0, 0.0, 0.0, 0.0, 0.0, 0.0, 0.0, 1.645920711367911E9, 0.0, 2022-02-27 11:11:51.367
44.0, -3192.4102535736865, -5837.091009270073, -1852.2443595223856, -10984.965978260754, -1398.2357261461887, 111.0881699428761, -5304.04660749991, -2140.514807762481, -2128.4672175010705, -7308.282829318385, -4395.671712836232, -3037.758533687417, -4635.237709908212, -3715.0834459165867, -10073.528894606698, -13760.315032042865, 0.009000000000000001, -0.10300000000000001, 0.987, 192.0, 0.0, 0.0, 0.0, 0.0, 0.0, 0.0, 0.0, 0.0, 0.0, 1.645920711374958E9, 0.0, 2022-02-27 11:11:51.374
46.0, -2761.0439373307154, -5518.645706015313, -1599.4684814773182, -10727.8315100469, -1032.4941316239992, 394.91062103636517, -5286.969874736056, -2208.15118648424, -4788.637732104985, -7985.2724653807245, -4402.667808850742, -3466.6214545513935, -4514.895917760839, -3736.630527571503, -10668.465276773606, -14886.842952590341, 0.0105, -0.10450000000000001, 0.9904999999999999, 192.0, 0.0, 48.0, 126.0, 88.0, 15.5, 8.0, 0.0, 0.0, 0.0, 1.64592071138956E9, 0.0, 2022-02-27 11:11:51.389
48.0, -3343.485694347107, -5918.205489898382, -1928.9555464929995, -11076.42931657187, -1539.0964197035337, 35.31575623938516, -5340.412895728695, -2210.0734365073963, -3916.2491460143506, -8082.167277594481, -4452.802771663996, -3169.5444189959076, -4616.506948054665, -3801.9646766143655, -10382.564113445773, -14726.782110545888, 0.0105, -0.10450000000000001, 0.9904999999999999, 192.0, 0.0, 0.0, 0.0, 0.0, 0.0, 0.0, 0.0, 0.0, 0.0, 1.645920711397538E9, 0.0, 2022-02-27 11:11:51.397
50.0, -2881.899819600561, -5633.868948682421, -1666.143735187499, -10782.637987451315, -1122.3704960787888, 324.1002946019524, -5269.401403594185, -2110.094083558808, -2774.477335748355, -7301.465547259516, -4383.2888464079915, -3230.6093848478063, -4586.24268606218, -3682.651064711936, -10258.668393930006, -13909.84820244887, 0.0105, -0.10450000000000001, 0.9904999999999999, 192.0, 0.0, 0.0, 0.0, 0.0, 0.0, 0.0, 0.0, 0.0, 0.0, 1.645920711404671E9, 0.0, 2022-02-27 11:11:51.404
52.0, -3089.949856990559, -5719.252612501695, -1777.9248092084897, -10922.649314719358, -1307.8676233133822, 215.2025956156964, -5330.600479912816, -2247.0879253253847, -5747.7063831933, -8517.132224694757, -4451.1487425743035, -3460.988814948656, -4523.590746353954, -3786.877249107033, -10790.952836388688, -15487.926064482459, 0.0105, -0.10450000000000001, 0.9904999999999999, 192.0, 0.0, 0.0, 0.0, 0.0, 0.0, 0.0, 0.0, 0.0, 0.0, 1.64592071141224E9, 0.0, 2022-02-27 11:11:51.412
54.0, -3220.8640242652923, -5865.410669494948, -1866.3706620181397, -10991.179763219328, -1406.5729268280181, 106.95309721864429, -5296.782290551936, -2116.7772551509447, -2174.7576802680114, -7323.6831812480905, -4419.990410803605, -3042.720620956495, -4641.20562567778, -3716.1339779059863, -10067.4268683704, -13773.122581615757, 0.0105, -0.10450000000000001, 0.9904999999999999, 192.0, 0.0, 0.0, 0.0, 0.0, 0.0, 0.0, 0.0, 0.0, 0.0, 1.645920711420322E9, 0.0, 2022-02-27 11:11:51.420
56.0, -2772.7562514252963, -5533.464912589182, -1606.531632725195, -10731.228975204109, -1028.8731490222394, 405.14771999689583, -5282.924208989645, -2169.8402964878437, -4765.682490549385, -7966.988738416284, -4413.866032822852, -3462.598140549438, -4527.636412100364, -3720.045533185665, -10650.494474231538, -14860.803170299909, 0.01125, -0.10725000000000001, 0.99225, 192.0, 0.0, 48.0, 126.0, 72.0, 15.5, 8.0, 0.0, 0.0, 0.0, 1.645920711428241E9, 0.0, 2022-02-27 11:11:51.428
58.0, -3351.509970606562, -5917.803158498187, -1933.4705988729716, -11084.364185853505, -1533.7096492898047, 45.2622825219968, -5352.885169134756, -2219.148244756251, -4036.2109585059834, -8118.824138501184, -4464.0009956361055, -3186.844669204315, -4620.530262056621, -3800.7129789248684, -10390.208410049489, -14772.692593657088, 0.01125, -0.10725000000000001, 0.99225, 192.0, 0.0, 0.0, 0.0, 0.0, 0.0, 0.0, 0.0, 0.0, 0.0, 1.645920711434862E9, 0.0, 2022-02-27 11:11:51.434
60.0, -2895.892011629583, -5642.563777275536, -1682.5275638732392, -10805.012083651076, -1133.3452026063446, 317.90886138783236, -5275.414022852662, -2109.3564759917826, -2734.5794718956317, -7285.305236018328, -4385.747538298076, -3212.6609340501946, -4593.685816965797, -3680.6170559665034, -10241.345791977143, -13898.448812776664, 0.01125, -0.10725000000000001, 0.99225, 192.0, 0.0, 0.0, 0.0, 0.0, 0.0, 0.0, 0.0, 0.0, 0.0, 1.645920711441896E9, 0.0, 2022-02-27 11:11:51.441
62.0, -3110.334647933799, -5749.002784371708, -1787.558411068727, -10939.54723352757, -1315.713085617195, 222.8245404749561, -5337.753038138514, -2265.9751493901194, -5781.301055109627, -8536.444131904142, -4465.990300892628, -3488.950847262245, -4540.868644817906, -3806.0326941052313, -10795.669054468759, -15498.073756465168, 0.01125, -0.10725000000000001, 0.99225, 192.0, 0.0, 0.0, 0.0, 0.0, 0.0, 0.0, 0.0, 0.0, 0.0, 1.645920711449811E9, 0.0, 2022-02-27 11:11:51.449
64.0, -3258.5490654169403, -5905.777919981232, -1879.714653457958, -11010.514022173169, -1417.8605577779483, 111.89283274326715, -5296.178793451642, -2133.6975257036124, -2212.822701075399, -7363.31282416735, -4432.708553398676, -3062.680728755084, -4660.226960209246, -3736.8763967605114, -10069.729098049296, -13790.556942290896, 0.01125, -0.10725000000000001, 0.99225, 192.0, 0.0, 0.0, 0.0, 0.0, 0.0, 0.0, 0.0, 0.0, 0.0, 1.645920711458031E9, 0.0, 2022-02-27 11:11:51.458
66.0, -2803.378141329067, -5570.367642684894, -1603.245926290265, -10742.002516031565, -1027.8673205217506, 409.4839584212254, -5294.8823922732345, -2178.199848914129, -4750.773876997695, -7983.171401401926, -4426.15949227327, -3479.518411102106, -4533.023182514094, -3738.5527775946593, -10647.007602096512, -14845.13459743674, 0.009625, -0.108625, 0.9921249999999999, 192.0, 0.0, 32.0, 126.0, 72.0, 15.5, 0.0, 0.0, 0.0, 0.0, 1.645920711464484E9, 0.0, 2022-02-27 11:11:51.464
68.0, -3389.351473969397, -5971.179124257461, -1936.0410494853318, -11094.645988302946, -1522.3996665954194, 57.287521038952, -5300.0009417535, -2198.5175846240027, -4062.5860169632456, -8159.012575031827, -4475.221571352669, -3210.3810561157534, -4623.1901196468025, -3815.2863163097286, -10386.050985580801, -14772.82670412382, 0.009625, -0.108625, 0.9921249999999999, 192.0, 0.0, 0.0, 0.0, 0.0, 0.0, 0.0, 0.0, 0.0, 0.0, 1.645920711472499E9, 0.0, 2022-02-27 11:11:51.472
70.0, -2933.957032436971, -5689.748309820689, -1682.751081317792, -10807.38136856334, -1121.8117024674061, 327.47540801470376, -5252.436429552607, -2090.1339757602186, -2734.5794718956317, -7320.665695746625, -4401.282000694514, -3233.358649415809, -4599.139642612892, -3693.9163439174113, -10227.152434248022, -13878.108725322334, 0.009625, -0.108625, 0.9921249999999999, 192.0, 0.0, 0.0, 0.0, 0.0, 0.0, 0.0, 0.0, 0.0, 0.0, 1.645920711480592E9, 0.0, 2022-02-27 11:11:51.480
72.0, -3105.953706020559, -5750.477999505759, -1772.8733149615903, -10930.271259578618, -1287.7287015591505, 236.0120697035873, -5319.111683262788, -2244.986861346586, -5790.822898247588, -8542.143826740245, -4467.890199171329, -3491.208373452231, -4533.5596243810205, -3807.172633072452, -10791.712795700168, -15487.568436571175, 0.009625, -0.108625, 0.9921249999999999, 192.0, 0.0, 0.0, 0.0, 0.0, 0.0, 0.0, 0.0, 0.0, 0.0, 1.645920711487681E9, 0.0, 2022-02-27 11:11:51.487
74.0, -3260.940702073658, -5909.734178749822, -1864.1578393170644, -11009.93287681733, -1405.1200634384231, 122.01817298152126, -5292.133127705232, -2124.3544965212936, -2222.0092680465305, -7381.685958109612, -4428.059390551972, -3057.9421589305593, -4648.91697751486, -3734.8423880150785, -10063.068278201614, -13796.21193363809, 0.009625, -0.108625, 0.9921249999999999, 192.0, 0.0, 0.0, 0.0, 0.0, 0.0, 0.0, 0.0, 0.0, 0.0, 1.645920711495126E9, 0.0, 2022-02-27 11:11:51.495
76.0, -2805.5909640301425, -5574.212142731207, -1597.926211109902, -10736.660449106748, -1010.142387168692, 417.1059032804851, -5266.160400648165, -2142.2582438299946, -4699.901306617416, -7969.693299495376, -4416.369428201846, -3472.187038920765, -4527.547005122543, -3725.0970274325646, -10632.814244367391, -14820.771195980455, 0.0078125, -0.1053125, 0.9920625, 192.0, 0.0, 24.0, 126.0, 104.0, 15.5, 0.0, 0.0, 0.0, 0.0, 1.645920711510239E9, 0.0, 2022-02-27 11:11:51.510
78.0, -3389.7314536251374, -5968.183990500449, -1929.5366918488376, -11090.53326732317, -1521.0809136725563, 65.22239032058602, -5324.923136821168, -2187.028787973975, -4122.354581636737, -8182.727775898908, -4484.765766235086, -3215.4996055960187, -4621.558442301565, -3805.853880149589, -10401.63015146615, -14796.005463123975, 0.0078125, -0.1053125, 0.9920625, 192.0, 0.0, 0.0, 0.0, 0.0, 0.0, 0.0, 0.0, 0.0, 0.0, 1.645920711516797E9, 0.0, 2022-02-27 11:11:51.516
80.0, -2941.7130877629625, -5695.224487212239, -1682.6840260844263, -10806.822574951957, -1113.8097779524062, 340.64058549887966, -5251.0282696519225, -2079.9415802885987, -2737.3063847191793, -7332.847396474767, -4410.9379542992065, -3238.5666058738957, -4591.584752986998, -3686.182640335875, -10231.868652328092, -13880.030975345491, 0.0078125, -0.1053125, 0.9920625, 192.0, 0.0, 0.0, 0.0, 0.0, 0.0, 0.0, 0.0, 0.0, 0.0, 1.645920711524808E9, 0.0, 2022-02-27 11:11:51.524
82.0, -3095.783662293394, -5733.177749297351, -1763.9549689239227, -10917.307247794539, -1272.7306810296395, 252.44060187823797, -5320.966878052578, -2234.503893197047, -5797.126090183984, -8546.144788997744, -4468.292530571524, -3486.939190261268, -4516.013504983604, -3786.3184554956506, -10789.343510787907, -15484.68506153644, 0.0078125, -0.1053125, 0.9920625, 192.0, 0.0, 0.0, 0.0, 0.0, 0.0, 0.0, 0.0, 0.0, 0.0, 1.645920711532774E9, 0.0, 2022-02-27 11:11:51.532
84.0, -3261.231274751577, -5903.252172857782, -1863.330824772218, -11003.428519180838, -1401.8567087479485, 134.93748127668874, -5299.375092908752, -2110.518766703459, -2237.5213786985137, -7380.478963909026, -4425.623050406343, -3037.020926120392, -4631.594375561997, -3706.1650998789196, -10064.811714269128, -13798.268294127976, 0.0078125, -0.1053125, 0.9920625, 192.0, 0.0, 0.0, 0.0, 0.0, 0.0, 0.0, 0.0, 0.0, 0.0, 1.645920711539935E9, 0.0, 2022-02-27 11:11:51.539
86.0, -2795.1303476250587, -5569.361814184405, -1592.2935715071646, -10734.425274661216, -1004.7332650105078, 416.8376823470214, -5268.216761138054, -2142.9511479081093, -4661.188085220824, -7942.602985215543, -4412.480224666622, -3450.1035153989214, -4506.826938012474, -3717.184509895386, -10625.460520441595, -14799.313521303358, 0.00590625, -0.10365625, 0.9900312499999999, 192.0, 0.0, 16.0, 126.0, 104.0, 15.0, 112.0, 0.0, 0.0, 0.0, 1.6459207115483E9, 0.0, 2022-02-27 11:11:51.548
88.0, -3377.9520842971906, -5958.282167706749, -1924.3063836462957, -11089.035700444663, -1520.6562305279053, 59.85797165131231, -5318.843462329324, -2188.2357821745613, -4176.736375896499, -8190.461479480444, -4475.623902752865, -3208.4364543481415, -4595.026921633115, -3807.8878888950217, -10415.309419072797, -14833.17641415315, 0.00590625, -0.10365625, 0.9900312499999999, 192.0, 0.0, 0.0, 0.0, 0.0, 0.0, 0.0, 0.0, 0.0, 0.0, 1.645920711555419E9, 0.0, 2022-02-27 11:11:51.555
90.0, -2944.7082215199734, -5708.769644352155, -1683.5110406292727, -10815.673865756258, -1129.5007025600319, 320.14403583336303, -5259.879560456224, -2079.9862837775095, -2679.0800904131047, -7317.961134667532, -4399.896192538285, -3218.0253527194686, -4578.553685969554, -3699.7725009647015, -10228.605297637618, -13865.547044938452, 0.00590625, -0.10365625, 0.9900312499999999, 192.0, 0.0, 0.0, 0.0, 0.0, 0.0, 0.0, 0.0, 0.0, 0.0, 1.645920711562419E9, 0.0, 2022-02-27 11:11:51.562
92.0, -3073.8566009827377, -5738.56451971108, -1754.6342914860597, -10908.813584901523, -1265.3769571038433, 254.92164551277705, -5308.114624990777, -2230.324116983905, -5804.748035043244, -8551.240986733555, -4457.988376377628, -3493.085919986477, -4502.468347843689, -3806.680894694435, -10808.253086597097, -15495.413898874987, 0.00590625, -0.10365625, 0.9900312499999999, 192.0, 0.0, 0.0, 0.0, 0.0, 0.0, 0.0, 0.0, 0.0, 0.0, 1.645920711569542E9, 0.0, 2022-02-27 11:11:51.569
94.0, -3266.5956934208507, -5918.6972282764, -1873.6796824550252, -11012.302161729594, -1420.833339790504, 116.98903047907717, -5280.487868844017, -2126.679077944646, -2278.156850118262, -7411.503185212992, -4422.136178271315, -3043.368821545699, -4620.82083473454, -3731.534329835693, -10076.144048707969, -13836.445073657642, 0.00590625, -0.10365625, 0.9900312499999999, 192.0, 0.0, 0.0, 0.0, 0.0, 0.0, 0.0, 0.0, 0.0, 0.0, 1.645920711577086E9, 0.0, 2022-02-27 11:11:51.577
96.0, -2793.699835979919, -5574.189790986752, -1592.8076616296366, -10729.105559480853, -1000.1064539082593, 432.6403656769235, -5249.37424056223, -2134.4574850150925, -4592.322360554023, -7924.5204239512, -4412.480224666622, -3447.3989543198295, -4498.981475708661, -3721.9230797199107, -10616.586877892838, -14764.735372631, 0.007953125, -0.102828125, 0.988015625, 192.0, 0.0, 40.0, 126.0, 104.0, 15.0, 104.0, 0.0, 0.0, 0.0, 1.645920711584967E9, 0.0, 2022-02-27 11:11:51.584
98.0, -3369.972511526646, -5946.927481523452, -1920.8195115112678, -11078.23980787275, -1508.541585033129, 72.66552122420326, -5313.032008770944, -2190.381549642271, -4226.021972420451, -8197.949313872972, -4476.339158575435, -3210.5375183269407, -4586.421500017822, -3804.3116097821726, -10427.982858178957, -14852.957707996096, 0.007953125, -0.102828125, 0.988015625, 192.0, 0.0, 0.0, 0.0, 0.0, 0.0, 0.0, 0.0, 0.0, 0.0, 1.645920711592955E9, 0.0, 2022-02-27 11:11:51.592
100.0, -2944.9764424534374, -5703.449929171793, -1685.0086075077782, -10813.9527814332, -1121.7669989784956, 324.9720126357094, -5236.32082180033, -2070.7550133174677, -2637.4611422373227, -7296.078776845787, -4399.739730327097, -3207.0729979363678, -4566.550799197054, -3684.1709833348973, -10216.35654167611, -13852.40421919873, 0.007953125, -0.102828125, 0.988015625, 192.0, 0.0, 0.0, 0.0, 0.0, 0.0, 0.0, 0.0, 0.0, 0.0, 1.645920711599704E9, 0.0, 2022-02-27 11:11:51.599
102.0, -3075.8235544948047, -5734.161226053385, -1753.1367246075542, -10912.188698314274, -1259.073765167447, 257.536799614048, -5304.7395115780255, -2227.150169271251, -5804.971552487797, -8541.696791851138, -4468.583103249443, -3497.1092339884326, -4496.500432074122, -3800.5118132247703, -10803.201592350197, -15492.195247673422, 0.007953125, -0.102828125, 0.988015625, 192.0, 0.0, 0.0, 0.0, 0.0, 0.0, 0.0, 0.0, 0.0, 0.0, 1.645920711607665E9, 0.0, 2022-02-27 11:11:51.607
104.0, -3277.5703999484062, -5921.7817690112315, -1867.0188626073436, -11010.84929834, -1414.7983687875712, 126.19794919466368, -5280.756089777481, -2101.2651444989615, -2272.8371349378986, -7405.222345021051, -4432.350925487391, -3045.5816442467744, -4621.670201023841, -3734.305946148151, -10074.981757996293, -13832.801739311426, 0.007953125, -0.102828125, 0.988015625, 192.0, 0.0, 0.0, 0.0, 0.0, 0.0, 0.0, 0.0, 0.0, 0.0, 1.645920711615678E9, 0.0, 2022-02-27 11:11:51.615
106.0, -2787.5978097436205, -5566.836067060955, -1585.185716770377, -10723.092940222376, -997.5807067848095, 434.76378140017766, -5247.541397516894, -2146.1697991096735, -4568.2495317756575, -7910.930563322373, -4414.380122945324, -3445.4767042966732, -4502.870679243884, -3722.437169842383, -10611.311866201386, -14749.089151512284, 0.01, -0.10200000000000001, 0.982, 192.0, 0.0, 40.0, 126.0, 104.0, 15.0, 88.0, 0.0, 0.0, 0.0, 1.645920711622862E9, 0.0, 2022-02-27 11:11:51.622
108.0, -3368.43024115923, -5949.475580391358, -1914.7845405083349, -11075.557598538113, -1505.278230342654, 81.49446028404955, -5318.91051756269, -2193.220221188095, -4273.0500427544175, -8218.490567027398, -4470.035966639039, -3215.1866811736445, -4579.157183069848, -3809.8101389181784, -10435.671858271582, -14877.6116821303, 0.01, -0.10200000000000001, 0.982, 192.0, 0.0, 0.0, 0.0, 0.0, 0.0, 0.0, 0.0, 0.0, 0.0, 1.645920711637336E9, 0.0, 2022-02-27 11:11:51.637
110.0, -2947.8821692326273, -5700.857126814977, -1685.8803255415353, -10808.18603136373, -1138.754324764529, 338.42776279780423, -5245.976775405023, -2057.3663183887384, -2600.781929586164, -7280.700776660536, -4391.827212789919, -3192.5443640404183, -4566.014357330127, -3685.1321083464754, -10206.722939815872, -13829.046646242936, 0.01, -0.10200000000000001, 0.982, 192.0, 0.0, 0.0, 0.0, 0.0, 0.0, 0.0, 0.0, 0.0, 0.0, 1.645920711645389E9, 0.0, 2022-02-27 11:11:51.645
112.0, -3063.686557255573, -5719.632592157435, -1743.5701779806827, -10886.283026490573, -1244.612186504863, 288.27044824009516, -5286.768709035959, -2201.5574218699244, -5803.5633925871125, -8528.218689944588, -4458.077783355449, -3494.762300820625, -4489.236115126147, -3793.336903254617, -10802.799260950002, -15476.861950977082, 0.01, -0.10200000000000001, 0.982, 192.0, 0.0, 0.0, 0.0, 0.0, 0.0, 0.0, 0.0, 0.0, 0.0, 1.645920711651905E9, 0.0, 2022-02-27 11:11:51.651
114.0, -3298.044597869468, -5932.532958094234, -1879.1111563576649, -11014.202060008296, -1421.5038921241633, 127.29318467297372, -5271.971854206545, -2103.768539877956, -2327.978888509141, -7440.918080916176, -4434.653155166287, -3054.8352664512718, -4616.462244565755, -3732.9648414808325, -10076.121696963513, -13859.065039046412, 0.01, -0.10200000000000001, 0.982, 192.0, 0.0, 0.0, 0.0, 0.0, 0.0, 0.0, 0.0, 0.0, 0.0, 1.645920711660454E9, 0.0, 2022-02-27 11:11:51.660
116.0, -2793.8786499355615, -5567.081936249964, -1586.8173941156142, -10717.88498376429, -1000.7323027530078, 445.2020460608061, -5263.969929691545, -2138.212578083584, -4487.850306969918, -7885.673092087876, -4412.770797344541, -3445.275538596575, -4490.2419436266355, -3722.2583558867404, -10594.883334026736, -14710.375930115693, 0.012, -0.106, 0.986, 192.0, 0.0, 48.0, 126.0, 88.0, 15.0, 104.0, 0.0, 0.0, 0.0, 1.645920711667925E9, 0.0, 2022-02-27 11:11:51.667
118.0, -3379.8519825758917, -5955.13057173855, -1919.9030899886002, -11076.876351460976, -1503.8477186975144, 77.60525674882612, -5300.313866175874, -2188.571058341391, -4328.907052148229, -8238.405971337077, -4469.276007327558, -3229.4694458805857, -4571.982273099694, -3813.0287901197426, -10448.479407844474, -14898.890542851752, 0.012, -0.106, 0.986, 192.0, 0.0, 0.0, 0.0, 0.0, 0.0, 0.0, 0.0, 0.0, 0.0, 1.645920711675185E9, 0.0, 2022-02-27 11:11:51.675
120.0, -2973.3855096561324, -5728.148606794907, -1693.6140291230715, -10824.435749582739, -1148.5667405804088, 319.0264486105977, -5260.170133134143, -2086.5353449029144, -2583.615789844488, -7296.637570457169, -4399.404454160268, -3206.581259558351, -4567.511924208632, -3705.49454754526, -10197.670483311473, -13826.744416564039, 0.012, -0.106, 0.986, 192.0, 0.0, 0.0, 0.0, 0.0, 0.0, 0.0, 0.0, 0.0, 0.0, 1.645920711682543E9, 0.0, 2022-02-27 11:11:51.682
122.0, -3071.3532056037434, -5733.669487675368, -1743.950157636423, -10905.125547066396, -1253.3517185868882, 273.3171311994948, -5315.155424494198, -2237.409619976237, -5816.303886926638, -8532.73374232456, -4464.090402613927, -3512.4872341736836, -4490.0631296709935, -3810.234822062829, -10807.515479030071, -15486.652015048507, 0.012, -0.106, 0.986, 192.0, 0.0, 0.0, 0.0, 0.0, 0.0, 0.0, 0.0, 0.0, 0.0, 1.645920711689599E9, 0.0, 2022-02-27 11:11:51.689
124.0, -3297.172879835711, -5937.606804085589, -1881.882772670123, -11031.189385794329, -1423.873177036426, 124.63332708279218, -5289.853249770791, -2105.4002172231935, -2330.2587664435823, -7444.583767006847, -4444.577329704443, -3065.3852898341765, -4624.017134191648, -3753.4390394018938, -10076.702842319351, -13862.21663501461, 0.012, -0.106, 0.986, 192.0, 0.0, 0.0, 0.0, 0.0, 0.0, 0.0, 0.0, 0.0, 0.0, 1.64592071169763E9, 0.0, 2022-02-27 11:11:51.697
126.0, -2792.5598970126985, -5576.5143724101035, -1596.6521616759494, -10731.586603115393, -999.8158812303402, 446.72196468376694, -5268.730851260526, -2137.0502873719083, -4489.906667459806, -7888.936446778352, -4419.833948592419, -3452.383393333363, -4500.926077476272, -3732.1601786804413, -10595.531534615939, -14708.051348692341, 0.012, -0.10400000000000001, 0.988, 192.0, 0.0, 48.0, 126.0, 96.0, 15.0, 112.0, 0.0, 0.0, 0.0, 1.645920711704843E9, 0.0, 2022-02-27 11:11:51.704
128.0, -3370.5536568824837, -5952.493065892824, -1924.1499214351086, -11087.471078332792, -1509.927393189358, 90.23399236607462, -5315.848328572313, -2201.333904425371, -4394.420015146735, -8258.991927980414, -4477.389690564834, -3240.332393685865, -4576.631435946398, -3818.2143948333737, -10460.884626017169, -14924.684455953176, 0.012, -0.10400000000000001, 0.988, 192.0, 0.0, 0.0, 0.0, 0.0, 0.0, 0.0, 0.0, 0.0, 0.0, 1.645920711712261E9, 0.0, 2022-02-27 11:11:51.712
130.0, -2977.006492257892, -5731.791941141122, -1705.728674617848, -10838.204424167208, -1160.1896476971683, 320.8816434003882, -5266.696842515093, -2077.5052401429703, -2558.1571529098933, -7295.140003578664, -4393.3247796684245, -3203.4743670790635, -4569.724746909707, -3695.2574485847294, -10199.816250779182, -13813.802756524416, 0.012, -0.10400000000000001, 0.988, 192.0, 0.0, 0.0, 0.0, 0.0, 0.0, 0.0, 0.0, 0.0, 0.0, 1.645920711720246E9, 0.0, 2022-02-27 11:11:51.720
132.0, -3061.406679321132, -5730.204967284795, -1747.4593815159062, -10903.650331932347, -1243.293433582, 283.9342098157656, -5281.493697344506, -2224.7138291256224, -5818.315543927615, -8537.919347038192, -4458.234245566636, -3516.376437708907, -4491.605400038409, -3800.8023859026894, -10810.33179883144, -15477.845427733117, 0.012, -0.10400000000000001, 0.988, 192.0, 0.0, 0.0, 0.0, 0.0, 0.0, 0.0, 0.0, 0.0, 0.0, 1.64592071172822E9, 0.0, 2022-02-27 11:11:51.728
134.0, -3295.742368190571, -5941.004269242796, -1884.7661477048575, -11026.98725783673, -1430.0422585060905, 130.3777254078061, -5286.858116013779, -2109.602345180791, -2346.4190776847695, -7460.632319525757, -4428.998163819095, -3053.404754806132, -4616.10461665447, -3737.5693008386256, -10073.484191117786, -13869.50330370704, 0.012, -0.10400000000000001, 0.988, 192.0, 0.0, 0.0, 0.0, 0.0, 0.0, 0.0, 0.0, 0.0, 0.0, 1.645920711734913E9, 0.0, 2022-02-27 11:11:51.734
136.0, -2795.286809836246, -5583.890448080355, -1586.6609319044271, -10732.972411271621, -995.5243462949213, 446.36433677248203, -5247.519045772439, -2139.71014496209, -4434.11671329936, -7865.131838933449, -4405.4170734187455, -3435.9101576698017, -4493.907629717306, -3719.754960507746, -10577.560732073873, -14675.417801787593, 0.014, -0.106, 0.99, 192.0, 0.0, 56.0, 126.0, 88.0, 15.0, 120.0, 0.0, 0.0, 0.0, 1.645920711742813E9, 0.0, 2022-02-27 11:11:51.742
138.0, -3381.506011665584, -5967.535789911246, -1924.5746045797594, -11086.219380643295, -1507.893384443925, 89.20581212113049, -5304.7395115780255, -2178.4904215920474, -4443.705611670686, -8290.798460340317, -4472.740527718131, -3251.4188589356972, -4568.383642242389, -3820.9636594013764, -10458.78356203837, -14946.700924241653, 0.014, -0.106, 0.99, 192.0, 0.0, 0.0, 0.0, 0.0, 0.0, 0.0, 0.0, 0.0, 0.0, 1.645920711757017E9, 0.0, 2022-02-27 11:11:51.757
140.0, -2994.619666888674, -5742.274909290661, -1715.630497411549, -10840.640764312837, -1168.6609588457297, 323.4967975016591, -5256.213874365553, -2061.635501579702, -2539.582853267533, -7289.194439553552, -4404.321837940435, -3202.2226693895664, -4575.536200468087, -3697.649085241447, -10183.007738948792, -13797.664797027684, 0.014, -0.106, 0.99, 192.0, 0.0, 0.0, 0.0, 0.0, 0.0, 0.0, 0.0, 0.0, 0.0, 1.64592071176451E9, 0.0, 2022-02-27 11:11:51.764
142.0, -3050.4096210491207, -5725.578156182547, -1743.301957047219, -10902.01865458711, -1241.2594248365672, 300.0051140791314, -5309.545136635917, -2220.2658319790166, -5815.745093315255, -8525.201204443121, -4463.039870624527, -3517.561080165038, -4491.046606427027, -3790.162955541963, -10809.974170920155, -15470.514055551776, 0.014, -0.106, 0.99, 192.0, 0.0, 0.0, 0.0, 0.0, 0.0, 0.0, 0.0, 0.0, 0.0, 1.645920711772514E9, 0.0, 2022-02-27 11:11:51.772
144.0, -3300.704455459649, -5945.184045455939, -1893.6844937425249, -11042.164092321884, -1447.7224883702384, 114.64209731126992, -5296.223496940554, -2119.8841476302323, -2371.207162285705, -7475.719747033089, -4432.5967946763985, -3057.98686241947, -4617.132796899414, -3746.3311846651063, -10086.492906390775, -13890.960978384135, 0.014, -0.106, 0.99, 192.0, 0.0, 0.0, 0.0, 0.0, 0.0, 0.0, 0.0, 0.0, 0.0, 1.645920711780577E9, 0.0, 2022-02-27 11:11:51.780
146.0, -2780.3334927956457, -5567.439564161249, -1595.8698506200137, -10729.217318203131, -1006.2755353779239, 447.10194433950716, -5266.987415193012, -2134.4574850150925, -4398.420977404235, -7853.330117861047, -4401.416111161246, -3436.580710003461, -4498.266219886091, -3724.672344287914, -10581.00290071999, -14671.23802557445, 0.014, -0.10200000000000001, 0.988, 192.0, 0.0, 56.0, 126.0, 104.0, 15.0, 112.0, 0.0, 0.0, 0.0, 1.645920711787153E9, 0.0, 2022-02-27 11:11:51.787
148.0, -3337.2719093885316, -5925.2462894018045, -1921.132435933642, -11080.609092785013, -1507.1110733879893, 86.83652720886793, -5332.187453769142, -2215.2590412210275, -4494.1758506507695, -8293.771242352872, -4458.994204878117, -3250.815361835404, -4567.646034675364, -3814.2804878092397, -10489.226637986498, -14987.626968339322, 0.014, -0.10200000000000001, 0.988, 192.0, 0.0, 0.0, 0.0, 0.0, 0.0, 0.0, 0.0, 0.0, 0.0, 1.64592071179523E9, 0.0, 2022-02-27 11:11:51.795
150.0, -2973.184343956035, -5721.711304391779, -1717.6421544125265, -10844.395857381327, -1179.8368310733833, 299.1110443009191, -5276.643368797704, -2078.153440732174, -2462.625797107911, -7247.821360566779, -4380.047843461972, -3172.2489800749995, -4565.52261895211, -3692.4187770389053, -10177.375099346054, -13791.518067302475, 0.014, -0.10200000000000001, 0.988, 192.0, 0.0, 0.0, 0.0, 0.0, 0.0, 0.0, 0.0, 0.0, 0.0, 1.645920711803128E9, 0.0, 2022-02-27 11:11:51.803
152.0, -3020.972373601481, -5697.504365146681, -1732.4613609863952, -10889.34521548095, -1247.7190789841509, 285.4094249498159, -5331.941584580134, -2231.218186762117, -5776.137802140451, -8498.58027679685, -4440.330498257935, -3505.4240829258065, -4487.93971394774, -3795.1920980444074, -10813.863374455379, -15465.216692115868, 0.014, -0.10200000000000001, 0.988, 192.0, 0.0, 0.0, 0.0, 0.0, 0.0, 0.0, 0.0, 0.0, 0.0, 1.645920711810366E9, 0.0, 2022-02-27 11:11:51.810
154.0, -3299.7880339369817, -5934.879891262042, -1895.7632059768684, -11045.762723179188, -1471.0800613260344, 102.5274518164935, -5324.319639720874, -2134.256319314995, -2395.6823224642662, -7494.67402633119, -4427.142969029304, -3056.6234060076963, -4620.016171934149, -3745.4147631424385, -10094.651293116964, -13920.621743276328, 0.014, -0.10200000000000001, 0.988, 192.0, 0.0, 0.0, 0.0, 0.0, 0.0, 0.0, 0.0, 0.0, 0.0, 1.645920711816814E9, 0.0, 2022-02-27 11:11:51.816
156.0, -2777.807745672196, -5565.807886816012, -1599.7814058996923, -10733.0841699939, -1022.7040675525747, 434.1379325554291, -5285.76288053547, -2139.486627517537, -4310.891546117252, -7818.304934299581, -4406.780529830519, -3434.859625680402, -4501.775443765574, -3716.536309306182, -10568.061240680367, -14634.603516412202, 0.014, -0.106, 0.99, 192.0, 0.0, 56.0, 126.0, 88.0, 15.0, 120.0, 0.0, 0.0, 0.0, 1.645920711825096E9, 0.0, 2022-02-27 11:11:51.825
158.0, -3330.298165118476, -5920.105388177084, -1920.461883599983, -11074.685880504356, -1521.6397072839388, 82.32147482889592, -5348.079544076865, -2218.8800238227873, -4534.341935436957, -8302.175498268069, -4462.794001435519, -3254.682213626172, -4570.060023076538, -3813.0511418641977, -10499.910771836136, -15019.63466639932, 0.014, -0.106, 0.99, 192.0, 0.0, 0.0, 0.0, 0.0, 0.0, 0.0, 0.0, 0.0, 0.0, 1.645920711832831E9, 0.0, 2022-02-27 11:11:51.832
160.0, -2961.8520095171943, -5707.719112362756, -1712.858881099091, -10840.081970701453, -1198.4781859491095, 292.1820035197739, -5297.251677185497, -2096.5265746744367, -2415.4859680516684, -7245.541482632338, -4378.594980072377, -3159.620244457751, -4569.612988187431, -3676.3255210310845, -10175.72107025636, -13789.64052076823, 0.014, -0.106, 0.99, 192.0, 0.0, 0.0, 0.0, 0.0, 0.0, 0.0, 0.0, 0.0, 0.0, 1.645920711839951E9, 0.0, 2022-02-27 11:11:51.839
162.0, -2994.3961494441214, -5668.603559565969, -1721.307840503197, -10873.274311217585, -1241.4382387922096, 291.2655819971063, -5339.183549783654, -2240.784733388988, -5746.499388992714, -8471.15468635019, -4431.568614431455, -3493.6447135978597, -4483.737585990141, -3775.1872867569077, -10816.18795587873, -15471.408125329986, 0.014, -0.106, 0.99, 192.0, 0.0, 0.0, 0.0, 0.0, 0.0, 0.0, 0.0, 0.0, 0.0, 1.645920711847451E9, 0.0, 2022-02-27 11:11:51.847
164.0, -3281.549010461451, -5916.17148115295, -1892.812775708768, -11035.32445851856, -1467.2355612797214, 106.0143239515214, -5320.564546652383, -2128.646031456713, -2388.239191560649, -7478.558418578914, -4416.816463090952, -3032.5505772293304, -4616.082264910015, -3736.5411205936816, -10095.701825106362, -13933.965734716146, 0.014, -0.106, 0.99, 192.0, 0.0, 0.0, 0.0, 0.0, 0.0, 0.0, 0.0, 0.0, 0.0, 1.645920711855581E9, 0.0, 2022-02-27 11:11:51.855
166.0, -2755.232483772336, -5544.216101672185, -1590.3936732284635, -10726.64686759077, -1013.7410180259965, 436.6860314233341, -5282.7900985229135, -2140.738325207034, -4249.133676187239, -7790.946399086285, -4389.524983111022, -3408.7304364121483, -4492.968856450183, -3706.2768586011957, -10558.494694053496, -14625.975743052453, 0.01, -0.10400000000000001, 0.992, 192.0, 0.0, 40.0, 126.0, 96.0, 15.5, 0.0, 0.0, 0.0, 0.0, 1.645920711862593E9, 0.0, 2022-02-27 11:11:51.862
168.0, -3328.5547290509617, -5915.299763119193, -1918.80785451029, -11080.027947429175, -1522.8467014845255, 87.88705919826737, -5350.739401667047, -2194.807195044422, -4566.304930008046, -8299.605047655708, -4462.995167135617, -3252.3352804583647, -4564.226217773702, -3807.3514470280943, -10507.353902739753, -15043.036942844028, 0.01, -0.10400000000000001, 0.992, 192.0, 0.0, 0.0, 0.0, 0.0, 0.0, 0.0, 0.0, 0.0, 0.0, 1.645920711868994E9, 0.0, 2022-02-27 11:11:51.868
170.0, -2979.1746114700572, -5725.600507927002, -1725.1523405495097, -10855.258805186606, -1205.228412774612, 291.31028548601694, -5287.998054981, -2058.5956643337804, -2414.0554564065287, -7241.920500030577, -4390.776680800519, -3164.850552660293, -4577.816078402529, -3673.978587863277, -10173.083564410636, -13787.96413993408, 0.01, -0.10400000000000001, 0.992, 192.0, 0.0, 0.0, 0.0, 0.0, 0.0, 0.0, 0.0, 0.0, 0.0, 1.645920711885039E9, 0.0, 2022-02-27 11:11:51.885
172.0, -2988.5176406523756, -5670.436402611304, -1724.4594364713953, -10875.375375196383, -1233.8833491663158, 297.59112567795825, -5342.044573073933, -2214.8567098208323, -5755.842418175032, -8473.81454394037, -4448.287719284024, -3496.6174956104155, -4481.07772839996, -3767.677100619924, -10817.193784379218, -15469.038840417725, 0.01, -0.10400000000000001, 0.992, 192.0, 0.0, 0.0, 0.0, 0.0, 0.0, 0.0, 0.0, 0.0, 0.0, 1.645920711892218E9, 0.0, 2022-02-27 11:11:51.892
174.0, -3268.8979230997475, -5898.982989666819, -1894.131528631631, -11035.23505154074, -1467.4590787242746, 101.76749250501305, -5309.366322680274, -2126.8131884113777, -2405.9864766581627, -7491.567133851902, -4418.336381713913, -3029.3542777722214, -4607.3427328279895, -3733.9706699813214, -10096.774708840217, -13952.495330869597, 0.01, -0.10400000000000001, 0.992, 192.0, 0.0, 0.0, 0.0, 0.0, 0.0, 0.0, 0.0, 0.0, 0.0, 1.645920711899713E9, 0.0, 2022-02-27 11:11:51.899
176.0, -2736.836998085618, -5519.09274090442, -1587.3314842380864, -10715.493347107571, -1015.0374192044043, 436.7530866567, -5284.131203190232, -2134.479836759548, -4193.723701682532, -7762.559683628045, -4377.812669016441, -3384.456441933685, -4491.717158760686, -3703.169966121908, -10550.023382904934, -14607.423795154547, 0.012, -0.108, 0.99, 192.0, 0.0, 48.0, 126.0, 80.0, 15.0, 120.0, 0.0, 0.0, 0.0, 1.645920711907664E9, 0.0, 2022-02-27 11:11:51.907
178.0, -3302.023208382512, -5886.35425404957, -1903.5416130473154, -11064.985223410753, -1512.6990095018161, 87.88705919826737, -5351.409954000706, -2222.925689569198, -4620.15028240088, -8301.59435291223, -4445.225530293647, -3239.483027396563, -4555.844313602962, -3806.435025505427, -10523.715379681038, -15080.431411317757, 0.012, -0.108, 0.99, 192.0, 0.0, 0.0, 0.0, 0.0, 0.0, 0.0, 0.0, 0.0, 0.0, 1.645920711915749E9, 0.0, 2022-02-27 11:11:51.915
180.0, -2974.3913381566213, -5717.844452601011, -1721.4866544588394, -10850.654345828814, -1211.8892326222935, 281.09553826994164, -5287.327502647341, -2086.669455369646, -2362.758202881599, -7225.491967855927, -4377.410337616246, -3136.3520784797765, -4578.218409802725, -3692.1282043609867, -10157.43734329192, -13781.325671830855, 0.012, -0.108, 0.99, 192.0, 0.0, 0.0, 0.0, 0.0, 0.0, 0.0, 0.0, 0.0, 0.0, 1.645920711922266E9, 0.0, 2022-02-27 11:11:51.922
182.0, -2970.2562654323897, -5655.125457659418, -1711.2495554983086, -10859.259767444108, -1220.6287647043187, 293.5901634204583, -5333.640317158737, -2225.8537680928434, -5729.08738006203, -8457.073087343346, -4434.362582488368, -3497.712731088726, -4489.750205248619, -3791.437004975916, -10809.415377308773, -15460.835750202627, 0.012, -0.108, 0.99, 192.0, 0.0, 0.0, 0.0, 0.0, 0.0, 0.0, 0.0, 0.0, 0.0, 1.64592071193027E9, 0.0, 2022-02-27 11:11:51.930
184.0, -3281.3701965058085, -5910.717655505855, -1897.1266623886422, -11033.022228839664, -1482.9041341428917, 84.28842834096294, -5344.34680275283, -2144.404011297704, -2452.2769394251036, -7510.052026516441, -4422.3820474603235, -3032.2823562958665, -4626.967564459749, -3756.233007458807, -10107.838822345593, -13991.834401110937, 0.013000000000000001, -0.109, 0.991, 192.0, 0.0, 56.0, 126.0, 72.0, 15.5, 0.0, 0.0, 0.0, 0.0, 1.64592071193739E9, 0.0, 2022-02-27 11:11:51.937
186.0, -2748.5046086912885, -5532.794360255523, -1594.4169872304187, -10714.152242440254, -1028.7613902999628, 419.94457482630906, -5313.032008770944, -2138.927833906154, -4126.757875294433, -7738.889186249875, -4384.518192353034, -3379.6508168757937, -4511.029065970071, -3714.234079627285, -10546.894138681191, -14578.970024462942, 0.013000000000000001, -0.109, 0.991, 192.0, 0.0, 0.0, 0.0, 0.0, 0.0, 0.0, 0.0, 0.0, 0.0, 1.645920711945404E9, 0.0, 2022-02-27 11:11:51.945
188.0, -3315.2777928445093, -5895.45141404288, -1910.9847439509326, -11066.415735055893, -1518.6445735269278, 73.17961134667533, -5327.359476966796, -2227.7760181159997, -4649.811047293073, -8316.748835652928, -4459.687108956231, -3249.4295536791747, -4573.993930100672, -3820.5166245122705, -10532.454911763061, -15090.713213767198, 0.013000000000000001, -0.109, 0.991, 192.0, 0.0, 0.0, 0.0, 0.0, 0.0, 0.0, 0.0, 0.0, 0.0, 1.645920711951902E9, 0.0, 2022-02-27 11:11:51.951
190.0, -2982.214448715979, -5717.956211323287, -1726.2475760278198, -10855.638784842347, -1222.975697872126, 273.9653317886987, -5292.513107360972, -2080.187449477607, -2350.6882608757332, -7219.792273019823, -4382.730052796609, -3147.080915818324, -4583.962808127739, -3706.20980336783, -10155.984479902325, -13776.073011883856, 0.013000000000000001, -0.109, 0.991, 192.0, 0.0, 0.0, 0.0, 0.0, 0.0, 0.0, 0.0, 0.0, 0.0, 1.64592071195987E9, 0.0, 2022-02-27 11:11:51.959
192.0, -2958.342785637711, -5645.648318010369, -1705.3039914731971, -10858.253938943619, -1208.9835058431038, 301.1674047908074, -5338.937680594645, -2235.7108873976335, -5713.485862432225, -8444.690220915107, -4426.673582395742, -3497.8468415554576, -4485.101042401915, -3795.013284088765, -10811.404682565295, -15459.427590301942, 0.013000000000000001, -0.109, 0.991, 192.0, 0.0, 0.0, 0.0, 0.0, 0.0, 0.0, 0.0, 0.0, 0.0, 1.645920711967961E9, 0.0, 2022-02-27 11:11:51.967
194.0, -3284.8347168963815, -5910.3376758501145, -1898.6018775226926, -11041.046505099119, -1470.2753985256434, 98.30297211444046, -5333.237985758542, -2144.962804909087, -2455.4955906266678, -7510.275543960995, -4410.647381621287, -3032.7070394405177, -4613.3330003420115, -3761.3292051946173, -10103.793156599184, -14004.731357661649, 0.0125, -0.1095, 0.9904999999999999, 192.0, 0.0, 48.0, 126.0, 72.0, 15.0, 120.0, 0.0, 0.0, 0.0, 1.645920711975034E9, 0.0, 2022-02-27 11:11:51.975
196.0, -2760.8874751195285, -5544.283156905551, -1606.8669088920246, -10720.187213443187, -1015.663268049153, 428.7064586527895, -5301.766729565469, -2118.4312842406375, -4098.862898214209, -7726.729837266188, -4388.943837755184, -3385.283456478531, -4506.89399324584, -3722.4818733312936, -10529.638591961693, -14570.096381914185, 0.0125, -0.1095, 0.9904999999999999, 192.0, 0.0, 0.0, 0.0, 0.0, 0.0, 0.0, 0.0, 0.0, 0.0, 1.645920711982533E9, 0.0, 2022-02-27 11:11:51.982
198.0, -3310.002781153057, -5890.8469546850865, -1921.8476917562118, -11057.475037273769, -1507.2898873436318, 92.24564936705225, -5359.188361071153, -2210.5204713965027, -4750.438600830866, -8344.330888310777, -4467.64432998232, -3273.2118097796215, -4573.569246956021, -3828.89852868301, -10554.180807373621, -15141.339914958467, 0.0125, -0.1095, 0.9904999999999999, 192.0, 0.0, 0.0, 0.0, 0.0, 0.0, 0.0, 0.0, 0.0, 0.0, 1.645920711990616E9, 0.0, 2022-02-27 11:11:51.990
200.0, -3001.504004180909, -5729.176787039851, -1749.4263350279732, -10860.265595944596, -1219.265308292545, 277.65336962382435, -5309.589840124827, -2092.994999050498, -2310.700990045189, -7216.595973562715, -4392.028378490017, -3134.1616075231564, -4600.078415880014, -3704.7345882337795, -10148.787218187717, -13772.787305448926, 0.0125, -0.1095, 0.9904999999999999, 192.0, 0.0, 0.0, 0.0, 0.0, 0.0, 0.0, 0.0, 0.0, 0.0, 1.645920712004121E9, 0.0, 2022-02-27 11:11:52.004
202.0, -2964.534218851831, -5651.906806457854, -1721.7548753923031, -10850.810808040002, -1204.2225842741234, 316.54540497605865, -5350.180608055664, -2214.0967505093518, -5702.3099902045715, -8427.166453262145, -4441.984527347628, -3506.8769463154017, -4492.208897138703, -3794.0298073327313, -10813.550450033004, -15445.033066872726, 0.0125, -0.1095, 0.9904999999999999, 192.0, 0.0, 0.0, 0.0, 0.0, 0.0, 0.0, 0.0, 0.0, 0.0, 1.645920712012255E9, 0.0, 2022-02-27 11:11:52.012
204.0, -3316.328324833909, -5936.086885462629, -1926.6756685585583, -11047.014420868687, -1489.7214162017603, 91.41863482220589, -5315.445997172117, -2122.4098947536822, -2535.9171671768627, -7541.0985995648625, -4435.323707499946, -3041.826551178283, -4636.645869808897, -3764.07846976262, -10123.038008575202, -14031.218174841188, 0.01025, -0.10975, 0.99025, 192.0, 0.0, 32.0, 126.0, 72.0, 15.0, 120.0, 0.0, 0.0, 0.0, 1.645920712020271E9, 0.0, 2022-02-27 11:11:52.020
206.0, -2765.961321110883, -5557.649500089825, -1611.2925542941755, -10720.50013786556, -1017.7419802834964, 434.2496912777056, -5257.599682521783, -2113.379789993738, -4039.675478896556, -7709.38488356887, -4402.06431175045, -3389.9773228141457, -4527.815226056007, -3722.6383355424805, -10519.379141256708, -14527.896288382566, 0.01025, -0.10975, 0.99025, 192.0, 0.0, 0.0, 0.0, 0.0, 0.0, 0.0, 0.0, 0.0, 0.0, 1.64592071202729E9, 0.0, 2022-02-27 11:11:52.027
208.0, -3337.8530547443697, -5912.014056684263, -1931.0119069828877, -11058.324403563072, -1507.8039774661038, 106.08137918488733, -5345.374982997773, -2217.5165674110135, -4761.212141658323, -8342.609803987718, -4477.188524864737, -3278.866801126814, -4577.480802235699, -3824.651697236502, -10551.90092943918, -15130.745188086652, 0.01025, -0.10975, 0.99025, 192.0, 0.0, 0.0, 0.0, 0.0, 0.0, 0.0, 0.0, 0.0, 0.0, 1.645920712034835E9, 0.0, 2022-02-27 11:11:52.034
210.0, -3025.3980190036323, -5752.690822206834, -1762.4126985565065, -10858.320994176984, -1211.397494244277, 279.37445394688297, -5275.145801919199, -2064.4741731255262, -2338.506560147591, -7223.592069577226, -4409.261573465058, -3150.0760495753348, -4602.402997303367, -3709.49550980276, -10148.653107720984, -13758.571595975352, 0.01025, -0.10975, 0.99025, 192.0, 0.0, 0.0, 0.0, 0.0, 0.0, 0.0, 0.0, 0.0, 0.0, 1.645920712042903E9, 0.0, 2022-02-27 11:11:52.042
212.0, -2990.1716697420684, -5678.706548059768, -1731.2320150413532, -10852.040153985043, -1190.9009445787603, 328.1906638372736, -5314.663686116181, -2212.018038275008, -5724.169996281862, -8441.449217969086, -4463.710422958186, -3523.774865123614, -4498.825013497474, -3801.6741039364465, -10803.402758050295, -15431.934944621915, 0.01025, -0.10975, 0.99025, 192.0, 0.0, 0.0, 0.0, 0.0, 0.0, 0.0, 0.0, 0.0, 0.0, 1.645920712050741E9, 0.0, 2022-02-27 11:11:52.050
214.0, -3324.8219877269257, -5948.805028057698, -1928.2402906704297, -11045.874481901465, -1476.936218373325, 116.1173124453202, -5332.433322958151, -2124.578013965847, -2542.1533038798934, -7548.698192679667, -4449.293547784513, -3049.4261442930874, -4634.030715707626, -3765.9113128079553, -10111.728025880817, -14023.10449160391, 0.009125000000000001, -0.108875, 0.9881249999999999, 192.0, 0.0, 32.0, 126.0, 80.0, 15.0, 104.0, 0.0, 0.0, 0.0, 1.64592071205692E9, 0.0, 2022-02-27 11:11:52.056
216.0, -2782.0769288631595, -5574.77093634259, -1618.0204293752229, -10719.002570987055, -1009.4718348350328, 432.01451683217493, -5253.956348175568, -2113.8938801162103, -4038.2449672514163, -7709.004903913129, -4409.440387420701, -3387.876258835347, -4523.814263798507, -3724.5382338211816, -10514.037074331889, -14516.63100917709, 0.009125000000000001, -0.108875, 0.9881249999999999, 192.0, 0.0, 0.0, 0.0, 0.0, 0.0, 0.0, 0.0, 0.0, 0.0, 1.645920712064472E9, 0.0, 2022-02-27 11:11:52.064
218.0, -3328.8229499844256, -5916.618516042056, -1923.1887964235302, -11054.278737816661, -1484.6252184659504, 108.02598095249904, -5331.025163057467, -2209.1346632402733, -4812.040008549691, -8371.152981657146, -4479.177830121259, -3287.2487052975544, -4565.232046274191, -3839.9626421883872, -10551.856225950269, -15156.472045954712, 0.009125000000000001, -0.108875, 0.9881249999999999, 192.0, 0.0, 0.0, 0.0, 0.0, 0.0, 0.0, 0.0, 0.0, 0.0, 1.645920712072947E9, 0.0, 2022-02-27 11:11:52.072
220.0, -3038.786713932361, -5769.231113103761, -1763.977320668378, -10860.556168622514, -1223.9591746281594, 287.8010616065337, -5284.891162501713, -2064.4741731255262, -2307.080007443429, -7224.977877733455, -4410.133291498815, -3145.1586657951675, -4599.877250179917, -3707.9085359464334, -10131.934002868415, -13746.635764436218, 0.009125000000000001, -0.108875, 0.9881249999999999, 192.0, 0.0, 0.0, 0.0, 0.0, 0.0, 0.0, 0.0, 0.0, 0.0, 1.645920712079673E9, 0.0, 2022-02-27 11:11:52.079
222.0, -2967.283483419834, -5661.987443207198, -1720.3243637471635, -10832.817653753478, -1180.9320665516934, 350.3859460813935, -5299.28568593093, -2212.5321283974804, -5704.276943716639, -8420.773854347928, -4462.2352078241365, -3519.148054021365, -4493.08061517246, -3780.46229844836, -10801.301694071495, -15413.785328124206, 0.009125000000000001, -0.108875, 0.9881249999999999, 192.0, 0.0, 0.0, 0.0, 0.0, 0.0, 0.0, 0.0, 0.0, 0.0, 1.645920712087106E9, 0.0, 2022-02-27 11:11:52.087
224.0, -3329.1805778957105, -5955.488199649835, -1931.2801279163514, -11042.14174057743, -1487.1062621004894, 99.42055933720582, -5296.290552173919, -2105.959010834576, -2581.626484587966, -7563.204474831162, -4454.993242620617, -3049.537903015364, -4624.82179699204, -3750.376850411517, -10110.833956102606, -14043.243413358143, 0.0085625, -0.1104375, 0.9880625, 192.0, 0.0, 32.0, 126.0, 64.0, 15.0, 112.0, 0.0, 0.0, 0.0, 1.645920712095112E9, 0.0, 2022-02-27 11:11:52.095
226.0, -2783.485088763844, -5577.743718355146, -1612.0301618612007, -10713.16876568422, -1016.1550064271697, 435.2331680337391, -5272.374185606741, -2102.94152533311, -3989.786385272311, -7693.671607216788, -4420.929184070728, -3387.876258835347, -4522.495510875644, -3711.4624633148273, -10498.12263227971, -14483.885703550066, 0.0085625, -0.1104375, 0.9880625, 192.0, 0.0, 0.0, 0.0, 0.0, 0.0, 0.0, 0.0, 0.0, 0.0, 1.645920712103283E9, 0.0, 2022-02-27 11:11:52.103
228.0, -3322.162130136744, -5908.92951594943, -1914.6727817860583, -11045.248633056717, -1495.1305383599447, 114.8879665002783, -5321.279802474953, -2195.835375289366, -4869.05930865518, -8383.267627151923, -4491.247772127124, -3298.2010600806548, -4566.573150941509, -3820.9860111458315, -10561.243958621497, -15169.793685650075, 0.0085625, -0.1104375, 0.9880625, 192.0, 0.0, 0.0, 0.0, 0.0, 0.0, 0.0, 0.0, 0.0, 0.0, 1.645920712109714E9, 0.0, 2022-02-27 11:11:52.109
230.0, -3031.6788591955733, -5761.340947311038, -1758.5011432768279, -10857.941014521244, -1233.9280526552263, 279.7991370915338, -5272.061261184366, -2059.31092015635, -2276.8380971953984, -7215.634848551136, -4413.441349678201, -3132.4181714556426, -4591.942380898283, -3701.694750987858, -10122.076883563625, -13736.91275559816, 0.0085625, -0.1104375, 0.9880625, 192.0, 0.0, 0.0, 0.0, 0.0, 0.0, 0.0, 0.0, 0.0, 0.0, 1.645920712116815E9, 0.0, 2022-02-27 11:11:52.116
232.0, -2952.017241956859, -5652.845579724977, -1706.756854862792, -10829.688409529736, -1184.6424561312742, 348.06136465804155, -5311.556793636893, -2189.733349053067, -5673.967978235242, -8407.742787330484, -4458.54716998901, -3509.514452161128, -4482.016501667083, -3778.8306211031227, -10797.211324836175, -15401.894200073983, 0.0085625, -0.1104375, 0.9880625, 192.0, 0.0, 0.0, 0.0, 0.0, 0.0, 0.0, 0.0, 0.0, 0.0, 1.645920712132869E9, 0.0, 2022-02-27 11:11:52.132
234.0, -3335.193197154188, -5959.690327607433, -1926.7427237919242, -11047.081476102052, -1489.4308435238415, 105.9919722070661, -5309.232212213542, -2120.509996474981, -2605.9675342997953, -7589.087794910407, -4457.40723102179, -3052.220112350001, -4621.737256257207, -3763.9443592958883, -10116.533650938709, -14060.566015311006, 0.009281250000000001, -0.10921875, 0.99103125, 192.0, 0.0, 40.0, 126.0, 80.0, 15.5, 8.0, 0.0, 0.0, 0.0, 1.645920712139331E9, 0.0, 2022-02-27 11:11:52.139
236.0, -2784.1109376085924, -5578.861305577911, -1609.437359504385, -10714.420463373717, -1022.5029018524768, 447.70544143980044, -5275.816354252858, -2113.312734760372, -3944.3005853057607, -7689.08949960345, -4421.845605593397, -3382.28832272152, -4514.56064159401, -3712.669457515414, -10491.46181243203, -14469.826456287678, 0.009281250000000001, -0.10921875, 0.99103125, 192.0, 0.0, 0.0, 0.0, 0.0, 0.0, 0.0, 0.0, 0.0, 0.0, 1.645920712147479E9, 0.0, 2022-02-27 11:11:52.147
238.0, -3303.230202583099, -5901.5310885347235, -1906.0450084263098, -11045.539205734636, -1498.3491895615089, 116.1173124453202, -5334.556738681405, -2238.795428132466, -4897.423672368965, -8398.08683372579, -4487.22445812517, -3297.5975629803615, -4556.80543861454, -3817.9238221554547, -10575.727889028536, -15195.699357473775, 0.009281250000000001, -0.10921875, 0.99103125, 192.0, 0.0, 0.0, 0.0, 0.0, 0.0, 0.0, 0.0, 0.0, 0.0, 1.645920712155477E9, 0.0, 2022-02-27 11:11:52.155
240.0, -3039.7478389439393, -5775.690767251345, -1766.5701230251937, -10869.988604782655, -1244.165151615757, 280.58144814746953, -5264.931054703124, -2033.7628762439342, -2240.8070851334437, -7215.701903784502, -4411.1167682548485, -3119.3200492048322, -4586.399148273367, -3695.995056151755, -10117.539479439198, -13735.951630586582, 0.009281250000000001, -0.10921875, 0.99103125, 192.0, 0.0, 0.0, 0.0, 0.0, 0.0, 0.0, 0.0, 0.0, 0.0, 1.645920712162567E9, 0.0, 2022-02-27 11:11:52.162
242.0, -2944.529407564331, -5656.1089344154525, -1709.2378984973311, -10831.253031641607, -1177.8922293057715, 351.50353330415885, -5299.330389419841, -2185.2406484175503, -5656.690079771291, -8401.305484927356, -4463.0622223689825, -3508.9556585497453, -4486.1292226468595, -3783.0551008051757, -10792.51745850056, -15388.684319100896, 0.009281250000000001, -0.10921875, 0.99103125, 192.0, 0.0, 0.0, 0.0, 0.0, 0.0, 0.0, 0.0, 0.0, 0.0, 1.645920712169971E9, 0.0, 2022-02-27 11:11:52.169
244.0, -3336.0872669324003, -5959.310347951692, -1940.8913780321334, -11054.32344130557, -1497.633933738939, 99.12998665928683, -5300.313866175874, -2112.642182426713, -2656.0801453685935, -7615.842833023409, -4461.922283401762, -3051.3260425717885, -4622.363105101956, -3777.2659989912513, -10130.548194712186, -14091.634940103882, 0.008640625, -0.10860937500000001, 0.993515625, 192.0, 0.0, 32.0, 126.0, 80.0, 15.5, 16.0, 0.0, 0.0, 0.0, 1.645920712178204E9, 0.0, 2022-02-27 11:11:52.178
246.0, -2786.9496091544165, -5582.392881201849, -1624.927118411913, -10716.767396541525, -1024.0004687309824, 448.7559734291999, -5250.603586507272, -2090.60336239378, -3877.0888897286527, -7668.391784237837, -4423.164358516259, -3375.158116240277, -4525.714162077208, -3721.431341341894, -10478.564855881317, -14433.460168058893, 0.008640625, -0.10860937500000001, 0.993515625, 192.0, 0.0, 0.0, 0.0, 0.0, 0.0, 0.0, 0.0, 0.0, 0.0, 1.645920712185193E9, 0.0, 2022-02-27 11:11:52.185
