%OpenBCI Raw EEG Data
%Number of channels = 16
%Sample Rate = 125 Hz
%Board = OpenBCI_GUI$BoardCytonSerialDaisy
Sample Index, EXG Channel 0, EXG Channel 1, EXG Channel 2, EXG Channel 3, EXG Channel 4, EXG Channel 5, EXG Channel 6, EXG Channel 7, EXG Channel 8, EXG Channel 9, EXG Channel 10, EXG Channel 11, EXG Channel 12, EXG Channel 13, EXG Channel 14, EXG Channel 15, Accel Channel 0, Accel Channel 1, Accel Channel 2, Other, Other, Other, Other, Other, Other, Other, Analog Channel 0, Analog Channel 1, Analog Channel 2, Timestamp, Other, Timestamp (Formatted)
0.0, -2938.762657494862, -7163.242359547897, -4809.178985259412, -9116.226031330352, -2873.115584029625, 3584.9739414422443, -10754.340678970895, -9958.573872873054, -513.3748666494926, -3027.78965566035, -642.389135645525, 394.0165512581529, -3177.233419088533, -1649.8046099906696, -8669.727584091137, -5918.093731176106, 0.004, -0.056, 0.498, 192.0, 0.0, 16.0, 127.0, 32.0, 7.5, 72.0, 0.0, 0.0, 0.0, 1.645919773691869E9, 0.0, 2022-02-27 10:56:13.691
2.0, -2196.3047619229274, -6790.258799822188, -4537.672345360797, -8730.390218542841, -2360.6794906472555, 4101.343941848748, -10757.827551105924, -10101.647389131474, -4135.206834698539, -6824.993410705735, -1270.808431006483, 141.799466824468, -6368.056698805893, -3388.1668315132656, -18401.990044354206, -13204.427147439379, 0.004, -0.056, 0.498, 192.0, 0.0, 0.0, 0.0, 0.0, 0.0, 0.0, 0.0, 0.0, 0.0, 1.645919773699403E9, 0.0, 2022-02-27 10:56:13.699
4.0, -2961.8073060282836, -7116.8848415475895, -4793.041025762681, -9173.9158837695, -2917.215575839946, 3598.5861538155264, -10845.446389370727, -10077.127525464002, -4856.6317387380295, -7848.435085825335, -1301.6314866103514, 426.13600804042915, -6507.263363273545, -3489.1743647067983, -18378.967747565242, -13698.04307199038, 0.004, -0.056, 0.498, 192.0, 0.0, 0.0, 0.0, 0.0, 0.0, 0.0, 0.0, 0.0, 0.0, 1.64591977370735E9, 0.0, 2022-02-27 10:56:13.707
6.0, -2501.6966464157877, -6969.899770009491, -4653.208512450279, -8859.963281150256, -2558.201856398804, 3859.945101731432, -10736.258117706551, -10016.17431833438, -1747.369974538085, -6121.9416406085065, -1263.7899832475166, 603.1394723820058, -6345.5261403949435, -3323.9279179487135, -17631.570116468683, -12145.78147480267, 0.009000000000000001, -0.068, 0.617, 192.0, 0.0, 56.0, 126.5, 64.0, 11.5, 0.0, 0.0, 0.0, 0.0, 1.645919773715904E9, 0.0, 2022-02-27 10:56:13.715
8.0, -2503.9988760946844, -6895.155536550944, -4625.224128392235, -8945.279889736163, -2602.2794964646696, 3905.743826120356, -10769.249292522585, -10127.553060955175, -6265.23867431148, -7915.736188380264, -1279.5703148329635, -12.0252385169552, -6463.789220307973, -3482.9158762593124, -18952.737027732972, -14273.756953925724, 0.009000000000000001, -0.068, 0.617, 192.0, 0.0, 0.0, 0.0, 0.0, 0.0, 0.0, 0.0, 0.0, 0.0, 1.64591977372196E9, 0.0, 2022-02-27 10:56:13.721
10.0, -2935.968689437949, -7161.185999058009, -4808.910764325949, -9113.61087722908, -2874.032005552293, 3572.65813024737, -10727.540937368982, -9956.964547272271, -1980.0069308289208, -6681.539914791574, -1287.6616463257847, 798.3372567102024, -6428.5852227908645, -3381.19308724321, -17536.37403683353, -12339.928727141469, 0.009000000000000001, -0.068, 0.617, 192.0, 0.0, 0.0, 0.0, 0.0, 0.0, 0.0, 0.0, 0.0, 0.0, 1.645919773730025E9, 0.0, 2022-02-27 10:56:13.730
12.0, -2184.994779228542, -6784.626160219451, -4525.736513821664, -8718.364980025886, -2347.469609674169, 4086.6141422527007, -10746.271699222529, -10099.211048985846, -4089.832793454265, -6804.318047084576, -1256.1456866438016, 159.36793796633935, -6373.488172708532, -3390.4690611921624, -18391.864704115953, -13191.038452510651, 0.009000000000000001, -0.068, 0.617, 192.0, 0.0, 0.0, 0.0, 0.0, 0.0, 0.0, 0.0, 0.0, 0.0, 1.64591977373806E9, 0.0, 2022-02-27 10:56:13.738
14.0, -2954.922968736049, -7120.662286360537, -4790.470575150321, -9164.326985398173, -2906.95612513496, 3589.176069399842, -10787.555371231481, -10023.371580048988, -4886.381910608043, -7863.813086010586, -1290.455614382698, 437.91537736837597, -6507.173956295724, -3490.962504263223, -18388.98132908122, -13710.448290163076, 0.009000000000000001, -0.068, 0.617, 192.0, 0.0, 0.0, 0.0, 0.0, 0.0, 0.0, 0.0, 0.0, 0.0, 1.645919773745058E9, 0.0, 2022-02-27 10:56:13.745
16.0, -2490.654884654866, -6974.52658111174, -4651.3086141715785, -8848.116856588944, -2548.9482341943067, 3853.306633628206, -10723.830547789401, -9969.190951489325, -1748.4205065274843, -6138.414876272068, -1270.1825821617344, 600.6584287474667, -6358.065469034371, -3329.2476331290763, -17618.49434596233, -12137.332515398564, 0.016, -0.1, 0.864, 192.0, 0.0, 64.0, 126.0, 112.0, 13.5, 0.0, 0.0, 0.0, 0.0, 1.645919773751656E9, 0.0, 2022-02-27 10:56:13.751
18.0, -2483.815250851542, -6887.243019013766, -4611.343695085489, -8929.968944784277, -2579.324254909069, 3905.520308675803, -10807.068444140965, -10142.77459892924, -6241.679935655587, -7916.250278502736, -1275.837573508927, 4.380941913240184, -6469.220694210612, -3472.8575912544243, -18943.595164250753, -14262.066991575599, 0.016, -0.1, 0.864, 192.0, 0.0, 0.0, 0.0, 0.0, 0.0, 0.0, 0.0, 0.0, 0.0, 1.645919773759665E9, 0.0, 2022-02-27 10:56:13.759
20.0, -2920.948317163982, -7153.675812921026, -4787.587200115586, -9099.596333455604, -2864.8007350922508, 3560.9458161527896, -10791.556333488981, -9955.154055971392, -1977.3917767276498, -6669.492324530163, -1285.4711753691645, 815.6598586630653, -6433.726124015585, -3385.3058082229863, -17535.547022288683, -12344.935517899457, 0.016, -0.1, 0.864, 192.0, 0.0, 0.0, 0.0, 0.0, 0.0, 0.0, 0.0, 0.0, 0.0, 1.645919773767654E9, 0.0, 2022-02-27 10:56:13.767
22.0, -2175.584694812858, -6788.135384098934, -4508.391560124345, -8711.547697967017, -2364.144011037828, 4080.512116016402, -10726.289239679485, -10077.485153375286, -4016.2508507073944, -6766.074212321546, -1254.4469540651983, 177.8975341197889, -6370.917722096172, -3389.3961774583076, -18379.034802798607, -13158.024925950162, 0.016, -0.1, 0.864, 192.0, 0.0, 0.0, 0.0, 0.0, 0.0, 0.0, 0.0, 0.0, 0.0, 1.64591977377481E9, 0.0, 2022-02-27 10:56:13.774
24.0, -2938.4050295835773, -7101.395082640062, -4764.98958647127, -9168.305595911217, -2882.95035158996, 3565.818496444046, -10817.774929735057, -10072.724231806307, -4917.987277267847, -7862.382574365446, -1286.298189914011, 421.08451379352977, -6512.292505775989, -3499.970257278712, -18393.094050060994, -13733.917621841149, 0.016, -0.1, 0.864, 192.0, 0.0, 0.0, 0.0, 0.0, 0.0, 0.0, 0.0, 0.0, 0.0, 1.645919773782257E9, 0.0, 2022-02-27 10:56:13.782
26.0, -2473.10876525745, -6947.749191254282, -4631.840244751006, -8859.672708472337, -2533.9502136647957, 3833.2794705962506, -10761.694402896692, -9979.919788827872, -1710.9366310759344, -6115.571393438744, -1249.5072185405754, 608.2133183733605, -6349.862378819273, -3329.8511302293696, -17620.14837505202, -12138.137178198956, 0.008, -0.1, 0.92, 192.0, 0.0, 32.0, 126.0, 112.0, 14.0, 96.0, 0.0, 0.0, 0.0, 1.645919773790307E9, 0.0, 2022-02-27 10:56:13.790
28.0, -2480.2613234831483, -6885.656045157439, -4606.247497349679, -8940.67543037837, -2565.5332285801446, 3890.365825935105, -10735.967545028632, -10136.091427337102, -6219.596412133743, -7903.196859740837, -1275.547000831008, -15.869738563268015, -6457.396621393755, -3498.36093167793, -18946.18796660757, -14268.191369556353, 0.008, -0.1, 0.92, 192.0, 0.0, 0.0, 0.0, 0.0, 0.0, 0.0, 0.0, 0.0, 0.0, 1.645919773797415E9, 0.0, 2022-02-27 10:56:13.797
30.0, -2913.3934275380884, -7150.658327419559, -4786.648426848463, -9126.060798890687, -2853.021365764304, 3542.41621999934, -10718.756701798047, -9939.932517997328, -2018.6307452476915, -6677.628359511896, -1280.5761433334521, 783.4956983918785, -6424.785426233462, -3378.220305230654, -17543.727760759328, -12361.431105307473, 0.008, -0.1, 0.92, 192.0, 0.0, 0.0, 0.0, 0.0, 0.0, 0.0, 0.0, 0.0, 0.0, 1.645919773811987E9, 0.0, 2022-02-27 10:56:13.811
32.0, -2165.0346714299526, -6795.086776624535, -4512.928964248773, -8721.158948082799, -2330.4152286547696, 4058.6297581946565, -10743.701248610168, -10075.13822020748, -3959.902102935565, -6745.108276022467, -1253.8211052204497, 164.50883919106, -6370.805963373896, -3397.8451368624137, -18366.49547415918, -13140.210585619281, 0.008, -0.1, 0.92, 192.0, 0.0, 0.0, 0.0, 0.0, 0.0, 0.0, 0.0, 0.0, 0.0, 1.645919773819906E9, 0.0, 2022-02-27 10:56:13.819
34.0, -2934.8734539596385, -7114.716722335425, -4762.195618414356, -9163.075287708674, -2880.1787352775023, 3572.4793162917276, -10762.521417441538, -10029.69712372984, -4973.6207692171065, -7877.604112339511, -1286.231134680645, 402.5325658956249, -6507.978619096115, -3515.0800365304995, -18429.303876078593, -13755.263537795967, 0.008, -0.1, 0.92, 192.0, 0.0, 0.0, 0.0, 0.0, 0.0, 0.0, 0.0, 0.0, 0.0, 1.645919773827079E9, 0.0, 2022-02-27 10:56:13.827
36.0, -2501.853108626975, -6985.52363938375, -4636.131779686425, -8867.384060309418, -2538.8899491894185, 3807.8655371505665, -10693.745099752558, -9967.872198566462, -1664.6461683089935, -6112.263335259358, -1255.7433552436062, 619.389190601014, -6349.214178230069, -3346.5255315930285, -17590.465258415374, -12107.761157484194, 0.012, -0.10400000000000001, 0.9580000000000001, 192.0, 0.0, 48.0, 126.0, 96.0, 14.5, 120.0, 0.0, 0.0, 0.0, 1.645919773834569E9, 0.0, 2022-02-27 10:56:13.834
38.0, -2447.918349256319, -6862.231416968277, -4591.808270431551, -8919.508328379194, -2553.664452274377, 3895.305561459728, -10791.288112555518, -10134.839729647605, -6189.645074563632, -7848.703306758798, -1259.6102070343743, -8.024276259455236, -6447.60655732233, -3493.130623475388, -18951.686495743572, -14248.63359315796, 0.012, -0.10400000000000001, 0.9580000000000001, 192.0, 0.0, 0.0, 0.0, 0.0, 0.0, 0.0, 0.0, 0.0, 0.0, 1.645919773842567E9, 0.0, 2022-02-27 10:56:13.842
40.0, -2953.1571809240795, -7186.354063314684, -4797.198450231368, -9114.080263862643, -2866.253598481846, 3541.8350746435017, -10796.786641691524, -9956.137532727425, -2075.5606383753584, -6712.0947494619795, -1290.1873934492344, 800.7735968558309, -6437.771789761996, -3386.6022094013942, -17570.080467472133, -12389.191971920965, 0.012, -0.10400000000000001, 0.9580000000000001, 192.0, 0.0, 0.0, 0.0, 0.0, 0.0, 0.0, 0.0, 0.0, 0.0, 1.645919773850565E9, 0.0, 2022-02-27 10:56:13.850
42.0, -2207.927669039687, -6801.255858094199, -4527.010563255616, -8713.20172705671, -2348.3413277079258, 4066.6987379430225, -10755.570024915938, -10068.387993381977, -3939.897291648065, -6719.001438498669, -1276.0834426979354, 183.01608360005423, -6379.701957667107, -3368.385537670319, -18368.998869538173, -13116.942419641307, 0.012, -0.10400000000000001, 0.9580000000000001, 192.0, 0.0, 0.0, 0.0, 0.0, 0.0, 0.0, 0.0, 0.0, 0.0, 1.645919773857229E9, 0.0, 2022-02-27 10:56:13.857
44.0, -2990.4845941644426, -7138.342516224685, -4790.269409450222, -9166.539808099247, -2896.6743226855187, 3577.955493683278, -10738.113312496342, -10036.93908893336, -5072.884866343125, -7869.2222081687705, -1341.1046673184237, 387.400434899382, -6532.140854852302, -3487.028597239089, -18441.59733552901, -13772.832008937838, 0.012, -0.10400000000000001, 0.9580000000000001, 192.0, 0.0, 0.0, 0.0, 0.0, 0.0, 0.0, 0.0, 0.0, 0.0, 1.645919773864286E9, 0.0, 2022-02-27 10:56:13.864
46.0, -2577.8266880305637, -7026.829663137158, -4658.863503797473, -8850.642603712393, -2555.072612175061, 3837.660412509491, -10729.50789088105, -9958.05978275058, -1764.849038702135, -6101.10981477616, -1315.288402472544, 610.068513163151, -6373.175248286158, -3310.136891619789, -17610.96180808089, -12120.814576246094, 0.016, -0.106, 0.974, 192.0, 0.0, 64.0, 126.0, 88.0, 15.0, 56.0, 0.0, 0.0, 0.0, 1.645919773872117E9, 0.0, 2022-02-27 10:56:13.872
48.0, -2572.574028083566, -6944.418781330441, -4618.362142844456, -8913.585116098538, -2583.638141588943, 3910.258878500328, -10736.436931662194, -10119.975819584826, -6274.29113081588, -7830.397228049902, -1331.73928639165, 3.0174855014664534, -6489.761947365039, -3469.035442952567, -18958.28026035789, -14230.349866193517, 0.016, -0.106, 0.974, 192.0, 0.0, 0.0, 0.0, 0.0, 0.0, 0.0, 0.0, 0.0, 0.0, 1.64591977388027E9, 0.0, 2022-02-27 10:56:13.880
50.0, -3049.0908681262576, -7221.938040487533, -4815.61628766254, -9117.455377275393, -2881.4304329669994, 3542.4609234882505, -10709.614838315825, -9958.618576361963, -2135.239796071028, -6661.691565715261, -1354.3145482915102, 810.4519022049788, -6468.66190059923, -3357.656700331772, -17560.692734800905, -12369.164808889009, 0.016, -0.106, 0.974, 192.0, 0.0, 0.0, 0.0, 0.0, 0.0, 0.0, 0.0, 0.0, 0.0, 1.64591977388683E9, 0.0, 2022-02-27 10:56:13.886
52.0, -2306.0965306873954, -6860.219759967299, -4543.975537297194, -8713.648761945817, -2346.955519551697, 4067.23517980995, -10715.091015707376, -10056.385106609478, -3953.7553732103556, -6639.272766026588, -1337.3272225054768, 200.9645343976658, -6411.240269093546, -3353.0522409739783, -18342.28853491408, -13072.618910386433, 0.016, -0.106, 0.974, 192.0, 0.0, 0.0, 0.0, 0.0, 0.0, 0.0, 0.0, 0.0, 0.0, 1.645919773894817E9, 0.0, 2022-02-27 10:56:13.894
54.0, -3054.723507728995, -7166.70687993847, -4791.252886206256, -9148.345488112627, -2893.567430206231, 3591.2324298897306, -10744.014173032543, -10028.89246092945, -5189.650379377649, -7830.59839375, -1376.1745543688005, 420.1904440153175, -6552.480942306632, -3472.701129043237, -18466.966565485785, -13777.34706131781, 0.016, -0.106, 0.974, 192.0, 0.0, 0.0, 0.0, 0.0, 0.0, 0.0, 0.0, 0.0, 0.0, 1.645919773902763E9, 0.0, 2022-02-27 10:56:13.902
56.0, -2642.557339973133, -7031.076494583666, -4677.281341228645, -8850.597900223482, -2577.491411863734, 3826.32807807065, -10694.72857650859, -9962.552483386098, -1735.72471567687, -6016.217889334905, -1338.221292283689, 673.5474674162231, -6386.049853092415, -3282.9571703621355, -17584.899674046002, -12065.62811918594, 0.012, -0.10400000000000001, 0.984, 192.0, 0.0, 48.0, 126.0, 96.0, 15.0, 96.0, 0.0, 0.0, 0.0, 1.645919773909402E9, 0.0, 2022-02-27 10:56:13.909
58.0, -2547.36126033798, -6912.835766415092, -4617.289259110601, -8891.970979210255, -2567.455478603301, 3925.4804164743923, -10774.457248980672, -10134.593860458597, -6292.843078713784, -7736.609308315434, -1353.4651820022086, 25.548043912415974, -6499.373197480822, -3433.2726518240756, -18967.824455240305, -14198.789203022625, 0.012, -0.10400000000000001, 0.984, 192.0, 0.0, 0.0, 0.0, 0.0, 0.0, 0.0, 0.0, 0.0, 0.0, 1.645919773917462E9, 0.0, 2022-02-27 10:56:13.917
60.0, -3037.244443564945, -7199.13926114312, -4819.505491197764, -9103.932571879932, -2878.703520143452, 3549.6134817139487, -10732.36891417133, -9939.083151708026, -2223.3056692249384, -6649.55456847603, -1356.639129714862, 843.7112979544756, -6467.723127332107, -3335.282604132009, -17587.067793258168, -12394.042300467767, 0.012, -0.10400000000000001, 0.984, 192.0, 0.0, 0.0, 0.0, 0.0, 0.0, 0.0, 0.0, 0.0, 0.0, 1.645919773924432E9, 0.0, 2022-02-27 10:56:13.924
62.0, -2266.176315090217, -6810.44242506533, -4540.198092484247, -8695.72266289266, -2353.9963190551184, 4073.9854066354524, -10753.13368477031, -10055.267519386713, -3933.3482305226603, -6596.089195738936, -1342.0434405855467, 236.83908424843364, -6404.892373668239, -3336.266080888043, -18333.81722376552, -13050.423628142313, 0.012, -0.10400000000000001, 0.984, 192.0, 0.0, 0.0, 0.0, 0.0, 0.0, 0.0, 0.0, 0.0, 0.0, 1.645919773939129E9, 0.0, 2022-02-27 10:56:13.939
64.0, -2964.1989426850014, -7093.326102891696, -4763.223798659301, -9122.216298844374, -2871.439203195477, 3630.86207280899, -10775.597187947893, -10056.273347887201, -5386.479841051083, -7853.88891147243, -1354.0686791025018, 404.20894672977295, -6536.72296246564, -3443.9791374181677, -18542.04607511116, -13885.015414359024, 0.012, -0.10400000000000001, 0.984, 192.0, 0.0, 0.0, 0.0, 0.0, 0.0, 0.0, 0.0, 0.0, 0.0, 1.645919773947206E9, 0.0, 2022-02-27 10:56:13.947
66.0, -2637.684659681876, -7016.413750220985, -4686.825536111061, -8870.312138833064, -2608.9850198012614, 3807.4855574948265, -10737.88979505179, -9922.140529410903, -1646.6753657669267, -6027.237299351371, -1334.5779579374741, 706.0692555986948, -6385.826335647862, -3280.587885449873, -17540.509109557763, -12044.259851486666, 0.018000000000000002, -0.106, 0.986, 192.0, 0.0, 72.0, 126.0, 88.0, 15.0, 104.0, 0.0, 0.0, 0.0, 1.645919773955071E9, 0.0, 2022-02-27 10:56:13.955
68.0, -2521.790864681109, -6892.115699305022, -4626.699343526286, -8890.361653609474, -2576.910266507896, 3930.7777799103, -10786.482487497628, -10119.059398062158, -6190.382682130657, -7676.483115730658, -1344.3009667755327, 23.7375526115361, -6490.2760374875115, -3439.061753638, -18955.84392021226, -14159.628946736926, 0.018000000000000002, -0.106, 0.986, 192.0, 0.0, 0.0, 0.0, 0.0, 0.0, 0.0, 0.0, 0.0, 0.0, 1.645919773962234E9, 0.0, 2022-02-27 10:56:13.962
70.0, -3015.7420653989393, -7179.179153344531, -4830.793122147694, -9110.61574347207, -2891.645180183075, 3547.9371008798007, -10704.250419646552, -9947.621518089953, -2228.8041983609437, -6656.640071468362, -1358.7178419492056, 823.9523558559843, -6471.23235121159, -3337.0260401995233, -17588.788877581224, -12405.419338395517, 0.018000000000000002, -0.106, 0.986, 192.0, 0.0, 0.0, 0.0, 0.0, 0.0, 0.0, 0.0, 0.0, 0.0, 1.645919773971433E9, 0.0, 2022-02-27 10:56:13.971
72.0, -2253.9275591287087, -6806.866145952481, -4549.697583877753, -8701.86939261787, -2360.567731924979, 4063.413031508092, -10726.199832701664, -10058.664984543919, -3870.293959414239, -6576.464364107176, -1331.068734057991, 230.75940975659012, -6404.020655634482, -3340.736429779104, -18322.373130604403, -13037.414912869324, 0.018000000000000002, -0.106, 0.986, 192.0, 0.0, 0.0, 0.0, 0.0, 0.0, 0.0, 0.0, 0.0, 0.0, 1.645919773977716E9, 0.0, 2022-02-27 10:56:13.977
74.0, -2977.1406027246244, -7108.614696099126, -4789.352987927555, -9148.323136368172, -2894.215630795435, 3582.4928978077055, -10771.50681871257, -10046.617394282508, -5243.383973048208, -7821.2106610787705, -1354.292196547055, 398.8892315494098, -6542.91439567976, -3463.6263207943825, -18504.942179315352, -13827.817300297893, 0.018000000000000002, -0.106, 0.986, 192.0, 0.0, 0.0, 0.0, 0.0, 0.0, 0.0, 0.0, 0.0, 0.0, 1.645919773985784E9, 0.0, 2022-02-27 10:56:13.985
76.0, -2602.7041796093204, -7004.924953570957, -4689.954780334804, -8870.580359766527, -2584.643970089432, 3787.0337113182204, -10703.177535912697, -9969.660338122885, -1663.0591944526666, -6017.782511446776, -1323.7820653655608, 665.2102667343935, -6382.495925724021, -3294.4459670121632, -17582.105705989088, -12076.714584435771, 0.018000000000000002, -0.108, 0.994, 192.0, 0.0, 72.0, 126.0, 80.0, 15.5, 8.0, 0.0, 0.0, 0.0, 1.645919773991915E9, 0.0, 2022-02-27 10:56:13.991
78.0, -2494.2088120232597, -6865.762992592215, -4621.558442301565, -8887.970016952755, -2547.3836120824353, 3926.1509688080514, -10790.639911966315, -10123.485043464309, -6230.66052563912, -7718.414988328814, -1340.7470394071388, -5.47617739155023, -6487.9291043197045, -3456.384355590863, -18963.935251705083, -14206.09822345951, 0.018000000000000002, -0.108, 0.994, 192.0, 0.0, 0.0, 0.0, 0.0, 0.0, 0.0, 0.0, 0.0, 0.0, 1.645919773999221E9, 0.0, 2022-02-27 10:56:13.999
80.0, -3016.50202471042, -7170.841952662701, -4836.649279194985, -9110.28046730524, -2890.3264272602114, 3530.838016371491, -10759.213359262152, -9949.476712879743, -2272.4571552821585, -6696.940266721281, -1346.9831761101696, 810.8765853496296, -6458.581263849886, -3359.266025932554, -17617.9579040954, -12445.004277825867, 0.018000000000000002, -0.108, 0.994, 192.0, 0.0, 0.0, 0.0, 0.0, 0.0, 0.0, 0.0, 0.0, 0.0, 1.645919774007479E9, 0.0, 2022-02-27 10:56:14.007
82.0, -2261.0130621210415, -6815.426864078863, -4565.746136396663, -8708.664322932282, -2359.271330746571, 4046.5821679332457, -10736.034600261999, -10064.968176480315, -3816.806234932689, -6582.4322798767425, -1333.996812581636, 212.83331070343385, -6396.041082863937, -3366.351528924886, -18325.48002308369, -13030.195299410261, 0.018000000000000002, -0.108, 0.994, 192.0, 0.0, 0.0, 0.0, 0.0, 0.0, 0.0, 0.0, 0.0, 0.0, 1.645919774014514E9, 0.0, 2022-02-27 10:56:14.014
84.0, -2954.3194716357557, -7095.337759892674, -4786.737833826284, -9135.76145598429, -2871.0815752841922, 3590.539525811616, -10804.676807484248, -10057.74856302125, -5384.311721838918, -7881.694481574832, -1357.1755715817894, 356.5550275510583, -6537.81819794395, -3493.3988444088513, -18561.357982320547, -13908.015359403535, 0.015000000000000001, -0.107, 0.992, 192.0, 0.0, 48.0, 126.0, 88.0, 15.0, 120.0, 0.0, 0.0, 0.0, 1.645919774021884E9, 0.0, 2022-02-27 10:56:14.021
86.0, -2629.3698107445016, -7016.547860687717, -4703.768158408184, -8876.123592391443, -2598.4573481628117, 3771.2533797327737, -10754.184216759708, -9963.334794442033, -1616.120531096522, -6036.513273300323, -1319.4011234523207, 677.1237465290722, -6370.135411040236, -3316.41773181173, -17565.9453947479, -12065.695174419305, 0.015000000000000001, -0.107, 0.992, 192.0, 0.0, 0.0, 0.0, 0.0, 0.0, 0.0, 0.0, 0.0, 0.0, 1.645919774030096E9, 0.0, 2022-02-27 10:56:14.030
88.0, -2486.296294486081, -6870.076879272089, -4626.922860970839, -8881.599769782993, -2555.4749435752565, 3911.0635413007194, -10792.8974381563, -10148.027258876236, -6162.063021905783, -7687.94956063623, -1330.4428852132423, -16.182662985642313, -6474.85333381335, -3464.6321492948714, -18964.784617994384, -14180.818400480557, 0.015000000000000001, -0.107, 0.992, 192.0, 0.0, 0.0, 0.0, 0.0, 0.0, 0.0, 0.0, 0.0, 0.0, 1.645919774038066E9, 0.0, 2022-02-27 10:56:14.038
90.0, -3021.017077090392, -7187.538705770816, -4841.4325525084205, -9107.531202737237, -2906.4643867569434, 3515.8399958419795, -10757.514626683549, -9952.315384425567, -2292.7525392475773, -6729.082075248012, -1352.548760479541, 782.735739080398, -6462.693984829662, -3385.0152355450673, -17623.277619275763, -12460.382278011117, 0.015000000000000001, -0.107, 0.992, 192.0, 0.0, 0.0, 0.0, 0.0, 0.0, 0.0, 0.0, 0.0, 0.0, 1.645919774044631E9, 0.0, 2022-02-27 10:56:14.044
92.0, -2252.2288265501056, -6825.9768874617685, -4564.114459051426, -8690.537058179028, -2356.6114731563894, 4038.4237812070587, -10746.472864922627, -10075.85347603005, -3772.594484400092, -6577.7384135411285, -1323.3350304764547, 210.59813625790315, -6389.939056627639, -3378.6226366308497, -18312.158383388327, -13010.43635731177, 0.015000000000000001, -0.107, 0.992, 192.0, 0.0, 0.0, 0.0, 0.0, 0.0, 0.0, 0.0, 0.0, 0.0, 1.645919774059755E9, 0.0, 2022-02-27 10:56:14.059
94.0, -2976.023015501859, -7108.16766121002, -4800.595915388574, -9134.196833872418, -2892.3604360056447, 3583.4987263081944, -10769.919844856244, -9999.276399526168, -5317.390598939729, -7868.685766301843, -1346.7373069211612, 349.87185595892146, -6539.025192144536, -3485.9110100163234, -18536.927525630897, -13876.566454954918, 0.013500000000000002, -0.1085, 0.992, 192.0, 0.0, 48.0, 126.0, 72.0, 15.5, 0.0, 0.0, 0.0, 0.0, 1.645919774067661E9, 0.0, 2022-02-27 10:56:14.067
96.0, -2636.4776654812895, -7023.543956702228, -4701.085949073547, -8868.23342659872, -2605.833423833063, 3769.2193709873404, -10700.092995177865, -9923.615744544953, -1629.2410050917872, -6040.849511724653, -1318.2611844850999, 651.3968886610137, -6376.393899487723, -3328.2418046285875, -17568.828769782634, -12064.421124985352, 0.013500000000000002, -0.1085, 0.992, 192.0, 0.0, 0.0, 0.0, 0.0, 0.0, 0.0, 0.0, 0.0, 0.0, 1.645919774074197E9, 0.0, 2022-02-27 10:56:14.074
98.0, -2430.573395559001, -6839.566748090595, -4596.1892123447915, -8838.863234384446, -2510.324419775536, 3939.4726085034144, -10800.675845226748, -10131.419912745943, -6208.532298628366, -7712.357665581426, -1336.0084695826138, -23.96107005608917, -6479.547200148964, -3500.8866788013793, -18976.698097789063, -14201.851392013, 0.013500000000000002, -0.1085, 0.992, 192.0, 0.0, 0.0, 0.0, 0.0, 0.0, 0.0, 0.0, 0.0, 0.0, 1.645919774082198E9, 0.0, 2022-02-27 10:56:14.082
100.0, -3032.9305568850705, -7165.857513649168, -4831.284860525711, -9124.764397712279, -2917.6179072401414, 3501.4901759016725, -10769.025775078033, -9955.332869927033, -2652.347404044557, -6907.896030890469, -1336.8354841274602, 764.6308260715994, -6461.665804584719, -3417.8499481499134, -17730.878917083613, -12662.732620565013, 0.013500000000000002, -0.1085, 0.992, 192.0, 0.0, 0.0, 0.0, 0.0, 0.0, 0.0, 0.0, 0.0, 0.0, 1.645919774090358E9, 0.0, 2022-02-27 10:56:14.090
102.0, -2275.49699252808, -6828.882614240959, -4564.159162540336, -8708.038474087534, -2372.3918047418365, 4015.6473536071007, -10735.140530483786, -10044.717496003806, -3490.180193207287, -6475.456830913643, -1318.8646815853933, 251.43477337774914, -6374.203428531102, -3377.3038837079866, -18226.08181549094, -12894.140230910807, 0.013500000000000002, -0.1085, 0.992, 192.0, 0.0, 0.0, 0.0, 0.0, 0.0, 0.0, 0.0, 0.0, 0.0, 1.645919774096875E9, 0.0, 2022-02-27 10:56:14.096
104.0, -2960.2873874053225, -7098.131727949587, -4783.765051813728, -9131.38051407105, -2883.889124857083, 3583.2975606080963, -10805.526173773549, -10039.286022101167, -5339.451770717117, -7857.621652796466, -1350.5594552230186, 334.5832627514914, -6526.374104782833, -3509.2685829721195, -18564.040191655182, -13894.581960985895, 0.01175, -0.10825, 0.993, 192.0, 0.0, 40.0, 126.0, 80.0, 15.5, 8.0, 0.0, 0.0, 0.0, 1.645919774104879E9, 0.0, 2022-02-27 10:56:14.104
106.0, -2630.174473544893, -7014.670314153471, -4705.332780520056, -8884.259627373174, -2626.195863031848, 3752.9025975349664, -10756.12881852732, -9951.175445458346, -1557.1789809678771, -6027.103188884639, -1312.0250477820694, 671.7369761153432, -6354.198617243603, -3324.263194115543, -17551.1932434074, -12055.927462092337, 0.01175, -0.10825, 0.993, 192.0, 0.0, 0.0, 0.0, 0.0, 0.0, 0.0, 0.0, 0.0, 0.0, 1.645919774112144E9, 0.0, 2022-02-27 10:56:14.112
108.0, -2458.8707040394193, -6847.099285972034, -4618.518605055643, -8875.922426691344, -2557.1066209204937, 3902.9498580634427, -10820.792415236523, -10138.1924913159, -6123.282745275825, -7661.775667879066, -1327.4030479673206, -28.185549758142205, -6467.320795931912, -3491.856574041435, -18977.078077444803, -14175.029298666634, 0.01175, -0.10825, 0.993, 192.0, 0.0, 0.0, 0.0, 0.0, 0.0, 0.0, 0.0, 0.0, 0.0, 1.645919774120248E9, 0.0, 2022-02-27 10:56:14.120
110.0, -3009.0588938068026, -7167.444487505494, -4829.6308314360185, -9118.014170886776, -2919.093122374192, 3492.705940330737, -10760.532112185016, -9943.553500599088, -2351.090592275929, -6753.311366237565, -1328.9900218236473, 791.6540851180655, -6444.3208508874, -3403.880107865347, -17650.233823088864, -12515.099348437709, 0.01175, -0.10825, 0.993, 192.0, 0.0, 0.0, 0.0, 0.0, 0.0, 0.0, 0.0, 0.0, 0.0, 1.645919774126552E9, 0.0, 2022-02-27 10:56:14.126
112.0, -2263.82938192241, -6812.476433810763, -4561.901636350351, -8704.395139741318, -2388.507412494113, 4003.197431945495, -10765.918882598744, -10074.199446940356, -3663.473267969283, -6536.499445021087, -1321.8598153424043, 222.4892643081265, -6376.393899487723, -3397.4651572066737, -18292.019461634096, -12975.94761561723, 0.01175, -0.10825, 0.993, 192.0, 0.0, 0.0, 0.0, 0.0, 0.0, 0.0, 0.0, 0.0, 0.0, 1.645919774134561E9, 0.0, 2022-02-27 10:56:14.134
114.0, -2953.53716057982, -7092.677902302493, -4784.972046014314, -9128.497139036315, -2914.95804964996, 3556.9448538952893, -10851.48136037366, -10074.400612640455, -5491.823612668945, -7922.262897761214, -1357.644958215351, 311.0468758400531, -6537.125293865835, -3533.3414117504853, -18624.725177851342, -13977.931616059735, 0.009875, -0.110125, 0.9935, 192.0, 0.0, 32.0, 126.0, 64.0, 15.5, 8.0, 0.0, 0.0, 0.0, 1.645919774142631E9, 0.0, 2022-02-27 10:56:14.142
116.0, -2660.125811115004, -7033.982221362856, -4714.608754469008, -8892.060386188077, -2652.5262180001996, 3734.9094432484444, -10719.628419831804, -9925.359180612468, -1566.0079200277235, -6057.613320066133, -1328.744152634639, 682.0187785647844, -6363.742812126018, -3332.958022708657, -17566.48183661483, -12070.366689010465, 0.009875, -0.110125, 0.9935, 192.0, 0.0, 0.0, 0.0, 0.0, 0.0, 0.0, 0.0, 0.0, 0.0, 1.645919774149779E9, 0.0, 2022-02-27 10:56:14.149
118.0, -2462.4469831522683, -6870.568617650106, -4607.610953761453, -8866.624100997937, -2551.9657196957733, 3913.969268079909, -10759.302766239973, -10115.304304993666, -6112.084521303716, -7665.977795836663, -1353.3310715354767, -37.3497649848181, -6461.017603995515, -3514.1412632633765, -18965.94690870606, -14148.564833231549, 0.009875, -0.110125, 0.9935, 192.0, 0.0, 0.0, 0.0, 0.0, 0.0, 0.0, 0.0, 0.0, 0.0, 1.645919774157213E9, 0.0, 2022-02-27 10:56:14.157
120.0, -3021.687629424051, -7175.7593364428685, -4826.009848834258, -9112.023903372754, -2912.924040904527, 3495.0752252429993, -10735.453454906161, -9929.538956825609, -2379.5443629675347, -6777.205381060288, -1340.1435423068456, 783.4509949029679, -6419.353952330823, -3401.5555264419945, -17647.663372476505, -12518.630924061648, 0.009875, -0.110125, 0.9935, 192.0, 0.0, 0.0, 0.0, 0.0, 0.0, 0.0, 0.0, 0.0, 0.0, 1.645919774165282E9, 0.0, 2022-02-27 10:56:14.165
122.0, -2261.7283179436113, -6811.783529732648, -4565.053232318549, -8692.682825646738, -2382.025406602074, 4034.2663567383715, -10710.866536005324, -10016.599001479031, -3615.6852383238365, -6524.541261737498, -1324.162045021301, 228.74775275561248, -6345.079105505837, -3382.6906541217154, -18265.19736828773, -12936.295620953515, 0.009875, -0.110125, 0.9935, 192.0, 0.0, 0.0, 0.0, 0.0, 0.0, 0.0, 0.0, 0.0, 0.0, 1.645919774172261E9, 0.0, 2022-02-27 10:56:14.172
124.0, -2961.673195561552, -7085.704158032437, -4785.016749503226, -9121.18811859943, -2893.0756918282145, 3589.4219385888505, -10784.202609563186, -10023.2151178378, -5448.103600514365, -7897.22894397127, -1352.7275744351834, 323.4073905238379, -6506.011665584048, -3519.483330188195, -18598.260712416257, -13925.695589267683, 0.0099375, -0.11206250000000001, 0.99375, 192.0, 0.0, 40.0, 126.0, 56.0, 15.5, 8.0, 0.0, 0.0, 0.0, 1.645919774186936E9, 0.0, 2022-02-27 10:56:14.186
126.0, -2653.912026156429, -7004.187346003931, -4707.322085776578, -8873.396679567895, -2627.559319443622, 3758.848161560078, -10705.50211733605, -9924.4427590898, -1577.2731992331983, -6024.7339039723765, -1316.45069318422, 675.8273453506644, -6326.884785519217, -3323.4361795706964, -17537.044589167188, -12045.19862475379, 0.0099375, -0.11206250000000001, 0.99375, 192.0, 0.0, 0.0, 0.0, 0.0, 0.0, 0.0, 0.0, 0.0, 0.0, 1.645919774195648E9, 0.0, 2022-02-27 10:56:14.195
128.0, -2451.8299045359977, -6838.695030056839, -4615.344657342989, -8849.256795556164, -2539.9628329232733, 3935.8739776461102, -10805.727339473646, -10109.694017135384, -6122.433378986523, -7642.262594969582, -1340.5682254514963, -27.24677649101931, -6439.157597918224, -3496.8857165438794, -18967.645641284664, -14148.631888464915, 0.0099375, -0.11206250000000001, 0.99375, 192.0, 0.0, 0.0, 0.0, 0.0, 0.0, 0.0, 0.0, 0.0, 0.0, 1.645919774202094E9, 0.0, 2022-02-27 10:56:14.202
130.0, -3020.9053183681153, -7153.429943732017, -4839.644412951996, -9110.682798705435, -2913.14755834908, 3517.181100509298, -10779.665205438758, -9947.420352389856, -2440.788142775076, -6792.538677756629, -1336.7013736607282, 800.415968944546, -6412.357856316311, -3378.6226366308497, -17663.48840755086, -12547.308212197806, 0.0099375, -0.11206250000000001, 0.99375, 192.0, 0.0, 0.0, 0.0, 0.0, 0.0, 0.0, 0.0, 0.0, 0.0, 1.645919774209493E9, 0.0, 2022-02-27 10:56:14.209
132.0, -2270.959588403653, -6805.480337796252, -4581.727633682208, -8701.824689128958, -2382.13716532435, 4024.9903827894195, -10725.395169901272, -10025.159719605414, -3578.3578250834735, -6493.539392177987, -1328.6994491457283, 254.407555390305, -6341.68164034863, -3378.220305230654, -18257.843644361932, -12931.869975551364, 0.0099375, -0.11206250000000001, 0.99375, 192.0, 0.0, 0.0, 0.0, 0.0, 0.0, 0.0, 0.0, 0.0, 0.0, 1.645919774217555E9, 0.0, 2022-02-27 10:56:14.217
134.0, -2942.2718813743454, -7074.707099760426, -4788.61538036053, -9128.228918102852, -2885.118470802125, 3592.797052001602, -10798.865353925867, -10078.960368509337, -5490.661321957269, -7895.954894537318, -1359.9695396387028, 332.97393715070933, -6498.948514336171, -3530.189815782287, -18624.412253428967, -13963.961775775168, 0.012968750000000001, -0.11203125, 0.992875, 192.0, 0.0, 64.0, 126.0, 64.0, 15.5, 0.0, 0.0, 0.0, 0.0, 1.645919774225464E9, 0.0, 2022-02-27 10:56:14.225
136.0, -2678.074261912616, -7041.090076099644, -4718.587364982052, -8894.541429822615, -2625.704124653831, 3739.715068306335, -10727.004495502055, -9945.028715733137, -1559.3023966911312, -6055.512256087334, -1324.5420246770411, 690.6465519245329, -6305.404759097667, -3322.251537114565, -17529.869679197036, -12063.169427295856, 0.012968750000000001, -0.11203125, 0.992875, 192.0, 0.0, 0.0, 0.0, 0.0, 0.0, 0.0, 0.0, 0.0, 0.0, 1.645919774232161E9, 0.0, 2022-02-27 10:56:14.232
138.0, -2436.116628183917, -6861.292643701154, -4605.711055482752, -8853.414220024852, -2478.0932042709833, 3951.4307917870037, -10748.305707967962, -10054.328746119589, -6128.535405222822, -7678.360662264903, -1357.5108477486192, -58.71803268409165, -6428.048780923937, -3520.3550482219516, -18975.222882655013, -14153.392810033896, 0.012968750000000001, -0.11203125, 0.992875, 192.0, 0.0, 0.0, 0.0, 0.0, 0.0, 0.0, 0.0, 0.0, 0.0, 1.64591977423922E9, 0.0, 2022-02-27 10:56:14.239
140.0, -3092.56501109183, -7238.746552317924, -4851.423782279942, -9169.043203478243, -2908.967782135938, 3490.4260623962955, -10700.07064343341, -9896.771299454129, -2884.470270212921, -7074.125954404588, -1367.9938158981581, 678.8448308521308, -6429.881623969272, -3446.0131461636006, -17767.535777990317, -12756.43113332166, 0.012968750000000001, -0.11203125, 0.992875, 192.0, 0.0, 0.0, 0.0, 0.0, 0.0, 0.0, 0.0, 0.0, 0.0, 1.645919774247335E9, 0.0, 2022-02-27 10:56:14.247
142.0, -2318.3676383933594, -6911.137033836489, -4584.655712205853, -8734.324125566975, -2358.6454819018227, 4013.859214050676, -10691.129945651288, -9986.40179471991, -3302.626705482806, -6477.222618725613, -1336.254338771622, 246.38327913084976, -6314.568974324343, -3403.187203787232, -18152.656334955256, -12799.10061348684, 0.012968750000000001, -0.11203125, 0.992875, 192.0, 0.0, 0.0, 0.0, 0.0, 0.0, 0.0, 0.0, 0.0, 0.0, 1.645919774255219E9, 0.0, 2022-02-27 10:56:14.255
144.0, -2997.950076812515, -7165.678699693525, -4790.939961783882, -9151.09475268063, -2852.306109941734, 3601.2907148946188, -10770.523341956537, -10008.440614752844, -5472.779926393024, -7932.589403699566, -1378.1415078808675, 254.89929376832174, -6475.322720446911, -3550.3510892809736, -18617.840840559107, -13939.687781296705, 0.013484375, -0.11301562500000001, 0.9914375, 192.0, 0.0, 56.0, 126.0, 56.0, 15.0, 120.0, 0.0, 0.0, 0.0, 1.645919774262561E9, 0.0, 2022-02-27 10:56:14.262
146.0, -2715.1111024750594, -7095.963608737423, -4720.196690582835, -8918.167223711876, -2604.425263932379, 3745.3253561646175, -10692.649864274248, -9907.969523426238, -1542.8068092831147, -6074.913570274541, -1325.5031496886195, 639.7963332887093, -6293.491279302988, -3345.4973513480845, -17520.213725592344, -12038.470749672742, 0.013484375, -0.11301562500000001, 0.9914375, 192.0, 0.0, 0.0, 0.0, 0.0, 0.0, 0.0, 0.0, 0.0, 0.0, 1.645919774269766E9, 0.0, 2022-02-27 10:56:14.269
148.0, -2493.784128878609, -6930.9853829128015, -4610.561384029554, -8879.632816270927, -2498.746216147687, 3930.7777799103, -10776.200685048187, -10109.246982246279, -6086.4917739023895, -7676.505467475113, -1342.3116615190104, -81.0474253949434, -6403.126585856269, -3577.0390721606104, -18966.75157150645, -14139.825301149524, 0.013484375, -0.11301562500000001, 0.9914375, 192.0, 0.0, 0.0, 0.0, 0.0, 0.0, 0.0, 0.0, 0.0, 0.0, 1.645919774277837E9, 0.0, 2022-02-27 10:56:14.277
150.0, -3087.1558889336457, -7253.34224144724, -4838.973860618336, -9149.641889291035, -2893.1874505504907, 3506.2287457261978, -10748.395114945784, -9920.553555554576, -2556.257254631192, -6915.1379960939885, -1345.8879406318595, 738.2781193587923, -6392.062472350893, -3467.515524329606, -17690.668128808516, -12605.445099526061, 0.013484375, -0.11301562500000001, 0.9914375, 192.0, 0.0, 0.0, 0.0, 0.0, 0.0, 0.0, 0.0, 0.0, 0.0, 1.645919774286521E9, 0.0, 2022-02-27 10:56:14.286
152.0, -2317.987658737619, -6884.359643979031, -4571.311720766034, -8723.103549850412, -2349.481266675147, 4030.3324497142376, -10726.557460612948, -10032.088760386558, -3565.1926475992977, -6550.558692283475, -1322.3739054648765, 201.925659409244, -6310.635067300209, -3453.322166600486, -18243.627934888358, -12930.03713250603, 0.013484375, -0.11301562500000001, 0.9914375, 192.0, 0.0, 0.0, 0.0, 0.0, 0.0, 0.0, 0.0, 0.0, 0.0, 1.645919774292884E9, 0.0, 2022-02-27 10:56:14.292
154.0, -2978.884038792138, -7131.212309743441, -4790.85055480606, -9145.015078188788, -2861.7161943574183, 3604.0399794626214, -10800.98876964912, -10039.531891290175, -5588.494907438148, -7975.504753053756, -1353.6216442133957, 261.3142444269949, -6478.116688503825, -3606.2304504192416, -18661.158521313493, -14017.337741534442, 0.016, -0.11, 0.994, 192.0, 0.0, 64.0, 126.0, 72.0, 15.5, 8.0, 0.0, 0.0, 0.0, 1.645919774307466E9, 0.0, 2022-02-27 10:56:14.307
156.0, -2703.10821570256, -7083.960721964922, -4730.120865120991, -8919.441273145829, -2617.456330949823, 3752.1649899679414, -10690.191172384164, -9907.343674581489, -1586.7056353933378, -6091.789137338297, -1319.8928618303373, 657.677728852955, -6298.900401461173, -3394.894706594313, -17544.37596134853, -12073.540636723119, 0.016, -0.11, 0.994, 192.0, 0.0, 0.0, 0.0, 0.0, 0.0, 0.0, 0.0, 0.0, 0.0, 1.645919774314188E9, 0.0, 2022-02-27 10:56:14.314
158.0, -2455.205017948749, -6883.957312578835, -4617.892756210895, -8879.14107789291, -2496.4439864687906, 3945.798152184266, -10760.688574396203, -10111.124528780525, -6113.090349804205, -7679.545304721035, -1339.674155673284, -75.12421311428703, -6407.105196369314, -3588.1702408993533, -18976.921615233616, -14158.958394403267, 0.016, -0.11, 0.994, 192.0, 0.0, 0.0, 0.0, 0.0, 0.0, 0.0, 0.0, 0.0, 0.0, 1.64591977432245E9, 0.0, 2022-02-27 10:56:14.322
160.0, -3054.477638539987, -7219.278182897352, -4839.57735771863, -9161.130685941063, -2891.041683082781, 3515.705885375248, -10747.590452145392, -9932.645849304898, -2577.8266880305637, -6912.053455359156, -1334.5779579374741, 746.4588578294347, -6379.679605922653, -3477.9090855013237, -17708.616579606125, -12638.950364464567, 0.016, -0.11, 0.994, 192.0, 0.0, 0.0, 0.0, 0.0, 0.0, 0.0, 0.0, 0.0, 0.0, 1.645919774330065E9, 0.0, 2022-02-27 10:56:14.330
162.0, -2311.952687734686, -6862.656100112928, -4568.76362189813, -8739.040343647044, -2339.2218159701606, 4039.295499240816, -10691.621684029304, -10029.451254540832, -3483.4970216151505, -6511.957229609159, -1320.9880973086474, 230.7370580121348, -6290.160869379148, -3458.261902125109, -18218.482222376137, -12899.370539113348, 0.016, -0.11, 0.994, 192.0, 0.0, 0.0, 0.0, 0.0, 0.0, 0.0, 0.0, 0.0, 0.0, 1.645919774337295E9, 0.0, 2022-02-27 10:56:14.337
164.0, -2960.6226635721523, -7120.818748571724, -4786.626075104007, -9149.820703246678, -2845.131199971581, 3626.727000084758, -10760.8897400963, -10000.751614660217, -5658.589978049991, -7993.050872451172, -1360.8189059280046, 264.5775991174697, -6453.865045769817, -3605.604601574493, -18672.73672494134, -14047.557300038017, 0.016, -0.10400000000000001, 0.992, 192.0, 0.0, 64.0, 126.0, 96.0, 15.5, 0.0, 0.0, 0.0, 0.0, 1.645919774344827E9, 0.0, 2022-02-27 10:56:14.344
166.0, -2696.96148597735, -7066.414602567506, -4728.600946498031, -8926.035037760144, -2621.5690519295995, 3758.0882022485976, -10690.459393317627, -9890.870438917927, -1573.6298648869831, -6097.667646130043, -1329.1464840348344, 678.0178163072844, -6279.074404129316, -3373.19116272821, -17533.80358622117, -12068.958529109781, 0.016, -0.10400000000000001, 0.992, 192.0, 0.0, 0.0, 0.0, 0.0, 0.0, 0.0, 0.0, 0.0, 0.0, 1.645919774352653E9, 0.0, 2022-02-27 10:56:14.352
168.0, -2438.1953404182605, -6870.993300794757, -4605.442834549289, -8860.164446850355, -2490.163146276849, 3972.1508588970732, -10779.687557183213, -10087.096403491068, -6055.62401480961, -7635.110036743884, -1340.0764870734797, -37.21565451808626, -6388.0838618378475, -3577.463755305261, -18972.51832157592, -14135.600821447471, 0.016, -0.10400000000000001, 0.992, 192.0, 0.0, 0.0, 0.0, 0.0, 0.0, 0.0, 0.0, 0.0, 0.0, 1.645919774359753E9, 0.0, 2022-02-27 10:56:14.359
170.0, -3050.6107867492187, -7201.866173966668, -4828.982630846815, -9144.389229344039, -2891.6228284386193, 3528.1558070368537, -10731.385437415294, -9922.67697127783, -2621.099665296038, -6929.443112545385, -1319.0211437965804, 781.5734483687221, -6363.07225979236, -3458.664233525304, -17727.12382401512, -12659.156341452162, 0.016, -0.10400000000000001, 0.992, 192.0, 0.0, 0.0, 0.0, 0.0, 0.0, 0.0, 0.0, 0.0, 0.0, 1.64591977436685E9, 0.0, 2022-02-27 10:56:14.366
172.0, -2302.274382385538, -6864.667757113905, -4578.911313880839, -8731.999544143622, -2358.176095268261, 4042.0447638088185, -10703.155184168243, -9999.142289059435, -3432.0433058790336, -6499.417900969733, -1317.7694461070832, 264.4211369062825, -6282.583628008799, -3438.704125726715, -18212.670768817756, -12883.009062172063, 0.016, -0.10400000000000001, 0.992, 192.0, 0.0, 0.0, 0.0, 0.0, 0.0, 0.0, 0.0, 0.0, 0.0, 1.645919774374307E9, 0.0, 2022-02-27 10:56:14.374
174.0, -2943.6576895305743, -7106.848908287157, -4784.592066358575, -9141.125874653564, -2853.311938442223, 3633.8125030770902, -10776.178333303731, -10014.877917155973, -5659.349937361471, -7988.021729948728, -1355.1862663252673, 263.7058810837127, -6460.481162128587, -3593.4899560797166, -18692.093335639638, -14058.643765287849, 0.012, -0.108, 0.998, 192.0, 0.0, 48.0, 126.0, 80.0, 15.5, 24.0, 0.0, 0.0, 0.0, 1.645919774382499E9, 0.0, 2022-02-27 10:56:14.382
176.0, -2705.2092796813586, -7067.085154901166, -4728.3774290534775, -8924.224546459263, -2635.583595703077, 3752.5002661347708, -10698.237800388075, -9918.117215408947, -1530.893329488436, -6083.697805845476, -1319.9152135747927, 696.3685985050915, -6276.7274709615085, -3389.3961774583076, -17528.550926274173, -12072.758325667182, 0.012, -0.108, 0.998, 192.0, 0.0, 0.0, 0.0, 0.0, 0.0, 0.0, 0.0, 0.0, 0.0, 1.645919774390371E9, 0.0, 2022-02-27 10:56:14.390
178.0, -2442.7327445426877, -6855.458838398318, -4607.678008994819, -8857.482237515716, -2491.2136782662487, 3974.6989577649783, -10800.005292893087, -10102.675569376419, -6015.8155579347085, -7611.171318432251, -1342.7363446636612, -41.19426503113092, -6388.508544982498, -3570.668824990848, -18961.878891215194, -14132.158652801354, 0.012, -0.108, 0.998, 192.0, 0.0, 0.0, 0.0, 0.0, 0.0, 0.0, 0.0, 0.0, 0.0, 1.645919774396907E9, 0.0, 2022-02-27 10:56:14.396
180.0, -3070.213266636523, -7216.037179951332, -4842.773657175739, -9152.927595725965, -2899.445938997977, 3534.9730890957226, -10730.826643803912, -9935.05983770607, -2664.1714768614147, -6934.740475981293, -1343.4739522306863, 759.4899248468787, -6384.686396680641, -3474.891599999857, -17742.32301024473, -12689.241789489006, 0.012, -0.108, 0.998, 192.0, 0.0, 0.0, 0.0, 0.0, 0.0, 0.0, 0.0, 0.0, 0.0, 1.645919774404893E9, 0.0, 2022-02-27 10:56:14.404
182.0, -2325.8107692969766, -6886.930094591391, -4579.939494125783, -8729.809073187003, -2341.36758343787, 4050.091391812729, -10683.73151823658, -9997.711777414295, -3382.2659709770646, -6481.223580983113, -1330.6440509133402, 264.8011165620228, -6290.809069968352, -3440.4699135386845, -18191.011928440563, -12865.574701496924, 0.012, -0.108, 0.998, 192.0, 0.0, 0.0, 0.0, 0.0, 0.0, 0.0, 0.0, 0.0, 0.0, 1.64591977441295E9, 0.0, 2022-02-27 10:56:14.412
184.0, -2966.881152019638, -7119.723513093414, -4782.870982035516, -9142.891662465532, -2826.601603818131, 3642.641442136937, -10759.950966829178, -10028.93716441836, -5709.507251919181, -8008.115948214048, -1361.6682722173064, 251.74769780012343, -6467.454906398643, -3586.3597495984736, -18701.70458575542, -14081.59900684345, 0.012, -0.106, 0.998, 192.0, 0.0, 48.0, 126.0, 88.0, 15.5, 24.0, 0.0, 0.0, 0.0, 1.64591977441922E9, 0.0, 2022-02-27 10:56:14.419
186.0, -2747.0517453016932, -7099.495184361361, -4745.230644372778, -8939.982526300255, -2640.299813783147, 3749.1251527220197, -10677.920064678201, -9860.226197269702, -1551.7475070652374, -6111.9057073480735, -1333.9074056038148, 689.9536478464184, -6300.196802639581, -3393.2630292490758, -17519.006731391757, -12074.881741390436, 0.012, -0.106, 0.998, 192.0, 0.0, 0.0, 0.0, 0.0, 0.0, 0.0, 0.0, 0.0, 0.0, 1.645919774434582E9, 0.0, 2022-02-27 10:56:14.434
188.0, -2473.846372824475, -6898.731815663793, -4624.10654116947, -8871.094449888998, -2491.548954433078, 3971.3461960966824, -10754.36303071535, -10064.878769502493, -6017.916621913508, -7611.797167276999, -1364.417536785309, -56.527561727471564, -6416.582336018364, -3566.064365633055, -18955.24042311197, -14121.116891040432, 0.012, -0.106, 0.998, 192.0, 0.0, 0.0, 0.0, 0.0, 0.0, 0.0, 0.0, 0.0, 0.0, 1.645919774442572E9, 0.0, 2022-02-27 10:56:14.442
190.0, -3117.688371859595, -7247.128456488665, -4861.929102173937, -9166.696270310435, -2909.1242443471247, 3524.6465831573705, -10730.513719381539, -9900.660502989353, -2745.35301272309, -6984.473107394351, -1373.3135310785212, 742.9719856944067, -6404.758263201507, -3490.7389868186697, -17749.743789403892, -12719.148423570208, 0.012, -0.106, 0.998, 192.0, 0.0, 0.0, 0.0, 0.0, 0.0, 0.0, 0.0, 0.0, 0.0, 1.645919774449232E9, 0.0, 2022-02-27 10:56:14.449
192.0, -2355.7397551226327, -6912.813414670636, -4599.34080831299, -8735.084084878456, -2366.2227232721716, 4036.3674207171707, -10703.155184168243, -9982.914922584883, -3365.0551277464783, -6474.048671012959, -1348.9054261333258, 272.1995439767294, -6306.410587598156, -3447.6895269977485, -18185.379288837827, -12852.074247845918, 0.012, -0.106, 0.998, 192.0, 0.0, 0.0, 0.0, 0.0, 0.0, 0.0, 0.0, 0.0, 0.0, 1.64591977445718E9, 0.0, 2022-02-27 10:56:14.457
194.0, -2974.279579434345, -7130.474702176417, -4796.5278978977085, -9141.461150820393, -2849.4227349069997, 3639.4898461687385, -10779.061708338466, -10018.990638135749, -5762.52558976717, -8010.3958261484895, -1380.6225515154067, 252.01591873358714, -6480.865953071828, -3595.3227991250515, -18723.56459183271, -14101.335597197485, 0.014, -0.10200000000000001, 0.998, 192.0, 0.0, 56.0, 126.0, 104.0, 15.5, 24.0, 0.0, 0.0, 0.0, 1.64591977446525E9, 0.0, 2022-02-27 10:56:14.465
196.0, -2744.570701667154, -7101.015102984322, -4746.147065895447, -8936.450950676317, -2647.09474409756, 3747.135847465497, -10720.634248332293, -9907.544840281587, -1541.6221668269834, -6103.166175266048, -1342.065792330002, 710.8748806565858, -6293.4018723251675, -3368.2514272035874, -17531.926039686925, -12085.074136862057, 0.014, -0.10200000000000001, 0.998, 192.0, 0.0, 0.0, 0.0, 0.0, 0.0, 0.0, 0.0, 0.0, 0.0, 1.64591977447248E9, 0.0, 2022-02-27 10:56:14.472
198.0, -2482.2506287396704, -6938.003830671768, -4623.748913258185, -8871.429726055829, -2484.306989229559, 3977.783498499811, -10779.307577527474, -10086.068223246124, -5987.294732009737, -7617.161585946273, -1367.4126705423203, -55.76760241599112, -6399.55030674342, -3556.631929472915, -18956.04508591236, -14119.373454972918, 0.014, -0.10200000000000001, 0.998, 192.0, 0.0, 0.0, 0.0, 0.0, 0.0, 0.0, 0.0, 0.0, 0.0, 1.645919774479826E9, 0.0, 2022-02-27 10:56:14.479
200.0, -3114.335610191299, -7278.666767915102, -4859.783334706228, -9170.853694779122, -2908.0066571243597, 3525.115969790932, -10750.943213813689, -9908.036578659605, -2775.5502194822097, -7017.084302554644, -1381.4495660602531, 741.4073635825353, -6411.352027815822, -3477.886733756868, -17763.020725610342, -12731.777159187455, 0.014, -0.10200000000000001, 0.998, 192.0, 0.0, 0.0, 0.0, 0.0, 0.0, 0.0, 0.0, 0.0, 0.0, 1.645919774486915E9, 0.0, 2022-02-27 10:56:14.486
202.0, -2348.922473063764, -6916.3673420390305, -4592.702340209763, -8746.528178039573, -2359.6736621467667, 4033.349935215704, -10714.129890695798, -9996.057748324603, -3420.442750506729, -6500.580191681408, -1354.9627488807141, 253.535837356548, -6309.919811477639, -3438.793532704536, -18208.51334434907, -12891.994463443098, 0.014, -0.10200000000000001, 0.998, 192.0, 0.0, 0.0, 0.0, 0.0, 0.0, 0.0, 0.0, 0.0, 0.0, 1.645919774494981E9, 0.0, 2022-02-27 10:56:14.494
204.0, -2973.2513991894007, -7156.849760633679, -4791.52110713972, -9151.608842803102, -2836.123446956092, 3636.762933345191, -10756.17352201623, -9998.44938498132, -5712.949420565298, -8006.126642957526, -1391.0384644315798, 228.61364228888064, -6474.674519857707, -3594.8981159804007, -18705.75025150183, -14090.115021480922, 0.02, -0.106, 0.994, 192.0, 0.0, 80.0, 126.0, 88.0, 15.5, 8.0, 0.0, 0.0, 0.0, 1.645919774502055E9, 0.0, 2022-02-27 10:56:14.502
206.0, -2749.577492425143, -7122.137501494587, -4742.74960073824, -8942.15064551242, -2639.271633538203, 3750.019222500232, -10716.990913986077, -9874.777182910108, -1512.0731606570675, -6110.92223059204, -1355.2309698141778, 694.2228310373821, -6296.419357826634, -3357.656700331772, -17518.157365102456, -12072.713622178271, 0.02, -0.106, 0.994, 192.0, 0.0, 0.0, 0.0, 0.0, 0.0, 0.0, 0.0, 0.0, 0.0, 1.645919774509479E9, 0.0, 2022-02-27 10:56:14.509
208.0, -2483.68114038481, -6930.650106745971, -4619.300916111579, -8874.380156323929, -2478.3390734599916, 3966.6299780166128, -10750.965565558145, -10067.717441048319, -5968.340452711636, -7603.862297995365, -1374.9452084237587, -63.858933908812276, -6406.03231263546, -3551.8486561594796, -18949.4736730425, -14111.617399646926, 0.02, -0.106, 0.994, 192.0, 0.0, 0.0, 0.0, 0.0, 0.0, 0.0, 0.0, 0.0, 0.0, 1.645919774517563E9, 0.0, 2022-02-27 10:56:14.517
210.0, -3126.6290696417177, -7265.590997408748, -4850.887340413015, -9182.074270495687, -2893.7685959063288, 3511.4590539287396, -10722.131815210798, -9898.224162843724, -2765.1790100549474, -7002.62272389206, -1378.4991357921524, 721.7154767174097, -6401.807832933407, -3487.296818172553, -17764.361830277663, -12740.829615691855, 0.02, -0.106, 0.994, 192.0, 0.0, 0.0, 0.0, 0.0, 0.0, 0.0, 0.0, 0.0, 0.0, 1.64591977452464E9, 0.0, 2022-02-27 10:56:14.524
212.0, -2375.632807687856, -6942.854159218569, -4591.629456475908, -8755.11124791041, -2350.017708542074, 4015.826167562743, -10704.78686151348, -9962.284262452635, -3238.6336611072616, -6436.318926372401, -1359.2766355605884, 266.0975177404306, -6293.603038025265, -3442.258053095109, -18150.778788421012, -12804.621494367302, 0.02, -0.106, 0.994, 192.0, 0.0, 0.0, 0.0, 0.0, 0.0, 0.0, 0.0, 0.0, 0.0, 1.645919774532113E9, 0.0, 2022-02-27 10:56:14.532
214.0, -2978.012320758381, -7146.679716906514, -4787.944828026871, -9156.615633561092, -2822.0418479492487, 3634.6618693663922, -10770.27747276753, -9988.100527298515, -5819.120206728006, -8042.78350386423, -1407.3775896284092, 195.2871913060178, -6470.405336666744, -3602.5200608396603, -18752.241879968868, -14129.431739977807, 0.018000000000000002, -0.108, 0.994, 192.0, 0.0, 72.0, 126.0, 80.0, 15.5, 8.0, 0.0, 0.0, 0.0, 1.645919774540159E9, 0.0, 2022-02-27 10:56:14.540
216.0, -2800.852394205617, -7173.300644552785, -4756.898254978449, -8968.592759203048, -2645.1501423299483, 3721.11841691952, -10680.043480401455, -9860.76263913663, -1517.6163932819836, -6142.125265851649, -1372.9782549116917, 698.000275850329, -6290.049110656872, -3371.4700784051515, -17516.726853457316, -12067.550369209095, 0.018000000000000002, -0.108, 0.994, 192.0, 0.0, 0.0, 0.0, 0.0, 0.0, 0.0, 0.0, 0.0, 0.0, 1.645919774554358E9, 0.0, 2022-02-27 10:56:14.554
218.0, -2487.3468264754806, -6955.773467513736, -4619.926764956327, -8869.351013821484, -2454.422706892813, 3982.164440413051, -10762.722583141636, -10041.901176202438, -5922.854652745086, -7587.992559432097, -1397.9898569571803, -49.50911396850515, -6392.107175839803, -3548.7417636801915, -18938.49896651494, -14072.837123016969, 0.018000000000000002, -0.108, 0.994, 192.0, 0.0, 0.0, 0.0, 0.0, 0.0, 0.0, 0.0, 0.0, 0.0, 1.645919774561834E9, 0.0, 2022-02-27 10:56:14.561
220.0, -3151.618319942751, -7286.7580994079235, -4860.029203895236, -9188.82449732119, -2892.5839534501974, 3516.7117138757367, -10731.31838218193, -9873.078450331504, -2864.1301827585917, -7063.575931021683, -1402.482557592697, 700.3472090181361, -6393.448280507122, -3463.872189983391, -17800.1022696617, -12776.681813798168, 0.018000000000000002, -0.108, 0.994, 192.0, 0.0, 0.0, 0.0, 0.0, 0.0, 0.0, 0.0, 0.0, 0.0, 1.645919774569768E9, 0.0, 2022-02-27 10:56:14.569
222.0, -2422.817340233009, -6972.850200277591, -4609.2202793622355, -8769.97515797319, -2362.2888162480376, 4021.972897287953, -10694.460355575127, -9953.321212926056, -3371.671244105249, -6520.2720785465335, -1391.41844408732, 244.05869770749783, -6302.834308485307, -3432.1103611123995, -18190.520190062547, -12862.288995061994, 0.017, -0.11, 0.991, 192.0, 0.0, 64.0, 126.0, 64.0, 15.0, 112.0, 0.0, 0.0, 0.0, 1.645919774578023E9, 0.0, 2022-02-27 10:56:14.578
224.0, -3055.371708318199, -7220.574584075759, -4807.748473614272, -9169.19966568943, -2835.676412066986, 3641.859131081001, -10778.480562982628, -10005.065501340092, -5815.0074857482305, -8061.380155251045, -1441.6651656228503, 206.9771536561434, -6482.743499606073, -3592.2606101346746, -18749.559670634233, -14121.69803639627, 0.017, -0.11, 0.991, 192.0, 0.0, 0.0, 0.0, 0.0, 0.0, 0.0, 0.0, 0.0, 0.0, 1.645919774584446E9, 0.0, 2022-02-27 10:56:14.584
226.0, -2897.546040719276, -7242.009907008399, -4772.209199930335, -8981.266198309208, -2650.4922092547667, 3717.206861639841, -10691.219352629108, -9857.901615846351, -1548.506504119218, -6164.856989962696, -1413.8148920315377, 674.1956680054269, -6305.404759097667, -3383.2494477330983, -17524.728777972316, -12073.71945067876, 0.017, -0.11, 0.991, 192.0, 0.0, 0.0, 0.0, 0.0, 0.0, 0.0, 0.0, 0.0, 0.0, 1.645919774593067E9, 0.0, 2022-02-27 10:56:14.593
228.0, -2612.583650658566, -7076.405832339029, -4629.58271856102, -8879.543409293105, -2456.590826104978, 3985.874829992632, -10725.104597223353, -10029.78653070766, -5965.412374187991, -7613.875879511343, -1436.2783952091213, -101.85689948283428, -6402.9924753895375, -3561.504609764172, -18942.745797961452, -14074.82642827349, 0.017, -0.11, 0.991, 192.0, 0.0, 0.0, 0.0, 0.0, 0.0, 0.0, 0.0, 0.0, 0.0, 1.645919774599858E9, 0.0, 2022-02-27 10:56:14.599
230.0, -3316.0824556449006, -7459.6264910252685, -4870.959206933881, -9200.514459671314, -2899.2671250423346, 3524.1995482682646, -10696.606123042837, -9849.631470397886, -2955.3253001362446, -7125.400856185062, -1455.992633818702, 663.2880167112371, -6408.491004525543, -3482.446489625751, -17799.85640047269, -12786.67304356969, 0.017, -0.11, 0.991, 192.0, 0.0, 0.0, 0.0, 0.0, 0.0, 0.0, 0.0, 0.0, 0.0, 1.645919774606663E9, 0.0, 2022-02-27 10:56:14.606
232.0, -2606.168699999893, -7170.931359640523, -4620.083227167514, -8786.090765725467, -2369.016691329085, 4029.483083424936, -10667.146523850743, -9912.01518917265, -3382.6906541217154, -6543.093209635403, -1454.092735540001, 195.9130401507664, -6303.460157330055, -3441.363983316897, -18172.92936717622, -12830.951849335654, 0.0155, -0.10700000000000001, 0.9904999999999999, 192.0, 0.0, 56.0, 126.0, 96.0, 15.0, 120.0, 0.0, 0.0, 0.0, 1.645919774614817E9, 0.0, 2022-02-27 10:56:14.614
234.0, -3239.483027396563, -7420.019199850464, -4811.704732382862, -9182.633064107069, -2827.3839148740667, 3650.0622212960984, -10747.925728312222, -9962.664242108374, -5914.830376485632, -8117.013647200304, -1501.9701721632687, 129.84128354087872, -6474.741575091073, -3607.9291829978447, -18751.124292746103, -14131.421045234329, 0.0155, -0.10700000000000001, 0.9904999999999999, 192.0, 0.0, 0.0, 0.0, 0.0, 0.0, 0.0, 0.0, 0.0, 0.0, 1.645919774621978E9, 0.0, 2022-02-27 10:56:14.621
236.0, -3092.0285692249026, -7442.147426861218, -4784.99439775877, -9002.187431119375, -2661.2657500822247, 3741.7043735628577, -10669.96284365211, -9815.366246147902, -1595.9369058533796, -6207.794691061341, -1470.6553781813834, 626.4970453378016, -6303.348398607779, -3376.901552307791, -17508.769632431227, -12059.347278993999, 0.0155, -0.10700000000000001, 0.9904999999999999, 192.0, 0.0, 0.0, 0.0, 0.0, 0.0, 0.0, 0.0, 0.0, 0.0, 1.645919774629398E9, 0.0, 2022-02-27 10:56:14.629
238.0, -2729.863253815562, -7200.949752444, -4633.941308729805, -8880.549237793593, -2446.689003311277, 4034.4898741829247, -10727.74210306908, -10001.846850138529, -5949.453228646902, -7613.428844622236, -1490.1013958575006, -151.2989582179735, -6389.4920217385325, -3528.692248903781, -18920.63992269515, -14038.907174933813, 0.0155, -0.10700000000000001, 0.9904999999999999, 192.0, 0.0, 0.0, 0.0, 0.0, 0.0, 0.0, 0.0, 0.0, 0.0, 1.645919774637397E9, 0.0, 2022-02-27 10:56:14.637
240.0, -3383.0482820330003, -7535.510663451036, -4876.658901769984, -9200.357997460127, -2907.403160024066, 3541.8797781324124, -10702.574038812405, -9839.66259237082, -3039.07728661028, -7171.5348567408155, -1486.5251167446515, 639.2822431662373, -6405.629981235264, -3474.288102899564, -17816.396691369617, -12816.91495381772, 0.0155, -0.10700000000000001, 0.9904999999999999, 192.0, 0.0, 0.0, 0.0, 0.0, 0.0, 0.0, 0.0, 0.0, 0.0, 1.645919774645547E9, 0.0, 2022-02-27 10:56:14.645
242.0, -2608.1803570008706, -7175.334653298218, -4621.357276601467, -8767.918797483302, -2366.3568337389033, 4050.4937232129246, -10681.473992046595, -9902.493346034687, -3213.2644311504882, -6479.860124571339, -1450.9187878273474, 241.66706105077995, -6287.724529233519, -3408.2834015230424, -18117.63115139379, -12750.574976274369, 0.01475, -0.10650000000000001, 0.99225, 192.0, 0.0, 56.0, 126.0, 88.0, 15.5, 8.0, 0.0, 0.0, 0.0, 1.645919774652012E9, 0.0, 2022-02-27 10:56:14.652
244.0, -3163.1965235706, -7381.954179043077, -4799.545383399175, -9150.826531747167, -2811.827100733173, 3700.241887598263, -10742.22603347612, -9954.729372826741, -6007.031322363773, -8117.773606511785, -1481.6524364533946, 136.03271675499877, -6461.844618540361, -3576.9049616938787, -18787.222360041425, -14165.75332471768, 0.01475, -0.10650000000000001, 0.99225, 192.0, 0.0, 0.0, 0.0, 0.0, 0.0, 0.0, 0.0, 0.0, 0.0, 1.645919774660053E9, 0.0, 2022-02-27 10:56:14.660
246.0, -2992.5409546543306, -7376.008615017965, -4772.857400519539, -8976.617035462503, -2661.3104535711354, 3754.4225161579275, -10670.052250629933, -9827.816167809508, -1584.4928126922623, -6218.814101077807, -1437.9324242988139, 676.2520284953151, -6282.628331497709, -3334.7685140095373, -17502.488792239285, -12064.063497074068, 0.01475, -0.10650000000000001, 0.99225, 192.0, 0.0, 0.0, 0.0, 0.0, 0.0, 0.0, 0.0, 0.0, 0.0, 1.645919774666982E9, 0.0, 2022-02-27 10:56:14.666
248.0, -2611.130787268971, -7120.796396827269, -4627.213433648758, -8853.436571769307, -2446.3760788889026, 4035.7862753613326, -10746.830492833913, -10011.659265954408, -5887.002454638774, -7589.043091421497, -1452.6845756393166, -89.74225398805785, -6368.101402294803, -3528.5134349481386, -18908.033538822358, -14024.400892782318, 0.01475, -0.10650000000000001, 0.99225, 192.0, 0.0, 0.0, 0.0, 0.0, 0.0, 0.0, 0.0, 0.0, 0.0, 1.645919774681627E9, 0.0, 2022-02-27 10:56:14.681
250.0, -3278.1068418153336, -7455.111438645296, -4875.317797102666, -9195.172392746495, -2911.1359013481024, 3557.70481320677, -10700.920009722711, -9856.582862923487, -3061.853714210238, -7166.103382838176, -1458.317215242054, 659.2423509648265, -6395.728158441563, -3476.21035292272, -17832.378188655162, -12842.485349474591, 0.01475, -0.10650000000000001, 0.99225, 192.0, 0.0, 0.0, 0.0, 0.0, 0.0, 0.0, 0.0, 0.0, 0.0, 1.645919774689663E9, 0.0, 2022-02-27 10:56:14.689
252.0, -2528.8316641845304, -7126.9207748080225, -4623.681858024819, -8763.53785557006, -2377.197429799727, 4036.993269561919, -10662.720878448592, -9907.76835772614, -3147.3491367517877, -6449.998193979049, -1431.2939561955877, 242.82935176245593, -6284.438822798589, -3407.2999247670086, -18101.62730236379, -12732.782987687944, 0.014374999999999999, -0.10525000000000001, 0.993125, 192.0, 0.0, 56.0, 126.0, 96.0, 15.5, 8.0, 0.0, 0.0, 0.0, 1.645919774697698E9, 0.0, 2022-02-27 10:56:14.697
254.0, -3079.0869091852796, -7328.041771416876, -4791.856383306549, -9139.181272885951, -2812.899984467028, 3694.721006717802, -10758.833379606413, -9965.815838076573, -6003.365636273103, -8121.707513535919, -1465.2686077676544, 161.91603683424435, -6458.983595250082, -3582.247028618697, -18794.397270011577, -14177.644452767903, 0.014374999999999999, -0.10525000000000001, 0.993125, 192.0, 0.0, 0.0, 0.0, 0.0, 0.0, 0.0, 0.0, 0.0, 0.0, 1.64591977470427E9, 0.0, 2022-02-27 10:56:14.704
0.0, -2927.184453867013, -7312.954343909543, -4764.341385882066, -8976.929959884877, -2674.0062444217497, 3744.78891429769, -10707.133794681287, -9845.89872907385, -1555.3684896669972, -6211.236859707458, -1413.61372633144, 702.6941421859434, -6279.186162851592, -3359.5342468660174, -17502.42173700592, -12072.445401244808, 0.014374999999999999, -0.10525000000000001, 0.993125, 192.0, 0.0, 0.0, 0.0, 0.0, 0.0, 0.0, 0.0, 0.0, 0.0, 1.645919774712258E9, 0.0, 2022-02-27 10:56:14.712
2.0, -2545.684879503832, -7061.117239131599, -4610.650791007375, -8847.155731577364, -2448.6559568233442, 4032.4335136930367, -10720.45543437665, -10008.753539175217, -5823.143520729962, -7542.529111210002, -1419.1122554674455, -63.970692631088816, -6360.948844069105, -3544.1596560668536, -18896.812963105796, -14013.605000210406, 0.014374999999999999, -0.10525000000000001, 0.993125, 192.0, 0.0, 0.0, 0.0, 0.0, 0.0, 0.0, 0.0, 0.0, 0.0, 1.645919774720348E9, 0.0, 2022-02-27 10:56:14.720
4.0, -3222.9650882440915, -7405.8481938658, -4867.427631309943, -9185.650549608536, -2927.2291573559237, 3550.060516603055, -10708.78782377098, -9851.509016932132, -3083.8031272653493, -7173.367699786151, -1434.2443864636882, 686.9585140894072, -6386.720405426074, -3496.5280886325945, -17839.441339903038, -12860.947890394675, 0.014374999999999999, -0.10525000000000001, 0.993125, 192.0, 0.0, 0.0, 0.0, 0.0, 0.0, 0.0, 0.0, 0.0, 0.0, 1.645919774727556E9, 0.0, 2022-02-27 10:56:14.727
6.0, -2454.400355148358, -7066.615768267605, -4610.002590418171, -8757.547588056039, -2379.6114182009005, 4051.4101447355924, -10690.54880029545, -9917.826642731028, -3076.315292872822, -6420.426836064677, -1410.9762204857136, 293.3666459759052, -6275.609883738743, -3416.642953949327, -18087.948034757144, -12722.478833494048, 0.0151875, -0.107625, 0.9925625, 192.0, 0.0, 64.0, 126.0, 72.0, 15.5, 0.0, 0.0, 0.0, 0.0, 1.645919774733864E9, 0.0, 2022-02-27 10:56:14.733
8.0, -3005.8178908607833, -7262.528808418371, -4778.6241505890075, -9127.625421002558, -2817.8173682471956, 3714.9046319609442, -10762.588472674905, -9956.897492038905, -6003.2538775508265, -8093.611370755598, -1438.9829562882135, 172.7566328950683, -6446.667784055207, -3595.345150869507, -18807.651854473574, -14202.544296091117, 0.0151875, -0.107625, 0.9925625, 192.0, 0.0, 0.0, 0.0, 0.0, 0.0, 0.0, 0.0, 0.0, 0.0, 1.645919774742056E9, 0.0, 2022-02-27 10:56:14.742
10.0, -2865.314825214723, -7248.581319878259, -4755.51244682222, -8969.509180725716, -2670.1840961198923, 3761.753888339268, -10675.461372788117, -9829.157272476825, -1547.9700622522905, -6199.569249101788, -1392.9830661991914, 709.4220172669909, -6269.23963656898, -3367.2455987030985, -17497.392594503475, -12084.716508950773, 0.0151875, -0.107625, 0.9925625, 192.0, 0.0, 0.0, 0.0, 0.0, 0.0, 0.0, 0.0, 0.0, 0.0, 1.645919774749983E9, 0.0, 2022-02-27 10:56:14.749
12.0, -2511.956097120774, -7019.72180840037, -4603.073549637026, -8847.289842044096, -2444.6996980547547, 4035.98744106143, -10758.341641228395, -10009.669960697885, -5831.7265906008, -7542.7302769101, -1409.5010053516635, -63.970692631088816, -6367.520256938966, -3536.2247867852197, -18895.047175293825, -14024.713817204693, 0.0151875, -0.107625, 0.9925625, 192.0, 0.0, 0.0, 0.0, 0.0, 0.0, 0.0, 0.0, 0.0, 0.0, 1.645919774756947E9, 0.0, 2022-02-27 10:56:14.756
14.0, -3188.5657535273735, -7374.846324306289, -4858.196360849901, -9188.757442087823, -2926.5809567667197, 3548.2276735577198, -10748.909205068256, -9858.61687166892, -3065.3629380897214, -7152.021783831333, -1420.9450985127805, 692.3005810142256, -6387.949751371116, -3469.4601260972177, -17843.889337049644, -12870.179160854717, 0.0151875, -0.107625, 0.9925625, 192.0, 0.0, 0.0, 0.0, 0.0, 0.0, 0.0, 0.0, 0.0, 0.0, 1.645919774764546E9, 0.0, 2022-02-27 10:56:14.764
16.0, -2451.9416632582743, -7055.506951273317, -4613.1541863863695, -8756.87703572238, -2390.7202351951883, 4035.003964305397, -10714.129890695798, -9917.066683419549, -3017.4855014664536, -6401.047873621926, -1393.6312667883954, 313.05853284103074, -6271.787735436886, -3423.750808686115, -18078.247377663538, -12699.9482750831, 0.01559375, -0.1078125, 0.99128125, 192.0, 0.0, 64.0, 126.0, 80.0, 15.0, 120.0, 0.0, 0.0, 0.0, 1.645919774772536E9, 0.0, 2022-02-27 10:56:14.772
18.0, -2984.6507888616075, -7226.251927167407, -4776.120755210013, -9129.078284392153, -2830.826083520184, 3694.3857305509728, -10794.23854282362, -9992.839097123038, -6023.52690977179, -8092.851411444118, -1430.6010521174733, 159.61380715534773, -6452.188664935668, -3607.8844795089344, -18822.895744192094, -14217.430557898351, 0.01559375, -0.1078125, 0.99128125, 192.0, 0.0, 0.0, 0.0, 0.0, 0.0, 0.0, 0.0, 0.0, 0.0, 1.645919774779952E9, 0.0, 2022-02-27 10:56:14.779
20.0, -2881.8774678561053, -7251.040011768343, -4768.096478950558, -8988.038776879166, -2709.254945427769, 3708.981419680288, -10728.099730980364, -9853.341859977469, -1520.4327130833524, -6206.118310227193, -1392.4242725878087, 719.994392394351, -6285.019968154427, -3383.5623721554725, -17505.998016118767, -12096.071195134067, 0.01559375, -0.1078125, 0.99128125, 192.0, 0.0, 0.0, 0.0, 0.0, 0.0, 0.0, 0.0, 0.0, 0.0, 1.645919774787238E9, 0.0, 2022-02-27 10:56:14.787
22.0, -2466.0232622651174, -6981.969712015357, -4597.642075734387, -8833.878795370912, -2447.6054248339447, 4018.84365306421, -10793.791507934513, -10041.3200308466, -5713.2846967321275, -7481.285331402461, -1393.0054179436468, -57.399279761228534, -6362.044079547415, -3547.3336037795075, -18888.498114168422, -13995.522438946062, 0.01559375, -0.1078125, 0.99128125, 192.0, 0.0, 0.0, 0.0, 0.0, 0.0, 0.0, 0.0, 0.0, 0.0, 1.645919774802322E9, 0.0, 2022-02-27 10:56:14.802
24.0, -3173.075994619846, -7340.603451800758, -4856.922311415949, -9187.617503120602, -2936.505131304876, 3522.8807953454016, -10762.9908040751, -9881.303892291056, -3139.101343047779, -7200.815641977268, -1402.4378541037863, 688.8137088791977, -6395.705806697108, -3489.956675762734, -17879.652128178135, -12928.51721388307, 0.01559375, -0.1078125, 0.99128125, 192.0, 0.0, 0.0, 0.0, 0.0, 0.0, 0.0, 0.0, 0.0, 0.0, 1.645919774809376E9, 0.0, 2022-02-27 10:56:14.809
26.0, -2437.2118636622267, -7022.515776457283, -4609.644962506886, -8760.788591002058, -2393.8941829078417, 4026.5326531568353, -10713.12406219531, -9923.168709655847, -2967.4175938865656, -6390.386091516744, -1374.1852491122781, 321.2616230561284, -6278.761479706941, -3422.767331930081, -18065.216310646094, -12689.13003076673, 0.013796875, -0.10890625000000001, 0.9926406249999999, 192.0, 0.0, 48.0, 126.0, 72.0, 15.5, 8.0, 0.0, 0.0, 0.0, 1.645919774816879E9, 0.0, 2022-02-27 10:56:14.816
28.0, -2961.986119983926, -7200.681531510536, -4767.1800574278905, -9116.874231919555, -2808.250821620324, 3715.530480805693, -10799.55825800398, -9980.612692905986, -6046.593910049666, -8092.113803877092, -1414.351333898465, 156.0151762980433, -6461.911673773727, -3599.346113127007, -18836.64206703211, -14232.763854594692, 0.013796875, -0.10890625000000001, 0.9926406249999999, 192.0, 0.0, 0.0, 0.0, 0.0, 0.0, 0.0, 0.0, 0.0, 0.0, 1.645919774824922E9, 0.0, 2022-02-27 10:56:14.824
30.0, -2868.824049094206, -7236.936061017044, -4757.010013700726, -8981.623826220492, -2688.065491684138, 3728.1368646784863, -10717.013265730533, -9840.75782784913, -1510.799111223115, -6211.572135874288, -1377.1356793803786, 743.6201862836107, -6290.33968333479, -3367.066784747456, -17496.2303037918, -12083.19659032781, 0.013796875, -0.10890625000000001, 0.9926406249999999, 192.0, 0.0, 0.0, 0.0, 0.0, 0.0, 0.0, 0.0, 0.0, 0.0, 1.645919774832845E9, 0.0, 2022-02-27 10:56:14.832
32.0, -2452.142828958372, -6969.385679887018, -4587.203811073758, -8827.620306923427, -2428.5170350691124, 4055.9475488600197, -10767.192932032696, -10002.02566409417, -5672.02337646763, -7461.168761392684, -1384.2658858616217, -24.25164273400816, -6367.743774383518, -3511.5708126510162, -18866.280480179845, -13955.043429737501, 0.013796875, -0.10890625000000001, 0.9926406249999999, 192.0, 0.0, 0.0, 0.0, 0.0, 0.0, 0.0, 0.0, 0.0, 0.0, 1.645919774839592E9, 0.0, 2022-02-27 10:56:14.839
34.0, -3168.762107939972, -7333.517948808426, -4844.4276862654315, -9192.154907245029, -2905.7491309343736, 3554.374403282929, -10759.012193562055, -9879.42634575681, -3191.6726460066616, -7213.757302016891, -1396.961676712236, 701.9565346189183, -6403.9312486566605, -3474.802193022036, -17873.86302636421, -12935.289792453026, 0.013796875, -0.10890625000000001, 0.9926406249999999, 192.0, 0.0, 0.0, 0.0, 0.0, 0.0, 0.0, 0.0, 0.0, 0.0, 1.645919774847438E9, 0.0, 2022-02-27 10:56:14.847
36.0, -2435.8707589949086, -7028.81896839368, -4596.546840256076, -8760.9674049577, -2361.819429614476, 4049.9125778570865, -10707.334960381384, -9887.875305160916, -2927.542081778298, -6367.810829616885, -1361.9811966396805, 340.93115817679865, -6278.515610517933, -3405.936468355235, -18034.884993420244, -12661.346812408783, 0.012, -0.112, 0.996, 192.0, 0.0, 48.0, 126.0, 64.0, 15.5, 16.0, 0.0, 0.0, 0.0, 1.645919774854526E9, 0.0, 2022-02-27 10:56:14.854
38.0, -2940.1708173955462, -7183.381281302129, -4756.540627067164, -9117.164804597474, -2756.573588439654, 3748.45460038836, -10803.939199917222, -9970.040317778627, -6054.86405549813, -8079.708585704397, -1394.1006534219568, 164.68765314670244, -6455.988461493071, -3570.042976146099, -18823.655703503573, -14225.119557990976, 0.012, -0.112, 0.996, 192.0, 0.0, 0.0, 0.0, 0.0, 0.0, 0.0, 0.0, 0.0, 0.0, 1.645919774862634E9, 0.0, 2022-02-27 10:56:14.862
40.0, -2858.1399152445692, -7231.750456303413, -4760.2510166467455, -8982.24967506524, -2703.3987883804784, 3739.715068306335, -10728.725579825114, -9823.748150318641, -1497.0304366386458, -6198.406958390112, -1356.3932605258537, 766.5083726058451, -6288.9985786674715, -3355.130953208322, -17474.63851864797, -12077.183971069333, 0.012, -0.112, 0.996, 192.0, 0.0, 0.0, 0.0, 0.0, 0.0, 0.0, 0.0, 0.0, 0.0, 1.645919774869069E9, 0.0, 2022-02-27 10:56:14.869
42.0, -2425.0301629340843, -6954.633528546516, -4574.128040567403, -8814.07514978351, -2427.041819935062, 4072.510191501402, -10775.217208292152, -10013.827385166573, -5624.168291588819, -7435.6207174802685, -1358.7848971825717, -10.706485594092083, -6374.963387842583, -3506.8769463154017, -18851.237756161423, -13941.162996430756, 0.012, -0.112, 0.996, 192.0, 0.0, 0.0, 0.0, 0.0, 0.0, 0.0, 0.0, 0.0, 0.0, 1.645919774877279E9, 0.0, 2022-02-27 10:56:14.877
44.0, -3138.6096046697626, -7320.9786201689985, -4833.5647384601525, -9184.667072852502, -2912.0746746152254, 3557.9730341402337, -10760.912091840755, -9887.741194694185, -3223.6803440666613, -7223.301496899307, -1369.4243275432977, 710.4278457674797, -6410.122681870781, -3458.708937014215, -17879.942700856056, -12957.172150274773, 0.012, -0.112, 0.996, 192.0, 0.0, 0.0, 0.0, 0.0, 0.0, 0.0, 0.0, 0.0, 0.0, 1.645919774885216E9, 0.0, 2022-02-27 10:56:14.885
46.0, -2405.7406074691544, -6997.124194756055, -4576.765546413129, -8756.139428155355, -2377.175078055272, 4050.314909257282, -10734.000591516566, -9943.508797110177, -3019.6089171897074, -6399.7067689546075, -1341.641109185351, 341.91463493283214, -6291.658436257653, -3403.343665998419, -18063.785799000954, -12720.154252070697, 0.014, -0.112, 0.994, 192.0, 0.0, 56.0, 126.0, 64.0, 15.5, 8.0, 0.0, 0.0, 0.0, 1.64591977489188E9, 0.0, 2022-02-27 10:56:14.891
48.0, -2933.2417766144013, -7194.6018570186925, -4741.3190890931, -9119.936420909933, -2787.128423110059, 3719.464387829827, -10810.37650232035, -9991.11801279998, -5978.890476094542, -8073.472449001366, -1377.3815485693872, 200.51749950855967, -6465.353842419844, -3582.112918151965, -18797.995900868882, -14210.85914502849, 0.014, -0.112, 0.994, 192.0, 0.0, 0.0, 0.0, 0.0, 0.0, 0.0, 0.0, 0.0, 0.0, 1.645919774900377E9, 0.0, 2022-02-27 10:56:14.900
50.0, -2874.702557885952, -7237.383095906151, -4757.099420678547, -8994.16315485992, -2716.765131564752, 3713.921155204911, -10750.9879173026, -9865.545912450065, -1444.7720581021379, -6204.956019515517, -1362.0929553619571, 766.7318900503982, -6315.887727247206, -3368.4972963925957, -17481.254635006742, -12070.38904075492, 0.014, -0.112, 0.994, 192.0, 0.0, 0.0, 0.0, 0.0, 0.0, 0.0, 0.0, 0.0, 0.0, 1.645919774907855E9, 0.0, 2022-02-27 10:56:14.907
52.0, -2418.2799361085818, -6954.7005837798815, -4564.941473596272, -8805.536783401583, -2429.656974036333, 4052.997118591919, -10829.487243829637, -10061.235435156279, -5553.581482598959, -7412.307848013384, -1360.3718710388985, 4.157424468687114, -6384.507582724998, -3520.131530777399, -18855.30577365229, -13930.076531180923, 0.014, -0.112, 0.994, 192.0, 0.0, 0.0, 0.0, 0.0, 0.0, 0.0, 0.0, 0.0, 0.0, 1.645919774914943E9, 0.0, 2022-02-27 10:56:14.914
54.0, -3156.8039246563826, -7325.538376037882, -4834.369401260544, -9186.186991475462, -2937.2650906163562, 3538.3929059973843, -10805.794394707013, -9909.400035071378, -3239.2818616964655, -7259.533674661359, -1373.0453101450576, 706.8739183990858, -6426.975897190082, -3482.9829314926783, -17920.51111704244, -12995.036005382062, 0.014, -0.112, 0.994, 192.0, 0.0, 0.0, 0.0, 0.0, 0.0, 0.0, 0.0, 0.0, 0.0, 1.645919774929337E9, 0.0, 2022-02-27 10:56:14.929
56.0, -2419.509282053624, -7002.667427380971, -4576.251456290657, -8755.40182058833, -2395.4811567641686, 4030.3100979697824, -10734.671143850224, -9934.903375494883, -2844.4606476379213, -6364.413364459678, -1346.7373069211612, 359.12547816341856, -6301.292038117891, -3406.9870003446345, -18036.583725998848, -12654.8871582612, 0.016, -0.112, 0.994, 192.0, 0.0, 64.0, 126.0, 64.0, 15.5, 8.0, 0.0, 0.0, 0.0, 1.645919774937578E9, 0.0, 2022-02-27 10:56:14.937
58.0, -2908.632505969108, -7160.3813362576175, -4731.260804088211, -9108.917010893467, -2780.4005480290116, 3735.2447194152737, -10829.330781618452, -10014.497937500231, -6039.039020423773, -8089.74451896483, -1369.8266589434934, 179.79743239849, -6480.8883048162825, -3577.6649210053592, -18846.54388982581, -14254.042715316144, 0.016, -0.112, 0.994, 192.0, 0.0, 0.0, 0.0, 0.0, 0.0, 0.0, 0.0, 0.0, 0.0, 1.645919774944514E9, 0.0, 2022-02-27 10:56:14.944
60.0, -2879.642293410575, -7231.728104558958, -4744.291871105655, -8996.063053138621, -2716.5639658646546, 3705.4498440563493, -10756.12881852732, -9866.864665372928, -1431.4951218956855, -6227.665391882109, -1351.8335046569712, 762.9097417485407, -6320.849814516284, -3376.901552307791, -17488.675414165904, -12071.86425588897, 0.016, -0.112, 0.994, 192.0, 0.0, 0.0, 0.0, 0.0, 0.0, 0.0, 0.0, 0.0, 0.0, 1.64591977495203E9, 0.0, 2022-02-27 10:56:14.952
62.0, -2384.104118836417, -6918.289592062187, -4530.028048757083, -8791.522239628106, -2390.0273311170736, 4084.736595718455, -10804.98973190662, -10025.584402750064, -5474.74687990509, -7381.4400889206045, -1331.2698997580887, 18.77546534245793, -6365.419192960167, -3490.917800774312, -18830.160061140068, -13886.088298092878, 0.016, -0.112, 0.994, 192.0, 0.0, 0.0, 0.0, 0.0, 0.0, 0.0, 0.0, 0.0, 0.0, 1.645919774960108E9, 0.0, 2022-02-27 10:56:14.960
64.0, -3146.8126948848603, -7301.06321585932, -4822.14299704349, -9188.131593243073, -2935.4769510599317, 3541.8350746435017, -10826.648572283813, -9900.258171589157, -3300.1456618482666, -7290.893172132155, -1352.2805395460773, 699.7884154067535, -6420.493891298043, -3474.4892685996615, -17934.27979162691, -13018.482985315679, 0.016, -0.112, 0.994, 192.0, 0.0, 0.0, 0.0, 0.0, 0.0, 0.0, 0.0, 0.0, 0.0, 1.645919774967306E9, 0.0, 2022-02-27 10:56:14.967
66.0, -2405.3829795578695, -6966.658767063471, -4565.656729418842, -8749.031573418568, -2386.607514215412, 4027.2702607238607, -10730.357257170352, -9936.512701095666, -2707.042122726694, -6328.0917797198035, -1329.7946846240384, 383.3547691529714, -6299.05686367236, -3389.7761571140477, -18002.85494361579, -12586.82609639479, 0.014, -0.11, 0.99, 192.0, 0.0, 56.0, 126.0, 72.0, 15.0, 120.0, 0.0, 0.0, 0.0, 1.645919774974735E9, 0.0, 2022-02-27 10:56:14.974
68.0, -2854.5859878761757, -7088.922809234001, -4691.385291979944, -9077.557513422671, -2757.869989618062, 3749.080449233109, -10834.605793309904, -10020.868184669995, -6102.652085143577, -8077.719280447875, -1336.9919463386473, 166.98988282559907, -6457.821304538406, -3561.281092319619, -18863.620622589664, -14289.313768066619, 0.014, -0.11, 0.99, 192.0, 0.0, 0.0, 0.0, 0.0, 0.0, 0.0, 0.0, 0.0, 0.0, 1.645919774981744E9, 0.0, 2022-02-27 10:56:14.981
70.0, -2884.4926219573763, -7194.400691318595, -4739.039211158659, -9000.622809007504, -2733.9312713064282, 3687.3672827920063, -10761.761458130057, -9871.42442124181, -1482.0771195980453, -6261.5282847318995, -1330.711106146706, 773.7950412982752, -6318.189956926103, -3391.5642966704727, -17499.337196271088, -12111.49389880823, 0.014, -0.11, 0.99, 192.0, 0.0, 0.0, 0.0, 0.0, 0.0, 0.0, 0.0, 0.0, 0.0, 1.645919774989718E9, 0.0, 2022-02-27 10:56:14.989
72.0, -2363.540513937535, -6886.684225402382, -4515.6558770723195, -8779.385242388875, -2373.3529297534146, 4088.4022818091253, -10795.914923657767, -10005.490184484743, -5284.488831101517, -7313.043750887365, -1333.9297573482702, 36.32158473987398, -6372.147068041214, -3505.8487660704573, -18774.638327913086, -13802.515125574486, 0.014, -0.11, 0.99, 192.0, 0.0, 0.0, 0.0, 0.0, 0.0, 0.0, 0.0, 0.0, 0.0, 1.645919774996921E9, 0.0, 2022-02-27 10:56:14.996
74.0, -3083.177278420601, -7229.403523135606, -4788.101290238058, -9161.644776063535, -2895.601438951664, 3582.0011594296884, -10831.14127291933, -9934.702209794785, -3629.0292297636547, -7367.000862002476, -1328.610042167907, 666.9089993129968, -6408.870984181283, -3463.4028033498294, -18025.09492934882, -13186.009310008207, 0.014, -0.11, 0.99, 192.0, 0.0, 0.0, 0.0, 0.0, 0.0, 0.0, 0.0, 0.0, 0.0, 1.645919775004225E9, 0.0, 2022-02-27 10:56:15.004
76.0, -2552.1892371403264, -7033.8257591516685, -4635.841207008506, -8830.101350557965, -2508.0892453300057, 3913.0304948127864, -10818.244316368618, -9941.63125057593, -2517.2758123011367, -6333.657364089176, -1339.4059347398204, 442.63159544844575, -6323.666134317653, -3409.155119556799, -17950.618916823736, -12530.902031767611, 0.012, -0.106, 0.99, 192.0, 0.0, 48.0, 126.0, 88.0, 15.0, 120.0, 0.0, 0.0, 0.0, 1.645919775012421E9, 0.0, 2022-02-27 10:56:15.012
78.0, -2629.6603834224206, -6967.7316507973255, -4557.654804903842, -8908.712435807282, -2560.7052517777984, 3932.521215977814, -10736.83926306239, -9952.807122803584, -5914.718617763355, -7883.75084206472, -1314.908422816804, 151.38836519579473, -6417.945792430138, -3517.0693417870216, -18838.989000199916, -14157.572586247039, 0.012, -0.106, 0.99, 192.0, 0.0, 0.0, 0.0, 0.0, 0.0, 0.0, 0.0, 0.0, 0.0, 1.645919775020354E9, 0.0, 2022-02-27 10:56:15.020
80.0, -2922.4682357869433, -7207.409406591583, -4757.054717189636, -9072.953054064878, -2778.5900567281315, 3664.6355586809586, -10810.33179883144, -9947.912090767872, -2586.7226823237756, -6755.881816849926, -1276.843402009416, 731.0585058997281, -6310.769177766941, -3348.604243827372, -17748.961478347956, -12666.420658400139, 0.012, -0.106, 0.99, 192.0, 0.0, 0.0, 0.0, 0.0, 0.0, 0.0, 0.0, 0.0, 0.0, 1.645919775027033E9, 0.0, 2022-02-27 10:56:15.027
82.0, -2861.693842612963, -7206.247115879908, -4788.570676871619, -9052.300042188173, -2771.124574080059, 3689.8706781710007, -10881.991491555154, -10008.708835686308, -3563.5833219985157, -6931.968859668835, -1450.0023663046798, 218.28713635052878, -6495.2828282455, -3583.699892008292, -18314.48296481168, -13045.05920947304, 0.012, -0.106, 0.99, 192.0, 0.0, 0.0, 0.0, 0.0, 0.0, 0.0, 0.0, 0.0, 0.0, 1.645919775034975E9, 0.0, 2022-02-27 10:56:15.034
84.0, -2610.1473105129376, -6950.230234888821, -4526.071789988493, -8808.196640991764, -2497.047483569084, 3949.843817930677, -10649.466293986594, -9810.784138534564, -3576.882609949423, -6854.229492453277, -1262.5829890469302, 492.1407094169509, -6309.361017866257, -3354.9744909971346, -18111.372662946305, -12983.860133154409, 0.012, -0.106, 0.99, 192.0, 0.0, 0.0, 0.0, 0.0, 0.0, 0.0, 0.0, 0.0, 0.0, 1.64591977504999E9, 0.0, 2022-02-27 10:56:15.049
86.0, -2828.188577674458, -7185.974083658944, -4761.905045736438, -9048.03085899721, -2720.4308176554227, 3720.2914023746735, -10898.308265007528, -10044.404571581432, -3896.4455004269485, -7025.689724169937, -1298.97162902017, 428.95232784179785, -6354.489189921522, -3406.159985799788, -18216.425861886248, -13222.442653470356, 0.01, -0.10400000000000001, 0.988, 192.0, 0.0, 40.0, 126.0, 96.0, 15.0, 112.0, 0.0, 0.0, 0.0, 1.645919775056567E9, 0.0, 2022-02-27 10:56:15.056
88.0, -2703.10821570256, -7031.948212617423, -4596.680950722808, -8893.42384259985, -2563.812144257086, 3884.3979101655377, -10726.579812357404, -9872.698470675763, -3999.0176557323525, -7213.489081083427, -1430.5563486285625, 278.4803841686707, -6499.775528881018, -3558.867103918446, -18366.204901481262, -13247.09662760456, 0.01, -0.10400000000000001, 0.988, 192.0, 0.0, 0.0, 0.0, 0.0, 0.0, 0.0, 0.0, 0.0, 0.0, 1.645919775064569E9, 0.0, 2022-02-27 10:56:15.064
90.0, -2704.6281343255205, -7056.959814662911, -4606.918049683339, -8914.47918587675, -2554.7596877526867, 3876.3736339060824, -10722.288277421985, -9894.67023547533, -3680.1253175884867, -6909.706522191349, -1200.0875115498916, 581.6370942160004, -6244.540958945866, -3283.493612229063, -18059.986002443555, -13092.534314696111, 0.01, -0.10400000000000001, 0.988, 192.0, 0.0, 0.0, 0.0, 0.0, 0.0, 0.0, 0.0, 0.0, 0.0, 1.645919775072675E9, 0.0, 2022-02-27 10:56:15.072
92.0, -2884.157345790547, -7209.130490914642, -4777.551266855153, -9066.426344683927, -2725.7952363246964, 3718.726780262802, -10880.806849099023, -10024.064484127102, -4102.215659882505, -7266.619177653692, -1448.3259854705318, 256.0392327355424, -6524.921241393237, -3581.71058675177, -18390.523599448636, -13333.3967129465, 0.01, -0.10400000000000001, 0.988, 192.0, 0.0, 0.0, 0.0, 0.0, 0.0, 0.0, 0.0, 0.0, 0.0, 1.645919775080674E9, 0.0, 2022-02-27 10:56:15.080
94.0, -2647.4076685199343, -6985.009549261278, -4525.714162077208, -8830.257812769152, -2464.168067475327, 3973.6707775200343, -10632.68013390066, -9799.65296979582, -3711.2612976147293, -6989.904581296991, -1281.2019921782007, 493.19124140635034, -6328.203538442081, -3355.801505541981, -18124.895468341765, -13071.233102230204, 0.01, -0.10400000000000001, 0.988, 192.0, 0.0, 0.0, 0.0, 0.0, 0.0, 0.0, 0.0, 0.0, 0.0, 1.645919775087206E9, 0.0, 2022-02-27 10:56:15.087
96.0, -2881.564543433731, -7214.271392139362, -4772.790345286173, -9064.437039427405, -2708.651448327476, 3726.7510565222574, -10877.431735686272, -10031.887594686461, -3922.2841170172833, -7079.870352729601, -1319.7811031080607, 426.6500981629012, -6383.16647805768, -3387.742148368615, -18210.614408327867, -13234.110264076027, 0.01, -0.108, 0.988, 192.0, 0.0, 40.0, 126.0, 80.0, 15.0, 112.0, 0.0, 0.0, 0.0, 1.645919775095362E9, 0.0, 2022-02-27 10:56:15.095
98.0, -2772.286864791735, -7076.025852683289, -4619.993820189693, -8916.915526022378, -2567.4331268588458, 3865.778907034267, -10718.935515753688, -9886.198924326769, -3993.3403126407047, -7242.233424452952, -1461.804087377082, 260.30841592650603, -6535.426561287232, -3576.860258204968, -18370.20586373876, -13243.252127558248, 0.01, -0.108, 0.988, 192.0, 0.0, 0.0, 0.0, 0.0, 0.0, 0.0, 0.0, 0.0, 0.0, 1.645919775102464E9, 0.0, 2022-02-27 10:56:15.102
100.0, -2734.512416662266, -7085.838268499168, -4606.649828749875, -8912.28871492013, -2543.1591323803823, 3874.6301978385686, -10692.001663685043, -9891.965674396239, -3698.20787885283, -6921.977629897312, -1223.780360672517, 570.5282772217128, -6273.642930226676, -3285.46056574113, -18062.601156544824, -13076.910445321852, 0.01, -0.108, 0.988, 192.0, 0.0, 0.0, 0.0, 0.0, 0.0, 0.0, 0.0, 0.0, 0.0, 1.645919775108795E9, 0.0, 2022-02-27 10:56:15.108
102.0, -2930.470160301943, -7258.371383949684, -4789.37533967201, -9085.067699559653, -2733.439532928411, 3696.531498018682, -10847.949784749722, -10015.347303789533, -4089.609276009712, -7266.194494509041, -1468.442555480308, 250.0266134770648, -6546.53537828152, -3571.920522680345, -18383.54985517858, -13317.012884260761, 0.01, -0.108, 0.988, 192.0, 0.0, 0.0, 0.0, 0.0, 0.0, 0.0, 0.0, 0.0, 0.0, 1.645919775116869E9, 0.0, 2022-02-27 10:56:15.116
104.0, -2664.640863494976, -7010.982276318345, -4525.021257999094, -8836.784522150103, -2462.3575761744473, 3949.620300486124, -10616.989209293033, -9803.251600653124, -3727.332201878095, -7006.131947771543, -1313.612021638396, 477.67913075436724, -6362.044079547415, -3370.2407324601095, -18148.02952385301, -13069.891997562885, 0.01, -0.11, 0.988, 192.0, 0.0, 40.0, 126.0, 64.0, 15.0, 112.0, 0.0, 0.0, 0.0, 1.645919775124965E9, 0.0, 2022-02-27 10:56:15.124
106.0, -2887.2865900142897, -7234.43266563805, -4774.511429609231, -9080.954978579877, -2713.3900181520007, 3688.171945592397, -10890.865134103911, -10079.742679565274, -3906.1461575205517, -7065.386422322563, -1319.1105507744016, 448.28658679563847, -6380.394861745222, -3388.300941979998, -18200.869047745353, -13221.481528458778, 0.01, -0.11, 0.988, 192.0, 0.0, 0.0, 0.0, 0.0, 0.0, 0.0, 0.0, 0.0, 0.0, 1.645919775132049E9, 0.0, 2022-02-27 10:56:15.132
108.0, -2754.7854488832295, -7089.101623189643, -4616.976334688226, -8924.67158134837, -2564.326234379558, 3850.3785551045607, -10700.651788789248, -9883.561418481042, -3974.520143809336, -7221.200432920508, -1469.8507153809924, 275.2840847115618, -6535.58302349842, -3566.42199354434, -18363.656802613354, -13241.352229279546, 0.01, -0.11, 0.988, 192.0, 0.0, 0.0, 0.0, 0.0, 0.0, 0.0, 0.0, 0.0, 0.0, 1.645919775139546E9, 0.0, 2022-02-27 10:56:15.139
110.0, -2738.1781027529364, -7100.992751239866, -4627.43695109331, -8933.0087820302, -2563.9909582127284, 3859.945101731432, -10717.035617474989, -9875.112459076936, -3716.983344195288, -6926.693847977383, -1240.7900382030057, 566.9743498533189, -6283.4329942981, -3284.432385496186, -18063.58463330086, -13088.443945460791, 0.01, -0.11, 0.988, 192.0, 0.0, 0.0, 0.0, 0.0, 0.0, 0.0, 0.0, 0.0, 0.0, 1.64591977514756E9, 0.0, 2022-02-27 10:56:15.147
112.0, -2919.8754334301275, -7254.839808325745, -4795.633828119496, -9089.985083339821, -2753.600806427098, 3687.0990618585424, -10885.433660201272, -10021.426978281377, -4087.7540812199213, -7260.494799672938, -1476.802107906593, 251.6135873333916, -6556.280738864034, -3566.9137319223564, -18389.338956992502, -13321.662047107464, 0.01, -0.11, 0.988, 192.0, 0.0, 0.0, 0.0, 0.0, 0.0, 0.0, 0.0, 0.0, 0.0, 1.645919775155389E9, 0.0, 2022-02-27 10:56:15.155
114.0, -2654.604930234543, -7017.643096166026, -4524.663630087809, -8838.349144261974, -2475.2545327251596, 3948.8379894301884, -10616.788043592936, -9785.973702189172, -3713.4294168268943, -6985.255418450287, -1309.0299140250581, 483.2447151237387, -6358.646614390209, -3353.90160726328, -18142.106311572352, -13070.517846407634, 0.011, -0.11, 0.988, 192.0, 0.0, 48.0, 126.0, 72.0, 15.0, 112.0, 0.0, 0.0, 0.0, 1.645919775161655E9, 0.0, 2022-02-27 10:56:15.161
116.0, -2899.9376773759936, -7254.660994370102, -4786.447261148365, -9090.879153118034, -2736.412314940967, 3683.1875065788636, -10882.550285166537, -10037.587289522564, -3928.140274064574, -7072.82955322618, -1343.2504347861332, 424.3255167395493, -6404.691207968141, -3394.6488374053047, -18221.03032124404, -13245.867281659519, 0.011, -0.11, 0.988, 192.0, 0.0, 0.0, 0.0, 0.0, 0.0, 0.0, 0.0, 0.0, 0.0, 1.645919775177262E9, 0.0, 2022-02-27 10:56:15.177
118.0, -2757.1770855399473, -7046.096866857632, -4616.305782354568, -8926.616183115982, -2583.660493333399, 3847.070496925175, -10704.228067902097, -9864.785953138586, -3958.0916116346853, -7204.861307723679, -1480.2889800416208, 270.70197709822384, -6540.858035189872, -3547.9371008798007, -18362.807436324052, -13229.706970418332, 0.011, -0.11, 0.988, 192.0, 0.0, 0.0, 0.0, 0.0, 0.0, 0.0, 0.0, 0.0, 0.0, 1.645919775184216E9, 0.0, 2022-02-27 10:56:15.184
120.0, -2743.9448528224057, -7125.60202188516, -4623.592451046998, -8942.262404234696, -2576.0832519630494, 3851.9208254719765, -10738.426236918716, -9913.892735706895, -3703.9746289222994, -6905.79496691167, -1242.0193841480475, 553.1162682910285, -6285.914037932639, -3271.5354289454735, -18080.48255210907, -13098.636340932411, 0.011, -0.11, 0.988, 192.0, 0.0, 0.0, 0.0, 0.0, 0.0, 0.0, 0.0, 0.0, 0.0, 1.645919775191851E9, 0.0, 2022-02-27 10:56:15.191
122.0, -2925.4857212884094, -7270.7318986334685, -4788.570676871619, -9097.763490410267, -2758.808762885185, 3677.376053020484, -10890.976892826187, -10040.582423279575, -4063.927121630564, -7245.139151232142, -1488.2685528121654, 255.54749435752564, -6563.723869767651, -3567.5842842560155, -18398.436116985813, -13327.093521010105, 0.011, -0.11, 0.988, 192.0, 0.0, 0.0, 0.0, 0.0, 0.0, 0.0, 0.0, 0.0, 0.0, 1.645919775199653E9, 0.0, 2022-02-27 10:56:15.199
124.0, -2660.751659959753, -7018.850090366614, -4519.947412007739, -8844.697039687282, -2484.1505270183716, 3938.1091520916407, -10630.467311199583, -9815.902688014829, -3703.214669610819, -6968.268092664253, -1320.8763385863708, 477.4779650542695, -6366.112097038281, -3353.409868885263, -18139.982895849098, -13073.669442375833, 0.010499999999999999, -0.108, 0.987, 192.0, 0.0, 40.0, 126.0, 88.0, 15.0, 104.0, 0.0, 0.0, 0.0, 1.645919775207935E9, 0.0, 2022-02-27 10:56:15.207
126.0, -2896.2943430297787, -7248.111933244698, -4781.172249456912, -9094.611894442069, -2738.960413808872, 3689.848326426545, -10914.87090764891, -10062.844760757062, -3915.4444832139593, -7076.11525966111, -1341.3952399963428, 414.6695631348566, -6411.441434793644, -3382.735357610626, -18219.689216576724, -13244.61558397002, 0.010499999999999999, -0.108, 0.987, 192.0, 0.0, 0.0, 0.0, 0.0, 0.0, 0.0, 0.0, 0.0, 0.0, 1.645919775214431E9, 0.0, 2022-02-27 10:56:15.214
128.0, -2751.097411048104, -7086.531172577283, -4612.81891021954, -8929.410151172895, -2577.066728719083, 3862.0014622213203, -10769.092830311398, -9852.939528577272, -3943.205349827451, -7206.492985068916, -1477.7855846626264, 259.39199440383845, -6552.749163240095, -3520.466806944228, -18364.86379681394, -13221.503880203234, 0.010499999999999999, -0.108, 0.987, 192.0, 0.0, 0.0, 0.0, 0.0, 0.0, 0.0, 0.0, 0.0, 0.0, 1.645919775222308E9, 0.0, 2022-02-27 10:56:15.222
130.0, -2724.1188554905484, -7081.412623097018, -4609.421445062333, -8938.261441977196, -2547.8977022049075, 3855.519456329281, -10666.92300640619, -9875.470086988222, -3694.9445241623553, -6905.593801211572, -1235.7385439561062, 563.0180910847296, -6289.222096112025, -3245.1156669993006, -18066.44565659114, -13083.034823302607, 0.010499999999999999, -0.108, 0.987, 192.0, 0.0, 0.0, 0.0, 0.0, 0.0, 0.0, 0.0, 0.0, 0.0, 1.645919775229382E9, 0.0, 2022-02-27 10:56:15.229
132.0, -2916.8802996731165, -7246.346145432729, -4793.845688563071, -9106.860650403578, -2745.1741987674477, 3681.667587955903, -10868.692203604247, -10013.581515977565, -4050.1360953016397, -7243.753343075913, -1477.897343384903, 258.9002560258217, -6556.39249758631, -3539.3316792645073, -18368.35066894897, -13311.82727954713, 0.010499999999999999, -0.108, 0.987, 192.0, 0.0, 0.0, 0.0, 0.0, 0.0, 0.0, 0.0, 0.0, 0.0, 1.645919775237435E9, 0.0, 2022-02-27 10:56:15.237
134.0, -2656.1248488575043, -6998.711168612382, -4523.411932398311, -8853.213054324753, -2461.1282302294053, 3938.869111403121, -10586.054394966888, -9791.852210980918, -3711.976553437299, -6987.490592895818, -1325.614908410896, 469.9901306617416, -6376.662120421186, -3359.221322443643, -18143.469767984127, -13070.651956874366, 0.010249999999999999, -0.10600000000000001, 0.9884999999999999, 192.0, 0.0, 40.0, 126.0, 96.0, 15.0, 120.0, 0.0, 0.0, 0.0, 1.64591977524413E9, 0.0, 2022-02-27 10:56:15.244
136.0, -2887.2865900142897, -7224.5978980777145, -4770.130487695991, -9095.863592131567, -2719.223823454836, 3686.182640335875, -10864.53477913556, -10044.337516348067, -3908.58249766618, -7065.967567678401, -1335.5390829490523, 437.6024529460017, -6402.74660620053, -3376.7897935855144, -18204.60178906939, -13239.564089723122, 0.010249999999999999, -0.10600000000000001, 0.9884999999999999, 192.0, 0.0, 0.0, 0.0, 0.0, 0.0, 0.0, 0.0, 0.0, 0.0, 1.645919775252018E9, 0.0, 2022-02-27 10:56:15.252
138.0, -2777.383062527545, -7096.991788982366, -4627.682820282319, -8955.785209630158, -2571.903475749907, 3820.5166245122705, -10700.629437044792, -9891.742156951685, -3956.236416844895, -7217.6688572965695, -1493.4541575257967, 254.83223853495582, -6563.366241856366, -3552.9438916377894, -18368.194206737782, -13244.86145315903, 0.010249999999999999, -0.10600000000000001, 0.9884999999999999, 192.0, 0.0, 0.0, 0.0, 0.0, 0.0, 0.0, 0.0, 0.0, 0.0, 1.645919775259947E9, 0.0, 2022-02-27 10:56:15.259
140.0, -2730.422047426945, -7066.995747923344, -4605.353427571467, -8937.792055343634, -2543.941443436318, 3851.786715005245, -10715.225126174108, -9875.805363155052, -3712.557698793137, -6910.533536736195, -1247.227340606134, 550.8363903565872, -6306.097663175781, -3264.204056764133, -18080.370793386795, -13099.955093855275, 0.010249999999999999, -0.10600000000000001, 0.9884999999999999, 192.0, 0.0, 0.0, 0.0, 0.0, 0.0, 0.0, 0.0, 0.0, 0.0, 1.645919775267122E9, 0.0, 2022-02-27 10:56:15.267
142.0, -2925.932756177516, -7251.442343168538, -4787.318979182122, -9105.98893236982, -2731.383172438523, 3668.569465705093, -10868.803962326523, -10031.105283630524, -4044.7269731434553, -7238.701848829013, -1478.4337852518304, 260.66604383779094, -6568.708308781184, -3547.6465282018817, -18383.16987552284, -13316.565849371655, 0.010249999999999999, -0.10600000000000001, 0.9884999999999999, 192.0, 0.0, 0.0, 0.0, 0.0, 0.0, 0.0, 0.0, 0.0, 0.0, 1.64591977527464E9, 0.0, 2022-02-27 10:56:15.274
144.0, -2647.8547034090407, -6994.598447632605, -4514.471234616189, -8842.283051286107, -2446.241968422171, 3946.9380911514872, -10640.704410160115, -9790.332292357956, -3696.5762015075925, -6974.884209023025, -1317.7917978515386, 476.8968196984315, -6372.482344208043, -3341.6975547906823, -18150.26469829854, -13067.612119628444, 0.011125, -0.10700000000000001, 0.99025, 192.0, 0.0, 48.0, 126.0, 80.0, 15.5, 0.0, 0.0, 0.0, 0.0, 1.645919775282944E9, 0.0, 2022-02-27 10:56:15.282
146.0, -2895.243811040379, -7228.978839990955, -4782.111022724035, -9100.780975911734, -2706.0809977151152, 3683.791003679157, -10843.05475271401, -10044.046943670148, -3909.320105233205, -7060.133762375565, -1340.679984173773, 426.3371737405269, -6411.754359216018, -3372.5206103945507, -18221.253838688594, -13236.43484549938, 0.011125, -0.10700000000000001, 0.99025, 192.0, 0.0, 0.0, 0.0, 0.0, 0.0, 0.0, 0.0, 0.0, 0.0, 1.64591977529621E9, 0.0, 2022-02-27 10:56:15.296
148.0, -2763.726146665352, -7092.2308674133865, -4628.845110993995, -8948.766761871191, -2554.64792903041, 3836.5651770311806, -10673.49441927605, -9858.147485035359, -3934.331707278694, -7196.881734953134, -1491.1519278469, 245.8468372639224, -6566.1155064243685, -3546.7748101681245, -18360.236985711694, -13222.867336615007, 0.011125, -0.10700000000000001, 0.99025, 192.0, 0.0, 0.0, 0.0, 0.0, 0.0, 0.0, 0.0, 0.0, 0.0, 1.64591977530438E9, 0.0, 2022-02-27 10:56:15.304
150.0, -2720.5202246332437, -7083.737204520369, -4612.193061374791, -8935.422770431373, -2530.0833618740276, 3859.520418586781, -10699.78007075549, -9860.315604247524, -3706.5450795346596, -6901.905763376447, -1250.0213086630474, 552.8480473575648, -6310.120977177737, -3265.098126542345, -18076.705107296122, -13083.928893080818, 0.011125, -0.10700000000000001, 0.99025, 192.0, 0.0, 0.0, 0.0, 0.0, 0.0, 0.0, 0.0, 0.0, 0.0, 1.645919775312934E9, 0.0, 2022-02-27 10:56:15.312
152.0, -2920.5906892526973, -7241.339354674739, -4798.852479321061, -9110.079301605141, -2734.5794718956317, 3667.8765616269784, -10879.175171753785, -10023.75155970473, -4029.3266212137487, -7224.24027016643, -1479.0372823521236, 256.4639158801932, -6568.551846569997, -3536.6941734187812, -18382.275805744626, -13303.803003287674, 0.011125, -0.10700000000000001, 0.99025, 192.0, 0.0, 0.0, 0.0, 0.0, 0.0, 0.0, 0.0, 0.0, 0.0, 1.645919775319416E9, 0.0, 2022-02-27 10:56:15.319
154.0, -2635.8294648920855, -6990.642188864016, -4515.946449750239, -8844.540577476095, -2445.4149538773245, 3938.5114834918363, -10582.634578065226, -9791.583990047455, -3698.8784311864893, -6968.648072319994, -1323.424437454276, 442.8551128929988, -6382.942960613127, -3340.736429779104, -18155.07032335643, -13065.220482971727, 0.010562499999999999, -0.10850000000000001, 0.9901249999999999, 192.0, 0.0, 40.0, 126.0, 72.0, 15.0, 120.0, 0.0, 0.0, 0.0, 1.645919775326844E9, 0.0, 2022-02-27 10:56:15.326
156.0, -2872.2662177403236, -7235.594956349726, -4758.395821856955, -9083.905408847977, -2691.0159219522384, 3682.8298786675787, -10838.472645100672, -10022.589268993053, -3891.014026524309, -7052.087134371654, -1322.8656438428932, 422.4926736942141, -6396.510469497499, -3351.6217293288387, -18196.666919787756, -13226.734188405775, 0.010562499999999999, -0.10850000000000001, 0.9901249999999999, 192.0, 0.0, 0.0, 0.0, 0.0, 0.0, 0.0, 0.0, 0.0, 0.0, 1.645919775334858E9, 0.0, 2022-02-27 10:56:15.334
158.0, -2766.7212804223636, -7117.734207836892, -4617.982163188715, -8942.038886790144, -2553.306824363092, 3826.752761215301, -10683.932683936679, -9854.750019878153, -3937.036268357786, -7210.695113026513, -1488.827346423548, 247.12088669787488, -6563.813276745472, -3532.9390803502897, -18362.24864271267, -13219.067540057606, 0.010562499999999999, -0.10850000000000001, 0.9901249999999999, 192.0, 0.0, 0.0, 0.0, 0.0, 0.0, 0.0, 0.0, 0.0, 0.0, 1.645919775342984E9, 0.0, 2022-02-27 10:56:15.342
160.0, -2721.68251534492, -7093.326102891696, -4596.613895489442, -8924.783340070646, -2516.493501245201, 3856.2794156407617, -10695.041500930965, -9866.395278739366, -3714.6811145163915, -6906.867850645524, -1242.779343459528, 542.2086169968387, -6295.81586072634, -3233.1127802268006, -18069.32903162587, -13080.464372690247, 0.010562499999999999, -0.10850000000000001, 0.9901249999999999, 192.0, 0.0, 0.0, 0.0, 0.0, 0.0, 0.0, 0.0, 0.0, 0.0, 1.645919775349049E9, 0.0, 2022-02-27 10:56:15.349
162.0, -2956.6664048035627, -7289.552067464837, -4803.479290423309, -9111.599220228103, -2730.6902683604085, 3653.593796920037, -10876.135334507864, -10025.159719605414, -4037.7755806178548, -7227.8836045126445, -1478.2326195517326, 244.41632561878274, -6557.9571196981815, -3513.4707109297174, -18369.937642805296, -13298.01390147375, 0.010562499999999999, -0.10850000000000001, 0.9901249999999999, 192.0, 0.0, 0.0, 0.0, 0.0, 0.0, 0.0, 0.0, 0.0, 0.0, 1.645919775356507E9, 0.0, 2022-02-27 10:56:15.356
164.0, -2688.6019335510655, -7057.272739085286, -4524.37305740989, -8835.286955271597, -2433.9261572272967, 3938.422076514015, -10611.937715046133, -9780.117545141882, -3724.694696032369, -6993.726729598848, -1344.546835964541, 416.4353509468259, -6390.251981050013, -3344.7820955255147, -18167.430838040214, -13062.672384103822, 0.010281249999999999, -0.10725000000000001, 0.9940625, 192.0, 0.0, 40.0, 126.0, 88.0, 15.5, 24.0, 0.0, 0.0, 0.0, 1.645919775364628E9, 0.0, 2022-02-27 10:56:15.364
166.0, -2960.82382927225, -7328.131178394697, -4777.3277494106, -9073.400088953984, -2675.5038113002556, 3703.0135039107213, -10844.28409865905, -9998.069405325581, -3885.8954770440437, -7050.3213465596855, -1319.8481583414268, 435.92607211185367, -6378.271446021968, -3314.361371321842, -18182.808838225465, -13195.307635701614, 0.010281249999999999, -0.10725000000000001, 0.9940625, 192.0, 0.0, 0.0, 0.0, 0.0, 0.0, 0.0, 0.0, 0.0, 0.0, 1.645919775372575E9, 0.0, 2022-02-27 10:56:15.372
168.0, -2925.0610381437587, -7268.697889888035, -4668.005367279693, -8964.301224267629, -2558.492429076723, 3827.915051926977, -10694.750928253046, -9856.359345478933, -3983.55024856928, -7254.348069947729, -1522.7796462511596, 196.06950236195357, -6575.659701306785, -3539.8234176425244, -18371.144637005884, -13209.143365519449, 0.010281249999999999, -0.10725000000000001, 0.9940625, 192.0, 0.0, 0.0, 0.0, 0.0, 0.0, 0.0, 0.0, 0.0, 0.0, 1.645919775379462E9, 0.0, 2022-02-27 10:56:15.379
170.0, -2892.114566816636, -7269.189628266053, -4615.456416065266, -8922.279944691652, -2498.4332917253128, 3890.7681573353, -10676.467201288606, -9871.558531708542, -3759.183437726908, -6947.615080787549, -1282.4983933566086, 486.0386831806521, -6300.57678229532, -3215.7678265294826, -18072.86060724981, -13060.548968380568, 0.010281249999999999, -0.10725000000000001, 0.9940625, 192.0, 0.0, 0.0, 0.0, 0.0, 0.0, 0.0, 0.0, 0.0, 0.0, 1.645919775387176E9, 0.0, 2022-02-27 10:56:15.387
172.0, -3172.3160353083654, -7529.788616870477, -4832.782427404217, -9126.597240757614, -2723.0459717566937, 3682.2040298228303, -10877.007052541621, -10018.856527669017, -4101.343941848748, -7288.054500586331, -1525.4171520968857, 201.2551070755848, -6561.198122644201, -3505.6923038592704, -18370.787009094598, -13288.246189146781, 0.010281249999999999, -0.10725000000000001, 0.9940625, 192.0, 0.0, 0.0, 0.0, 0.0, 0.0, 0.0, 0.0, 0.0, 0.0, 1.645919775395207E9, 0.0, 2022-02-27 10:56:15.395
174.0, -2910.375942036622, -7277.370366736694, -4556.872493847906, -8861.147923606388, -2429.0534769360397, 3968.574579784224, -10611.58008713485, -9762.347908299913, -3810.3465807851057, -7063.128896132576, -1397.4087116013422, 360.91361771984316, -6395.5940479748315, -3334.6344035428056, -18163.787503694, -13056.838578800987, 0.014, -0.106, 0.998, 192.0, 0.0, 56.0, 126.0, 88.0, 15.5, 24.0, 0.0, 0.0, 0.0, 1.645919775401802E9, 0.0, 2022-02-27 10:56:15.401
176.0, -3162.4142125146645, -7529.542747681469, -4819.751360386773, -9105.251324802795, -2692.9158202309395, 3713.4070650824387, -10865.138276235852, -10004.283190284157, -4006.773711058344, -7137.962536568944, -1404.829490760504, 324.4132190243267, -6408.356894058811, -3341.295223390487, -18213.766004296067, -13216.430034211879, 0.014, -0.106, 0.998, 192.0, 0.0, 0.0, 0.0, 0.0, 0.0, 0.0, 0.0, 0.0, 0.0, 1.645919775408847E9, 0.0, 2022-02-27 10:56:15.408
178.0, -3031.209472562012, -7391.27485648094, -4672.900399315405, -8956.656927663915, -2548.07651616055, 3858.559293575203, -10693.476878819094, -9845.809322096029, -4027.0914467682182, -7276.900980103133, -1567.1925624838548, 138.15613247825294, -6570.272930893056, -3523.3054784900523, -18365.266128214138, -13201.029682282173, 0.014, -0.106, 0.998, 192.0, 0.0, 0.0, 0.0, 0.0, 0.0, 0.0, 0.0, 0.0, 0.0, 1.645919775424879E9, 0.0, 2022-02-27 10:56:15.424
180.0, -2965.942378752515, -7357.657832820158, -4653.856713039483, -8949.884349093956, -2521.1203123474497, 3877.3794624065713, -10696.315550364918, -9871.603235197454, -3807.41850226146, -6971.442040376907, -1311.0192192815805, 460.20006659031714, -6298.207497383059, -3230.385867403253, -18076.369831129294, -13074.988195298696, 0.014, -0.106, 0.998, 192.0, 0.0, 0.0, 0.0, 0.0, 0.0, 0.0, 0.0, 0.0, 0.0, 1.645919775431515E9, 0.0, 2022-02-27 10:56:15.431
182.0, -3154.300529277388, -7522.881927833788, -4845.925253143937, -9128.787711714234, -2718.2403466988026, 3690.496527015749, -10842.942993991732, -10013.670922955385, -4123.002782225941, -7312.8202334428115, -1544.0138034837012, 160.35141472237288, -6561.86867497786, -3518.119873776421, -18382.29815748908, -13293.521200838233, 0.014, -0.106, 0.998, 192.0, 0.0, 0.0, 0.0, 0.0, 0.0, 0.0, 0.0, 0.0, 0.0, 1.645919775439386E9, 0.0, 2022-02-27 10:56:15.439
184.0, -2854.0495460092484, -7247.284918699851, -4557.766563626118, -8858.242196827197, -2425.387790845369, 3967.009957672353, -10576.66666229566, -9764.471324023167, -3787.860725863067, -7051.4389337824505, -1383.930609694792, 362.54529506508055, -6377.2209140325685, -3325.224319127121, -18151.516395988037, -13051.675325831811, 0.012, -0.098, 0.994, 192.0, 0.0, 48.0, 126.0, 120.0, 15.5, 8.0, 0.0, 0.0, 0.0, 1.64591977544737E9, 0.0, 2022-02-27 10:56:15.447
186.0, -3066.2570078679337, -7440.292232071428, -4803.993380545781, -9099.305760777685, -2681.449375325367, 3713.205899382341, -10850.520235362083, -10022.052827126125, -3974.9671786984422, -7104.010236741333, -1369.0219961431023, 363.7075857767565, -6389.31320778289, -3320.4410458136854, -18194.36469010886, -13217.078234801083, 0.012, -0.098, 0.994, 192.0, 0.0, 0.0, 0.0, 0.0, 0.0, 0.0, 0.0, 0.0, 0.0, 1.645919775454614E9, 0.0, 2022-02-27 10:56:15.454
188.0, -2938.2932708613007, -7301.532602492882, -4675.180277249847, -8967.944558613844, -2564.1474204239157, 3845.3047091132057, -10717.795576786468, -9874.441906743277, -4012.585164616724, -7258.371383949684, -1537.8223702695811, 152.39419369628357, -6563.232131389634, -3511.4590539287396, -18379.30302373207, -13224.655476171432, 0.012, -0.098, 0.994, 192.0, 0.0, 0.0, 0.0, 0.0, 0.0, 0.0, 0.0, 0.0, 0.0, 1.645919775462077E9, 0.0, 2022-02-27 10:56:15.462
190.0, -2847.433429650477, -7237.4501511395165, -4632.376686617933, -8930.773607584668, -2510.9279168758294, 3883.257971198317, -10687.128983393786, -9877.168819566825, -3763.720841851335, -6932.125321880022, -1266.0028059485921, 480.0037121777192, -6276.325139561312, -3196.3888640867312, -18078.828523019376, -13079.391488956391, 0.012, -0.098, 0.994, 192.0, 0.0, 0.0, 0.0, 0.0, 0.0, 0.0, 0.0, 0.0, 0.0, 1.645919775470086E9, 0.0, 2022-02-27 10:56:15.470
192.0, -3061.2725688544, -7429.13871158823, -4842.438381008909, -9131.13464488204, -2740.927367320939, 3661.886294112956, -10878.549322909037, -10031.93229817537, -4076.801726436821, -7255.9126920596, -1498.3044860725984, 191.8003191709899, -6543.8084654579725, -3496.282219443586, -18373.983308551706, -13301.813698031152, 0.012, -0.098, 0.994, 192.0, 0.0, 0.0, 0.0, 0.0, 0.0, 0.0, 0.0, 0.0, 0.0, 1.64591977547717E9, 0.0, 2022-02-27 10:56:15.477
194.0, -2758.5852454406318, -7132.866338833134, -4549.786990855574, -8860.343260805996, -2448.0077562341403, 3950.06733537523, -10604.896915542713, -9784.342024843934, -3761.731536594813, -7014.2232792643645, -1356.9744058816918, 380.76196679615583, -6378.4055564887, -3331.7510285080707, -18169.330736318916, -13065.242834716182, 0.012, -0.10400000000000001, 0.992, 192.0, 0.0, 48.0, 126.0, 96.0, 15.5, 0.0, 0.0, 0.0, 0.0, 1.645919775484396E9, 0.0, 2022-02-27 10:56:15.484
196.0, -2969.7421753099175, -7374.064013250353, -4802.652275878462, -9100.400996255994, -2702.124738946526, 3702.7452829772574, -10868.021651270587, -10027.081969628569, -3926.642707186068, -7060.044355397744, -1331.2698997580887, 377.5656673390469, -6373.68933840863, -3321.580984780906, -18195.25875988707, -13213.61371441051, 0.012, -0.10400000000000001, 0.992, 192.0, 0.0, 0.0, 0.0, 0.0, 0.0, 0.0, 0.0, 0.0, 0.0, 1.645919775491767E9, 0.0, 2022-02-27 10:56:15.491
198.0, -2867.549999660254, -7248.1342849891535, -4679.851791841005, -8974.784192417168, -2578.094908964027, 3828.943232171921, -10730.781940315002, -9902.76156696815, -3982.6561787910678, -7243.4404186535385, -1514.8224252250702, 179.21628704265203, -6569.043584948014, -3531.8214931275243, -18386.50028544668, -13229.52815646269, 0.012, -0.10400000000000001, 0.992, 192.0, 0.0, 0.0, 0.0, 0.0, 0.0, 0.0, 0.0, 0.0, 0.0, 1.64591977549988E9, 0.0, 2022-02-27 10:56:15.499
200.0, -2774.030300859249, -7171.624263718637, -4625.760570259163, -8933.09818900802, -2521.2767745586366, 3887.48245090037, -10703.825736501902, -9881.2815405466, -3739.044515972676, -6923.832824687103, -1238.0184218905476, 502.5789740775793, -6277.398023295167, -3206.49185258053, -18082.896540510243, -13079.503247678667, 0.012, -0.10400000000000001, 0.992, 192.0, 0.0, 0.0, 0.0, 0.0, 0.0, 0.0, 0.0, 0.0, 0.0, 1.645919775507078E9, 0.0, 2022-02-27 10:56:15.507
202.0, -2982.1697452270682, -7356.875521764222, -4830.5696047031415, -9129.838243703633, -2749.5998441695983, 3662.9591778468107, -10895.827221372989, -10047.89144371646, -4059.456772739503, -7225.961354489488, -1466.0956223125008, 224.56797654247006, -6536.72296246564, -3492.21420195272, -18375.77144810813, -13298.148011940482, 0.012, -0.10400000000000001, 0.992, 192.0, 0.0, 0.0, 0.0, 0.0, 0.0, 0.0, 0.0, 0.0, 0.0, 1.645919775514343E9, 0.0, 2022-02-27 10:56:15.514
204.0, -2690.5912388075876, -7088.699291789448, -4536.912386049317, -8851.17904557932, -2447.828942278498, 3959.7009372354673, -10606.662703354681, -9787.739490001142, -3735.848216515567, -6996.073662766656, -1327.6265654118736, 417.1506067693957, -6375.321015753868, -3331.192234896688, -18173.801085209976, -13063.320584693025, 0.012, -0.10400000000000001, 0.986, 192.0, 0.0, 48.0, 126.0, 96.0, 15.0, 104.0, 0.0, 0.0, 0.0, 1.645919775522387E9, 0.0, 2022-02-27 10:56:15.522
206.0, -2902.374017521622, -7306.740558950968, -4773.863229020028, -9089.247475772796, -2695.3074568876573, 3717.273916873207, -10851.190787695741, -10018.543603246642, -3900.6252766400908, -7036.329154530663, -1304.4254546672648, 428.1029615524962, -6371.297701751912, -3299.005722881046, -18193.515323819556, -13206.639970140455, 0.012, -0.10400000000000001, 0.986, 192.0, 0.0, 0.0, 0.0, 0.0, 0.0, 0.0, 0.0, 0.0, 0.0, 1.645919775530473E9, 0.0, 2022-02-27 10:56:15.530
208.0, -2799.7571587273073, -7183.828316191235, -4652.739125816718, -8973.756012172224, -2578.363129897491, 3838.599185776614, -10719.963695998633, -9872.13967706438, -3957.130486623107, -7211.432720593539, -1477.9867503627243, 205.52429026654843, -6556.727773753139, -3503.278315458097, -18381.717012133242, -13219.335760991069, 0.012, -0.10400000000000001, 0.986, 192.0, 0.0, 0.0, 0.0, 0.0, 0.0, 0.0, 0.0, 0.0, 0.0, 1.645919775544112E9, 0.0, 2022-02-27 10:56:15.544
210.0, -2711.2442506842913, -7133.805112100257, -4592.188250087292, -8929.253688961708, -2509.5644604640556, 3893.6068288811243, -10694.393300341762, -9872.005566597649, -3700.3983498094503, -6883.309111989631, -1206.0777790639138, 525.7353813332775, -6264.7022324445525, -3198.9146112101807, -18071.34068862685, -13070.339032451991, 0.012, -0.10400000000000001, 0.986, 192.0, 0.0, 0.0, 0.0, 0.0, 0.0, 0.0, 0.0, 0.0, 0.0, 1.645919775552041E9, 0.0, 2022-02-27 10:56:15.552
212.0, -2932.5488725362866, -7327.080646405298, -4811.101235282568, -9129.078284392153, -2739.295689975702, 3679.8123931661125, -10897.883581862878, -10027.864280684506, -4026.487949667925, -7197.440528564517, -1434.9149387973475, 256.21804669118484, -6525.033000115514, -3473.0811086989775, -18366.383715436903, -13296.87396250653, 0.012, -0.10400000000000001, 0.986, 192.0, 0.0, 0.0, 0.0, 0.0, 0.0, 0.0, 0.0, 0.0, 0.0, 1.645919775560224E9, 0.0, 2022-02-27 10:56:15.560
214.0, -2636.745886414753, -7040.665392954993, -4516.974629995183, -8847.625118210926, -2436.72012528421, 3971.0779751632185, -10614.15053774721, -9778.910550941295, -3709.271992358207, -6961.741383283304, -1300.5586028764967, 410.28862122161644, -6366.134448782736, -3298.804557180948, -18167.74376246259, -13063.275881204116, 0.014, -0.106, 0.988, 192.0, 0.0, 56.0, 126.0, 88.0, 15.0, 112.0, 0.0, 0.0, 0.0, 1.645919775566612E9, 0.0, 2022-02-27 10:56:15.566
216.0, -2854.854208809639, -7258.661956627603, -4752.22674038729, -9070.203789496874, -2678.744814246275, 3732.3836961249945, -10868.021651270587, -10028.668943484896, -3872.4397268819484, -7001.683950624937, -1267.232151893634, 451.8852176529429, -6355.182093999636, -3291.562591977429, -18182.40650682527, -13201.454365426824, 0.014, -0.106, 0.988, 192.0, 0.0, 0.0, 0.0, 0.0, 0.0, 0.0, 0.0, 0.0, 0.0, 1.645919775574565E9, 0.0, 2022-02-27 10:56:15.574
218.0, -2755.2101320278803, -7130.787626598791, -4640.602128577487, -8957.48394220876, -2580.263028176192, 3838.8003514767115, -10743.835359076902, -9890.95984589575, -3935.672811946012, -7184.074185380243, -1445.2637964801547, 241.71176453969056, -6554.716116752162, -3497.31039968853, -18382.186398766804, -13222.599115681543, 0.014, -0.106, 0.988, 192.0, 0.0, 0.0, 0.0, 0.0, 0.0, 0.0, 0.0, 0.0, 0.0, 1.645919775582689E9, 0.0, 2022-02-27 10:56:15.582
220.0, -2657.7118227138308, -7050.567215748694, -4572.943398111272, -8911.796976542113, -2510.235012797715, 3893.1821457364736, -10717.88498376429, -9888.501154005666, -3677.9571983763217, -6855.458838398318, -1173.5112873925314, 564.4038992409586, -6271.139534847682, -3182.0837476353345, -18075.274595650983, -13072.820076086531, 0.014, -0.106, 0.988, 192.0, 0.0, 0.0, 0.0, 0.0, 0.0, 0.0, 0.0, 0.0, 0.0, 1.645919775589809E9, 0.0, 2022-02-27 10:56:15.589
222.0, -2889.9464476044714, -7271.089526544753, -4797.556078142653, -9118.304743564695, -2749.6892511474193, 3673.0845180850647, -10921.9787623857, -10061.950690978849, -4003.6891703235115, -7165.209313059964, -1393.743025510672, 286.19173600575164, -6523.758950681562, -3462.0393469380556, -18367.52365440412, -13306.48521262231, 0.014, -0.106, 0.988, 192.0, 0.0, 0.0, 0.0, 0.0, 0.0, 0.0, 0.0, 0.0, 0.0, 1.645919775596272E9, 0.0, 2022-02-27 10:56:15.596
224.0, -2598.3679411849907, -6999.471127923862, -4509.50914734711, -8839.936118118301, -2455.361480159936, 3959.2091988574507, -10655.434209756162, -9802.357530874913, -3705.4498440563493, -6953.426534345929, -1280.6655503112734, 450.58881647453507, -6378.763184399985, -3321.558633036451, -18182.428858569725, -13077.02220404413, 0.014, -0.108, 0.986, 192.0, 0.0, 56.0, 126.0, 80.0, 15.0, 104.0, 0.0, 0.0, 0.0, 1.645919775604261E9, 0.0, 2022-02-27 10:56:15.604
226.0, -2806.037998919249, -7203.564906545271, -4747.979908940782, -9066.22517898383, -2700.9847999793055, 3727.332201878095, -10908.813584901523, -10039.55424303463, -3862.1579244325076, -6975.554761356683, -1250.6248057633409, 469.3866335614483, -6362.6699283921635, -3299.452757770152, -18197.672748288245, -13210.037435297661, 0.014, -0.108, 0.986, 192.0, 0.0, 0.0, 0.0, 0.0, 0.0, 0.0, 0.0, 0.0, 0.0, 1.645919775613653E9, 0.0, 2022-02-27 10:56:15.613
228.0, -2730.3549921935787, -7113.062693245733, -4645.452457124288, -8968.190427802852, -2607.979191300773, 3827.8256449491555, -10769.025775078033, -9911.948133939282, -3941.886596904588, -7170.439621262506, -1445.1967412467889, 234.76037201409008, -6564.863808734872, -3513.6271731409042, -18396.625625684934, -13235.496072232256, 0.014, -0.108, 0.986, 192.0, 0.0, 0.0, 0.0, 0.0, 0.0, 0.0, 0.0, 0.0, 0.0, 1.645919775619469E9, 0.0, 2022-02-27 10:56:15.619
230.0, -2634.9353951138733, -7051.058954126711, -4578.017244102627, -8915.976752755256, -2538.1523416223936, 3877.6029798511245, -10744.79648408848, -9903.76739546864, -3679.208896065819, -6839.186768434855, -1179.2780374620006, 555.8655328590313, -6277.398023295167, -3214.739646284538, -18081.711898054113, -13081.626663401923, 0.014, -0.108, 0.986, 192.0, 0.0, 0.0, 0.0, 0.0, 0.0, 0.0, 0.0, 0.0, 0.0, 1.645919775626816E9, 0.0, 2022-02-27 10:56:15.626
232.0, -2878.8376306101836, -7265.970977064488, -4810.162462015446, -9136.968450184877, -2784.289751564235, 3650.665718396392, -10930.807701445545, -10073.99828124026, -4005.2761441798384, -7169.344385784196, -1404.6283250604065, 295.0206750655979, -6535.963003154159, -3483.8099460375247, -18372.619852139935, -13310.195602201891, 0.014, -0.108, 0.986, 192.0, 0.0, 0.0, 0.0, 0.0, 0.0, 0.0, 0.0, 0.0, 0.0, 1.645919775634931E9, 0.0, 2022-02-27 10:56:15.634
234.0, -2587.393234657435, -6997.973561045356, -4508.503318846621, -8861.080868373021, -2484.038768296095, 3942.199521326962, -10695.868515475811, -9833.493510901155, -3719.2855738741846, -6966.681118807926, -1297.1834894637454, 442.7880576596329, -6393.448280507122, -3342.5692728244394, -18194.968187209153, -13088.287483249604, 0.014, -0.11, 0.986, 192.0, 0.0, 56.0, 126.0, 72.0, 15.0, 104.0, 0.0, 0.0, 0.0, 1.645919775642031E9, 0.0, 2022-02-27 10:56:15.642
236.0, -2816.2080426464136, -7216.908897985089, -4750.930339208882, -9093.56136245267, -2709.612573339054, 3716.111626161531, -10874.995395540644, -10018.476548013276, -3860.436840109449, -6982.774374815747, -1254.491657554109, 472.67233999637847, -6362.647576647709, -3299.8550891703476, -18190.944873207198, -13210.260952742214, 0.014, -0.11, 0.986, 192.0, 0.0, 0.0, 0.0, 0.0, 0.0, 0.0, 0.0, 0.0, 0.0, 1.645919775649506E9, 0.0, 2022-02-27 10:56:15.649
238.0, -2747.677594146442, -7132.575766155215, -4652.87323628345, -8995.884239182978, -2617.4116274609123, 3820.427217534449, -10746.584623644903, -9893.060909874548, -3966.294701849783, -7190.645598250103, -1467.8167066355595, 219.87411020685556, -6580.331215897944, -3532.7379146501917, -18393.16110529436, -13231.629220441488, 0.014, -0.11, 0.986, 192.0, 0.0, 0.0, 0.0, 0.0, 0.0, 0.0, 0.0, 0.0, 0.0, 1.645919775656622E9, 0.0, 2022-02-27 10:56:15.656
240.0, -2647.2065028198367, -7063.553579277227, -4570.57411319901, -8924.939802281833, -2539.582853267533, 3901.3181807182054, -10723.629382089304, -9880.566284724031, -3698.8337276975785, -6859.660966355917, -1197.0476743039696, 565.812059141643, -6283.76827046493, -3208.9952479595245, -18082.404802132227, -13067.388602183892, 0.014, -0.11, 0.986, 192.0, 0.0, 0.0, 0.0, 0.0, 0.0, 0.0, 0.0, 0.0, 0.0, 1.645919775671642E9, 0.0, 2022-02-27 10:56:15.671
242.0, -2890.8852208715944, -7274.464639957505, -4801.601743889063, -9141.23763337584, -2777.3383590386343, 3666.7813261486685, -10929.243079333673, -10060.542531078165, -4034.1098945271847, -7170.640786962604, -1417.5699851000293, 294.10425354293034, -6529.436293773209, -3467.2025999072316, -18373.78214285161, -13300.316131152646, 0.015, -0.109, 0.987, 192.0, 0.0, 64.0, 126.0, 80.0, 15.0, 112.0, 0.0, 0.0, 0.0, 1.645919775679314E9, 0.0, 2022-02-27 10:56:15.679
244.0, -2606.1463482554377, -6995.33605519963, -4507.452786857222, -8861.192627095297, -2477.534410659601, 3956.750506967367, -10666.118343605798, -9809.823013522984, -3746.3535364095615, -6960.087354193611, -1306.6829808572509, 435.76960990066647, -6395.035254363448, -3327.8618249728474, -18203.528905335537, -13083.884189591909, 0.015, -0.109, 0.987, 192.0, 0.0, 0.0, 0.0, 0.0, 0.0, 0.0, 0.0, 0.0, 0.0, 1.645919775687233E9, 0.0, 2022-02-27 10:56:15.687
246.0, -2826.869824751595, -7216.19364216252, -4736.357001824022, -9085.8947141045, -2705.5892593370986, 3721.4760448308048, -10862.321956434484, -10018.968286391293, -3889.717625345901, -6978.594598602605, -1266.58395130443, 464.8268776925657, -6358.534855667932, -3306.135929362289, -18193.917655219753, -13210.439766697857, 0.015, -0.109, 0.987, 192.0, 0.0, 0.0, 0.0, 0.0, 0.0, 0.0, 0.0, 0.0, 0.0, 1.64591977569437E9, 0.0, 2022-02-27 10:56:15.694
248.0, -2772.510382236288, -7156.603891444671, -4643.820779779051, -8995.280742082685, -2613.9918105592506, 3807.5079092392816, -10754.161865015252, -9906.315494336546, -3992.2227254179393, -7186.532877270327, -1476.2209625507548, 225.48439806513764, -6575.123259439857, -3535.531882707105, -18406.326282778537, -13251.52227300671, 0.015, -0.109, 0.987, 192.0, 0.0, 0.0, 0.0, 0.0, 0.0, 0.0, 0.0, 0.0, 0.0, 1.645919775701821E9, 0.0, 2022-02-27 10:56:15.701
250.0, -2673.894485699473, -7080.965588207911, -4572.608121944442, -8932.606450630004, -2533.2796613311366, 3885.515497388303, -10703.557515568438, -9870.083316574493, -3724.761751265735, -6870.389803694464, -1213.163282056246, 550.4117072119365, -6282.29305533088, -3223.9262132556696, -18087.970386501598, -13086.16406752635, 0.015, -0.109, 0.987, 192.0, 0.0, 0.0, 0.0, 0.0, 0.0, 0.0, 0.0, 0.0, 0.0, 1.645919775709885E9, 0.0, 2022-02-27 10:56:15.709
252.0, -2914.4216077830324, -7291.071986087798, -4801.154708999957, -9149.552482313215, -2773.2703415477686, 3669.3517767610288, -10914.44622450426, -10055.08870543107, -4052.639490680634, -7185.281179580829, -1428.1647119718448, 271.6407503653467, -6529.413942028755, -3471.605893564927, -18375.704392874766, -13313.280142936725, 0.014499999999999999, -0.1075, 0.9875, 192.0, 0.0, 56.0, 126.0, 88.0, 15.0, 112.0, 0.0, 0.0, 0.0, 1.645919775719431E9, 0.0, 2022-02-27 10:56:15.719
254.0, -2652.1685900889147, -7033.937517873946, -4511.744321792641, -8879.699871504292, -2477.0650240260393, 3954.940015666487, -10656.462390001107, -9799.518859329088, -3771.633359388514, -6985.568342872661, -1328.7665043790942, 409.4616066767701, -6402.321923055879, -3343.932729236213, -18206.144059436807, -13089.11449779445, 0.014499999999999999, -0.1075, 0.9875, 192.0, 0.0, 0.0, 0.0, 0.0, 0.0, 0.0, 0.0, 0.0, 0.0, 1.64591977572559E9, 0.0, 2022-02-27 10:56:15.725
