%OpenBCI Raw EEG Data
%Number of channels = 16
%Sample Rate = 125 Hz
%Board = OpenBCI_GUI$BoardCytonSerialDaisy
Sample Index, EXG Channel 0, EXG Channel 1, EXG Channel 2, EXG Channel 3, EXG Channel 4, EXG Channel 5, EXG Channel 6, EXG Channel 7, EXG Channel 8, EXG Channel 9, EXG Channel 10, EXG Channel 11, EXG Channel 12, EXG Channel 13, EXG Channel 14, EXG Channel 15, Accel Channel 0, Accel Channel 1, Accel Channel 2, Other, Other, Other, Other, Other, Other, Other, Analog Channel 0, Analog Channel 1, Analog Channel 2, Timestamp, Other, Timestamp (Formatted)
0.0, -3113.6427061131844, -6112.755073637375, -1607.8950891369689, -10928.527823511104, -1043.0218032624489, 290.4609191967153, -5096.421253254563, -2283.051882153974, 0.0, 0.0, 0.0, 0.0, 0.0, 0.0, 0.0, 0.0, 0.0, 0.0, 0.0, 192.0, 0.0, 0.0, 0.0, 0.0, 0.0, 0.0, 0.0, 0.0, 0.0, 1.64592063274274E9, 0.0, 2022-02-27 11:10:32.742
212.0, -3265.7016236426384, -6144.02516413035, -1672.9163137574571, -11031.926993361354, -1190.52096492302, 230.7370580121348, -5119.085922132244, -2422.750284999643, -5656.555969304558, -8408.681560597606, -4517.5334236065655, -3347.061973459956, -4767.940016739371, -3762.3797371840164, -11063.398249554426, -15268.521340909165, 0.0, 0.0, 0.0, 192.0, 0.0, 0.0, 0.0, 0.0, 0.0, 0.0, 0.0, 0.0, 0.0, 1.645920632742743E9, 0.0, 2022-02-27 11:10:32.742
0.0, -1585.1633650259216, -3001.9957425589255, -856.9435306720175, -5457.781905863512, -612.7507224977878, 155.21051349765224, -2522.9308036483294, -989.1988026140693, -1859.240455536897, -3736.9434519938773, -2226.926651826698, -1630.6044615035607, -2389.6473514613335, -1833.6700598800255, -5374.052271133933, -7081.658492286026, 0.006, -0.11, 0.984, 192.0, 0.0, 24.0, 126.0, 72.0, 15.0, 96.0, 0.0, 0.0, 0.0, 1.645920632829391E9, 0.0, 2022-02-27 11:10:32.829
2.0, -3122.1587207506564, -5971.536752168746, -1668.2895026552085, -10881.253883988129, -1176.5064211495426, 350.9447396927762, -5005.56141204374, -1939.5055698759045, -3708.109701646531, -7551.1345328252955, -4355.259758861036, -3079.7351097744836, -4471.086498628438, -3601.3577701279846, -10530.532661739906, -14371.74700161779, 0.006, -0.11, 0.984, 192.0, 0.0, 0.0, 0.0, 0.0, 0.0, 0.0, 0.0, 0.0, 0.0, 1.645920632837237E9, 0.0, 2022-02-27 11:10:32.837
4.0, -3300.056254870445, -6147.64614673211, -1844.912987341045, -11047.841435413533, -1361.1765338392895, 177.02581608603194, -5166.493972121951, -2090.581010649325, -3954.582387755202, -7744.633584574889, -4471.175905606259, -3239.0136407630016, -4590.757738442152, -3734.887091503989, -10675.908407677223, -14539.295678054772, 0.006, -0.11, 0.984, 192.0, 0.0, 0.0, 0.0, 0.0, 0.0, 0.0, 0.0, 0.0, 0.0, 1.645920632843953E9, 0.0, 2022-02-27 11:10:32.843
6.0, -3133.915738334148, -5982.556162185212, -1680.0688719831553, -10880.985663054666, -1181.1555839962464, 359.2372368856951, -5004.935563198992, -1936.8904157746335, -3838.688592754435, -7703.2828573325705, -4463.777478191552, -3225.0885039673453, -4580.364177270434, -3716.2904401171736, -10654.428381255673, -14437.572889038669, 0.005, -0.108, 0.988, 192.0, 0.0, 16.0, 126.0, 88.0, 15.5, 0.0, 0.0, 0.0, 0.0, 1.64592063285209E9, 0.0, 2022-02-27 11:10:32.852
8.0, -3221.176948687667, -6075.762936563842, -1768.7829457262692, -10977.344033401494, -1274.1164891858684, 254.20638969020723, -5101.450395757008, -2044.871693238222, -3780.9316850819214, -7590.6971205111895, -4364.312215365436, -3095.873069271215, -4472.114678873382, -3604.464662607272, -10547.050600892378, -14427.469900544871, 0.005, -0.108, 0.988, 192.0, 0.0, 0.0, 0.0, 0.0, 0.0, 0.0, 0.0, 0.0, 0.0, 1.645920632859892E9, 0.0, 2022-02-27 11:10:32.859
10.0, -3246.7696960889934, -6086.648236113577, -1785.4573470899281, -10981.903789270376, -1295.5294603740526, 245.53391284154807, -5108.021808626868, -2031.1253703982081, -3986.7018445374783, -7808.380759761425, -4532.732609836175, -3306.292391573476, -4649.878102526439, -3786.296103751195, -10750.093847524387, -14550.963288660443, 0.005, -0.108, 0.988, 192.0, 0.0, 0.0, 0.0, 0.0, 0.0, 0.0, 0.0, 0.0, 0.0, 1.645920632867141E9, 0.0, 2022-02-27 11:10:32.867
12.0, -3124.259784729455, -5974.911865581497, -1671.955188745879, -10883.042023544553, -1171.3208164359114, 357.1808763958069, -4999.437034062986, -1931.6601075720916, -3722.146597164464, -7570.379384801315, -4368.067308433928, -3083.5796098207966, -4469.678338727754, -3591.768871756658, -10538.154606599166, -14369.55653066117, 0.005, -0.108, 0.988, 192.0, 0.0, 0.0, 0.0, 0.0, 0.0, 0.0, 0.0, 0.0, 0.0, 1.645920632874673E9, 0.0, 2022-02-27 11:10:32.874
14.0, -3299.676275214705, -6147.623794987655, -1850.3221094992293, -11048.579042980558, -1354.4486587582421, 178.97041785364365, -5169.578512856783, -2091.877411827733, -3949.486190019392, -7735.223500159204, -4475.467440541678, -3229.424742391675, -4583.381662771901, -3714.9046319609442, -10680.021128657, -14538.602773976658, 0.005, -0.108, 0.988, 192.0, 0.0, 0.0, 0.0, 0.0, 0.0, 0.0, 0.0, 0.0, 0.0, 1.645920632882498E9, 0.0, 2022-02-27 11:10:32.882
16.0, -3138.9895843255026, -5987.607656432111, -1686.9979127643005, -10884.897218334345, -1177.8251740724056, 352.95639669375385, -5000.196993374467, -1932.8671017726783, -3842.935424200943, -7711.307133592026, -4470.125373616859, -3225.043800478435, -4577.14552606887, -3715.30696336114, -10662.9667476376, -14441.395037340528, 0.0075, -0.10500000000000001, 0.988, 192.0, 0.0, 40.0, 126.0, 104.0, 15.0, 112.0, 0.0, 0.0, 0.0, 1.645920632896696E9, 0.0, 2022-02-27 11:10:32.896
18.0, -3217.198338174622, -6072.879561529107, -1774.884971962568, -10979.199228191284, -1276.0610909534803, 246.8303140199559, -5106.300724303809, -2037.0038791899538, -3785.0667578061534, -7595.525097313535, -4371.241256146581, -3096.4095111381425, -4474.193391107726, -3604.0623312070766, -10553.443199806596, -14425.726464477357, 0.0075, -0.10500000000000001, 0.988, 192.0, 0.0, 0.0, 0.0, 0.0, 0.0, 0.0, 0.0, 0.0, 0.0, 1.645920632904339E9, 0.0, 2022-02-27 11:10:32.904
20.0, -3244.422762921186, -6087.4305471695125, -1796.4991088508498, -10993.370234175949, -1298.5469458755192, 249.51252335459273, -5112.425102284563, -2042.904739726155, -3986.6571410485676, -7803.0163410921505, -4536.152426737836, -3301.911449660236, -4656.091887485014, -3790.744100897801, -10757.916958083744, -14548.973983403921, 0.0075, -0.10500000000000001, 0.988, 192.0, 0.0, 0.0, 0.0, 0.0, 0.0, 0.0, 0.0, 0.0, 0.0, 1.645920632912163E9, 0.0, 2022-02-27 11:10:32.912
22.0, -3113.3521334352654, -5969.011005045296, -1674.6821015694263, -10883.19848575574, -1172.684272847685, 373.22942891471735, -5010.6576097795505, -1926.7203720474688, -3724.649992543458, -7580.080041894918, -4367.1508869112595, -3085.010121465936, -4470.594760250421, -3596.9768282147443, -10545.888310180702, -14370.51765567275, 0.0075, -0.10500000000000001, 0.988, 192.0, 0.0, 0.0, 0.0, 0.0, 0.0, 0.0, 0.0, 0.0, 0.0, 1.645920632919331E9, 0.0, 2022-02-27 11:10:32.919
24.0, -3290.959094877135, -6147.914367665573, -1846.008222819355, -11057.631499484956, -1352.6605192018176, 180.87031613234475, -5166.628082588682, -2089.4634234265595, -3947.16160859604, -7739.783256028088, -4468.35958580489, -3221.333410898854, -4582.666406949331, -3709.11553014702, -10681.339881579863, -14536.188785575485, 0.0075, -0.10500000000000001, 0.988, 192.0, 0.0, 0.0, 0.0, 0.0, 0.0, 0.0, 0.0, 0.0, 0.0, 1.645920632926835E9, 0.0, 2022-02-27 11:10:32.926
26.0, -3127.9031190756705, -5981.8856098515525, -1683.3098749291748, -10892.832087615978, -1187.4364241881876, 351.83880947098845, -5003.9073829540475, -1945.0488025008206, -3846.802275991711, -7703.059339888017, -4468.8736759273625, -3216.5054340965075, -4583.918104638828, -3723.0630186871317, -10670.834561685868, -14448.592299055135, 0.00675, -0.10650000000000001, 0.988, 192.0, 0.0, 24.0, 126.0, 80.0, 15.0, 112.0, 0.0, 0.0, 0.0, 1.645920632934884E9, 0.0, 2022-02-27 11:10:32.934
28.0, -3205.7542450135047, -6071.136125461594, -1765.9889776693558, -10986.50824862817, -1274.0270822080472, 266.4774973961708, -5093.135546819633, -2029.516044797426, -3782.071624049142, -7596.709739769667, -4367.374404355813, -3089.4134151236317, -4476.473269042167, -3611.8183865330684, -10553.107923639765, -14427.983990667342, 0.00675, -0.10650000000000001, 0.988, 192.0, 0.0, 0.0, 0.0, 0.0, 0.0, 0.0, 0.0, 0.0, 0.0, 1.645920632942874E9, 0.0, 2022-02-27 11:10:32.942
30.0, -3251.0165275355016, -6106.764806123353, -1788.0948529356544, -11001.305103457584, -1300.1115679873906, 251.81475303348938, -5108.737064449438, -2022.6317075051913, -3995.195507430495, -7815.622724964944, -4544.556682653032, -3317.5129672900403, -4657.4106404078775, -3795.5720777001475, -10754.139513270798, -14545.621221735624, 0.00675, -0.10650000000000001, 0.988, 192.0, 0.0, 0.0, 0.0, 0.0, 0.0, 0.0, 0.0, 0.0, 0.0, 1.645920632949142E9, 0.0, 2022-02-27 11:10:32.949
32.0, -3114.8049968248606, -5981.215057517893, -1658.6111973060606, -10884.003148556132, -1162.6259878427968, 375.6657690603458, -5017.676057538517, -1928.7543807929017, -3737.1669694384304, -7583.879838452321, -4378.796145772475, -3088.2287726675004, -4477.4567457982, -3604.531717840638, -10544.949536913578, -14366.18141724842, 0.00675, -0.10650000000000001, 0.988, 192.0, 0.0, 0.0, 0.0, 0.0, 0.0, 0.0, 0.0, 0.0, 0.0, 1.645920632956464E9, 0.0, 2022-02-27 11:10:32.956
34.0, -3291.897868144258, -6150.306004322291, -1835.3911442030842, -11059.7102117193, -1355.0074523696248, 184.62540920083634, -5168.527980867384, -2117.023124339953, -3948.614471985635, -7734.0388577030735, -4471.26531258408, -3216.997172474524, -4583.314607538535, -3717.564489551126, -10680.624625757293, -14535.227660563907, 0.00675, -0.10650000000000001, 0.988, 192.0, 0.0, 0.0, 0.0, 0.0, 0.0, 0.0, 0.0, 0.0, 0.0, 1.645920632964471E9, 0.0, 2022-02-27 11:10:32.964
36.0, -3144.421058228142, -6007.053674108229, -1681.7229010728481, -10902.510392965127, -1186.654113132252, 357.5608560515471, -5002.65568526455, -1935.4822558739493, -3862.2473314103286, -7727.1098169219285, -4484.564600534988, -3231.905786026214, -4600.011360646648, -3731.489626346782, -10674.947282665646, -14452.772075268278, 0.007375, -0.10625000000000001, 0.989, 192.0, 0.0, 32.0, 126.0, 88.0, 15.0, 120.0, 0.0, 0.0, 0.0, 1.64592063297245E9, 0.0, 2022-02-27 11:10:32.972
38.0, -3216.1701579296778, -6080.412099410546, -1758.948178165934, -10985.837696294511, -1276.4187188647652, 268.533857886059, -5104.311419047287, -2036.8027134898562, -3792.733406154324, -7606.298638140994, -4377.522096338523, -3102.779758307905, -4483.223495867669, -3611.147834199409, -10554.627842262727, -14424.832394699144, 0.007375, -0.10625000000000001, 0.989, 192.0, 0.0, 0.0, 0.0, 0.0, 0.0, 0.0, 0.0, 0.0, 0.0, 1.645920632979052E9, 0.0, 2022-02-27 11:10:32.979
40.0, -3255.9115595712137, -6110.184623025015, -1786.68669303497, -11007.675350627345, -1305.677152356762, 244.86336050788887, -5129.077151903767, -2044.4693618380263, -3994.256734163372, -7822.171786090349, -4546.501284420644, -3318.5411475349842, -4661.322195687556, -3811.263002307773, -10761.537940685505, -14553.198463105973, 0.007375, -0.10625000000000001, 0.989, 192.0, 0.0, 0.0, 0.0, 0.0, 0.0, 0.0, 0.0, 0.0, 0.0, 1.645920632987115E9, 0.0, 2022-02-27 11:10:32.987
42.0, -3135.681526146117, -6004.706740940421, -1652.7326885143148, -10888.093517791453, -1158.6920808186628, 383.6229900864351, -4999.124109640612, -1932.2636046723849, -3739.402143883961, -7600.55423981598, -4383.713529552642, -3104.5678978643296, -4479.714271988186, -3622.8825000384454, -10552.213853861555, -14375.993833064298, 0.007375, -0.10625000000000001, 0.989, 192.0, 0.0, 0.0, 0.0, 0.0, 0.0, 0.0, 0.0, 0.0, 0.0, 1.645920632995071E9, 0.0, 2022-02-27 11:10:32.995
44.0, -3327.6383075282943, -6194.853031021718, -1827.948013299467, -11063.62176699898, -1341.0152603406025, 200.51749950855967, -5165.018756987901, -2093.12910951723, -3953.6883179769898, -7749.416857888325, -4481.658873755798, -3236.242024450544, -4579.6936249367745, -3725.566414066126, -10670.432230285673, -14528.075102338207, 0.007375, -0.10625000000000001, 0.989, 192.0, 0.0, 0.0, 0.0, 0.0, 0.0, 0.0, 0.0, 0.0, 0.0, 1.645920633002196E9, 0.0, 2022-02-27 11:10:33.002
46.0, -3200.5686402998736, -6067.872770771119, -1670.368214889552, -10908.523012223604, -1167.6998338341516, 358.2537601296616, -4986.316560067721, -1933.8505785287118, -3876.418337394993, -7744.544177597068, -4503.407121110812, -3258.2808444834764, -4595.809232689051, -3757.4400016593936, -10666.408916283717, -14445.53011006476, 0.0086875, -0.10512500000000001, 0.9884999999999999, 192.0, 0.0, 40.0, 126.0, 96.0, 15.0, 112.0, 0.0, 0.0, 0.0, 1.645920633016646E9, 0.0, 2022-02-27 11:10:33.016
48.0, -3300.1680135927218, -6177.016338946383, -1749.985128639356, -10986.21767595025, -1245.1262766273353, 276.7592998456121, -5070.33676747522, -2007.5219282534038, -3803.775167915245, -7621.430769137236, -4391.9166197677405, -3119.3871044381985, -4472.025271895561, -3639.9592328023, -10536.031190875912, -14416.674007972957, 0.0086875, -0.10512500000000001, 0.9884999999999999, 192.0, 0.0, 0.0, 0.0, 0.0, 0.0, 0.0, 0.0, 0.0, 0.0, 1.645920633024761E9, 0.0, 2022-02-27 11:10:33.024
50.0, -3411.5691079579724, -6264.09873534426, -1791.8052425152355, -11011.832775096032, -1276.9551607316926, 263.9964537616317, -5089.29104677332, -2020.9553266710434, -4031.740609614922, -7848.435085825335, -4577.14552606887, -3350.548845594984, -4656.762439818674, -3807.5526127281923, -10743.544786398983, -14535.250012308361, 0.0086875, -0.10512500000000001, 0.9884999999999999, 192.0, 0.0, 0.0, 0.0, 0.0, 0.0, 0.0, 0.0, 0.0, 0.0, 1.645920633032201E9, 0.0, 2022-02-27 11:10:33.032
52.0, -3342.61397631335, -6207.548821872333, -1668.2895026552085, -10897.771823140602, -1138.754324764529, 389.9038302783764, -4974.224266317399, -1904.815662481268, -3816.4486070214043, -7639.669792612767, -4443.303280270491, -3161.877770647737, -4487.425623825267, -3619.3956279034173, -10540.926222911623, -14357.933623544412, 0.0086875, -0.10512500000000001, 0.9884999999999999, 192.0, 0.0, 0.0, 0.0, 0.0, 0.0, 0.0, 0.0, 0.0, 0.0, 1.645920633039436E9, 0.0, 2022-02-27 11:10:33.039
54.0, -3557.5259992511274, -6412.313152827401, -1846.6564234085588, -11071.869560702988, -1328.0288968120692, 204.36199955487248, -5142.287032876853, -2073.2360569520065, -4037.3061939842937, -7798.2554195231705, -4548.110610021426, -3302.961981649635, -4586.1532790843585, -3734.395353125972, -10666.364212794806, -14514.574648687203, 0.0086875, -0.10512500000000001, 0.9884999999999999, 192.0, 0.0, 0.0, 0.0, 0.0, 0.0, 0.0, 0.0, 0.0, 0.0, 1.645920633047323E9, 0.0, 2022-02-27 11:10:33.047
56.0, -3428.8917099108353, -6270.714851703031, -1696.43034892444, -10916.122605338407, -1169.0632902459254, 376.1351556939072, -4979.007539630836, -1912.7058282739913, -3968.194600128484, -7790.164088030349, -4574.016281845126, -3324.6208220268277, -4604.839337448995, -3754.4895713912933, -10672.935625664668, -14430.733255235345, 0.00834375, -0.1035625, 0.98725, 192.0, 0.0, 32.0, 126.0, 104.0, 15.0, 104.0, 0.0, 0.0, 0.0, 1.645920633054529E9, 0.0, 2022-02-27 11:10:33.054
58.0, -3484.614608837916, -6326.460102374566, -1765.273721846786, -10988.922237029343, -1232.1846165877125, 292.0925965419527, -5067.989834307413, -2011.6346492331804, -3890.142308490552, -7654.556054420002, -4458.949501389206, -3175.065299876368, -4479.64721675482, -3620.9826017597443, -10542.9378799126, -14400.223124053851, 0.00834375, -0.1035625, 0.98725, 192.0, 0.0, 0.0, 0.0, 0.0, 0.0, 0.0, 0.0, 0.0, 0.0, 1.645920633062074E9, 0.0, 2022-02-27 11:10:33.062
60.0, -3523.5960511679714, -6353.930396310138, -1804.1434054545648, -11014.13500477493, -1272.2165909071673, 253.245264678629, -5092.397939252608, -2022.1846726160852, -4096.359502835215, -7867.8140482680865, -4625.939384214805, -3389.6867501362267, -4660.4057741648885, -3820.5389762567256, -10749.244481235086, -14535.093550097174, 0.00834375, -0.1035625, 0.98725, 192.0, 0.0, 0.0, 0.0, 0.0, 0.0, 0.0, 0.0, 0.0, 0.0, 1.645920633069E9, 0.0, 2022-02-27 11:10:33.069
62.0, -3374.8228400734474, -6202.22910669197, -1669.563552089161, -10887.333558479973, -1133.1887403951575, 394.9329727808205, -4980.214533831422, -1909.777749750346, -3834.084133396642, -7626.236394195127, -4456.446106010211, -3173.1877533421225, -4483.402309823312, -3629.7668373306797, -10546.9388421701, -14356.637222366004, 0.00834375, -0.1035625, 0.98725, 192.0, 0.0, 0.0, 0.0, 0.0, 0.0, 0.0, 0.0, 0.0, 0.0, 1.645920633077045E9, 0.0, 2022-02-27 11:10:33.077
64.0, -3558.80004868508, -6384.865210636283, -1849.6962606544807, -11064.672298988378, -1319.2670129855887, 214.1967671152076, -5157.732088295471, -2097.5547549193807, -4042.89413009812, -7752.300232923059, -4544.690793119764, -3292.814289666926, -4578.2854650360905, -3720.626678541503, -10664.084334860365, -14506.952703827943, 0.00834375, -0.1035625, 0.98725, 192.0, 0.0, 0.0, 0.0, 0.0, 0.0, 0.0, 0.0, 0.0, 0.0, 1.645920633084117E9, 0.0, 2022-02-27 11:10:33.084
66.0, -3388.680921635738, -6204.106653226216, -1697.659694869482, -10906.332541266984, -1157.842714529361, 376.1798591828179, -4973.352548283643, -1901.1276246461423, -3968.4404693174924, -7743.851273518953, -4566.6625579193305, -3299.2292403255988, -4599.676084479819, -3745.235949186796, -10671.169837852698, -14431.157938379996, 0.009171875, -0.10478124999999999, 0.986625, 192.0, 0.0, 40.0, 126.0, 88.0, 15.0, 104.0, 0.0, 0.0, 0.0, 1.645920633091642E9, 0.0, 2022-02-27 11:10:33.091
68.0, -3435.150198358321, -6267.987938879483, -1757.2270938428753, -10978.59573109099, -1225.0320583620141, 302.10617805793026, -5052.164799233055, -2001.3081432948284, -3874.6301978385686, -7608.93614398672, -4440.419905235756, -3148.1314478077234, -4469.410117794289, -3617.898061024912, -10529.057446605855, -14389.494286715304, 0.009171875, -0.10478124999999999, 0.986625, 192.0, 0.0, 0.0, 0.0, 0.0, 0.0, 0.0, 0.0, 0.0, 0.0, 1.645920633099573E9, 0.0, 2022-02-27 11:10:33.099
70.0, -3467.6049313074273, -6295.905267704162, -1798.7789867852912, -11015.99019956472, -1276.4410706092203, 260.5542851155144, -5102.679741702049, -2009.712399210024, -4069.872685655676, -7845.015268923673, -4603.632343248409, -3366.9550260251794, -4647.508817614176, -3814.66046746498, -10745.265870722042, -14526.286962781784, 0.009171875, -0.10478124999999999, 0.986625, 192.0, 0.0, 0.0, 0.0, 0.0, 0.0, 0.0, 0.0, 0.0, 0.0, 1.645920633107751E9, 0.0, 2022-02-27 11:10:33.107
72.0, -3300.5926967373725, -6137.140826838116, -1657.7394792723037, -10880.292758976551, -1117.3190018318894, 406.17590024183994, -4953.437143973964, -1894.5338600318266, -3810.1007115960974, -7608.399702119792, -4432.909719098773, -3154.3228810218434, -4473.03110039605, -3624.4471221503168, -10546.581214258817, -14342.17564370342, 0.009171875, -0.10478124999999999, 0.986625, 192.0, 0.0, 0.0, 0.0, 0.0, 0.0, 0.0, 0.0, 0.0, 0.0, 1.645920633114254E9, 0.0, 2022-02-27 11:10:33.114
74.0, -3475.182172677776, -6319.888689504706, -1836.1287517701094, -11056.022173884176, -1321.2786699865665, 223.1374648973304, -5131.781712982859, -2060.8531905237664, -3994.8602312636654, -7736.274032148604, -4507.944525235239, -3258.9513968171354, -4556.492514192166, -3724.985268710288, -10651.701468432126, -14500.001311302341, 0.009171875, -0.10478124999999999, 0.986625, 192.0, 0.0, 0.0, 0.0, 0.0, 0.0, 0.0, 0.0, 0.0, 0.0, 1.645920633122212E9, 0.0, 2022-02-27 11:10:33.122
76.0, -3302.269077571521, -6150.730687466942, -1680.2700376832531, -10900.901067364344, -1156.7251273065958, 374.659940559857, -4986.495374023363, -1936.7563053079016, -3923.3793524955936, -7754.580110857501, -4531.816188313507, -3291.361426277331, -4585.57213372852, -3763.2738069622287, -10669.605215740827, -14434.66716225948, 0.0105859375, -0.10539062499999999, 0.9853125, 192.0, 0.0, 48.0, 126.0, 88.0, 15.0, 96.0, 0.0, 0.0, 0.0, 1.645920633130323E9, 0.0, 2022-02-27 11:10:33.130
78.0, -3345.6314618148162, -6201.200926447025, -1744.1289715920655, -10969.386812375405, -1213.2079855451568, 302.1508815468409, -5067.185171507022, -1991.227506545485, -3813.3193627976616, -7599.101376426384, -4392.855393034863, -3131.5464534218854, -4448.175960561748, -3622.2566511936966, -10528.096321594277, -14397.22799029684, 0.0105859375, -0.10539062499999999, 0.9853125, 192.0, 0.0, 0.0, 0.0, 0.0, 0.0, 0.0, 0.0, 0.0, 0.0, 1.645920633143827E9, 0.0, 2022-02-27 11:10:33.143
80.0, -3398.023950818056, -6248.43016248109, -1794.621562316604, -11014.425577452848, -1283.973608490659, 252.39589838932736, -5101.964485879479, -2019.9942016594653, -4029.483083424936, -7822.819986679553, -4564.7850113850845, -3356.1814851977215, -4642.256157667179, -3808.334923784128, -10743.924766054723, -14528.365675016126, 0.0105859375, -0.10539062499999999, 0.9853125, 192.0, 0.0, 0.0, 0.0, 0.0, 0.0, 0.0, 0.0, 0.0, 0.0, 1.645920633151811E9, 0.0, 2022-02-27 11:10:33.151
82.0, -3239.527730885474, -6100.394558953591, -1647.3235663561304, -10883.980796811677, -1125.6338507692637, 389.2332779447172, -4966.64702494705, -1890.7340634744244, -3769.4652401763487, -7613.6523620667895, -4397.750425070575, -3147.6397094297063, -4466.839667181929, -3638.14874150142, -10562.406249333173, -14351.563376374648, 0.0105859375, -0.10539062499999999, 0.9853125, 192.0, 0.0, 0.0, 0.0, 0.0, 0.0, 0.0, 0.0, 0.0, 0.0, 1.645920633160065E9, 0.0, 2022-02-27 11:10:33.160
84.0, -3415.8606428933913, -6274.045261626871, -1828.1268272551094, -11061.073668131074, -1308.9628587916923, 203.95966815467693, -5125.970259424479, -2068.117507471741, -3955.007070899853, -7742.152540940349, -4472.964045162684, -3251.6870798691607, -4549.80934260003, -3726.527539077704, -10671.035727385966, -14497.073232778697, 0.0105859375, -0.10539062499999999, 0.9853125, 192.0, 0.0, 0.0, 0.0, 0.0, 0.0, 0.0, 0.0, 0.0, 0.0, 1.645920633166969E9, 0.0, 2022-02-27 11:10:33.166
86.0, -3251.7541351025266, -6108.172966024037, -1676.8725725260465, -10904.454994732738, -1160.1449442082578, 364.4451933437817, -5010.299981868266, -1924.4851976019381, -3894.7691195928005, -7740.654974061844, -4505.2623159006025, -3281.6384174392724, -4590.355407041956, -3759.228141215818, -10705.323303380406, -14432.700208747412, 0.008, -0.10200000000000001, 0.988, 192.0, 0.0, 32.0, 126.0, 104.0, 15.0, 112.0, 0.0, 0.0, 0.0, 1.645920633174584E9, 0.0, 2022-02-27 11:10:33.174
88.0, -3291.7861094219816, -6160.230178860447, -1739.8150849121912, -10972.247835665685, -1226.551976984975, 291.42204420829347, -5057.1492382465885, -2002.9398206400658, -3782.071624049142, -7588.640760021301, -4363.57460779841, -3111.8322148123048, -4441.850416880896, -3603.9729242292556, -10564.730830756525, -14385.068641313153, 0.008, -0.10200000000000001, 0.988, 192.0, 0.0, 0.0, 0.0, 0.0, 0.0, 0.0, 0.0, 0.0, 0.0, 1.645920633182617E9, 0.0, 2022-02-27 11:10:33.182
90.0, -3350.8841217618137, -6203.5925631037435, -1796.4544053619393, -11023.209813023785, -1292.3108091724885, 234.4697993361711, -5083.300779259298, -2040.960137958543, -3999.4423388770033, -7816.919126143352, -4543.28263321908, -3345.989089726101, -4634.991840719204, -3809.7430836848125, -10768.601091933382, -14526.711645926434, 0.008, -0.10200000000000001, 0.988, 192.0, 0.0, 0.0, 0.0, 0.0, 0.0, 0.0, 0.0, 0.0, 0.0, 1.645920633189797E9, 0.0, 2022-02-27 11:10:33.189
92.0, -3193.0584541628905, -6058.686203799988, -1646.7424210002926, -10888.942884080754, -1137.4802753305764, 383.8912110198988, -4967.205818558433, -1907.7884444938238, -3752.4108591569498, -7597.939085714708, -4384.29467490848, -3148.198503041089, -4469.83480093894, -3644.5189886711823, -10579.013595463466, -14352.211576963851, 0.008, -0.10200000000000001, 0.988, 192.0, 0.0, 0.0, 0.0, 0.0, 0.0, 0.0, 0.0, 0.0, 0.0, 1.645920633196088E9, 0.0, 2022-02-27 11:10:33.196
94.0, -3369.972511526646, -6242.775171133897, -1824.8187690757238, -11065.968700166786, -1325.614908410896, 201.76919719805684, -5152.188855670554, -2089.262257726462, -3941.819541671222, -7728.830901244986, -4456.334347287935, -3238.9912890185465, -4546.61304314292, -3728.494492589771, -10677.093050133355, -14496.022700789297, 0.008, -0.10200000000000001, 0.988, 192.0, 0.0, 0.0, 0.0, 0.0, 0.0, 0.0, 0.0, 0.0, 0.0, 1.645920633204229E9, 0.0, 2022-02-27 11:10:33.204
96.0, -3216.259564907499, -6078.7357185763985, -1676.0008544922896, -10913.909782637333, -1178.1604502392352, 352.7552309936561, -4992.016254903824, -1945.071154245276, -3887.10247124463, -7740.654974061844, -4485.749242991119, -3276.7210336591047, -4588.589619229987, -3765.039594774198, -10702.864611490324, -14437.103502405109, 0.01, -0.108, 0.988, 192.0, 0.0, 40.0, 126.0, 80.0, 15.0, 112.0, 0.0, 0.0, 0.0, 1.645920633212355E9, 0.0, 2022-02-27 11:10:33.212
98.0, -3251.910597313714, -6130.412951757068, -1726.7840178947472, -10970.750268787178, -1221.5004827380756, 289.7680151186008, -5071.856686098181, -2012.0369806333758, -3779.4117664589608, -7586.562047786957, -4347.771924468509, -3107.563031621341, -4445.896082627307, -3615.1264447124536, -10548.034077648412, -14385.873304113544, 0.01, -0.108, 0.988, 192.0, 0.0, 0.0, 0.0, 0.0, 0.0, 0.0, 0.0, 0.0, 0.0, 1.64592063321946E9, 0.0, 2022-02-27 11:10:33.219
100.0, -3320.6869150026937, -6187.007568717906, -1787.6925215354588, -11024.863842113476, -1291.3943876498208, 233.5757295579588, -5114.593221496728, -2050.7502020299676, -3993.1391469406067, -7807.151413816383, -4525.110664976914, -3325.090208660389, -4633.427218607333, -3807.1279295835416, -10765.784772132012, -14530.131462828096, 0.01, -0.108, 0.988, 192.0, 0.0, 0.0, 0.0, 0.0, 0.0, 0.0, 0.0, 0.0, 0.0, 1.645920633226736E9, 0.0, 2022-02-27 11:10:33.226
102.0, -3160.4472590025975, -6032.936994187474, -1634.7395342277925, -10876.090631018953, -1124.6727257576854, 385.61229534295745, -4970.893856393559, -1912.035275940332, -3738.59748108357, -7593.647550779289, -4370.4365933461895, -3128.5960231537847, -4463.509257258089, -3643.7590293597023, -10567.52479881344, -14352.300983941674, 0.01, -0.108, 0.988, 192.0, 0.0, 0.0, 0.0, 0.0, 0.0, 0.0, 0.0, 0.0, 0.0, 1.645920633234959E9, 0.0, 2022-02-27 11:10:33.234
104.0, -3334.299127375976, -6205.626571849176, -1811.6759433360035, -11054.099923861018, -1333.2815567590662, 201.70214196469092, -5162.11303020871, -2086.1330135027188, -3916.874994859099, -7707.306171334526, -4431.881538853829, -3225.40142838972, -4535.70539184873, -3718.570318051615, -10660.485704003062, -14490.613578631113, 0.01, -0.108, 0.988, 192.0, 0.0, 0.0, 0.0, 0.0, 0.0, 0.0, 0.0, 0.0, 0.0, 1.645920633242883E9, 0.0, 2022-02-27 11:10:33.242
106.0, -3198.2217071320665, -6065.5928928366775, -1664.310892142164, -10912.278105292095, -1177.556953138942, 344.8427134564774, -5013.026894691813, -1944.869988545178, -3870.4727733698815, -7722.281840119582, -4468.8736759273625, -3273.614141179817, -4581.839392404484, -3765.084298263109, -10706.083262691887, -14442.33381060765, 0.012, -0.10200000000000001, 0.98, 192.0, 0.0, 48.0, 126.0, 104.0, 15.0, 80.0, 0.0, 0.0, 0.0, 1.645920633249414E9, 0.0, 2022-02-27 11:10:33.249
108.0, -3230.743495314538, -6107.9718003239395, -1709.4167124529736, -10964.581187317513, -1227.3789915298214, 289.857422096422, -5077.332863489731, -2014.093341123264, -3766.5148099082485, -7582.918713440742, -4334.584395239877, -3101.2374879404892, -4439.615242435365, -3615.1040929679984, -10549.397534060185, -14387.616740181058, 0.012, -0.10200000000000001, 0.98, 192.0, 0.0, 0.0, 0.0, 0.0, 0.0, 0.0, 0.0, 0.0, 0.0, 1.64592063326456E9, 0.0, 2022-02-27 11:10:33.264
110.0, -3307.745254963071, -6167.583902786244, -1781.2775708767858, -11021.444025211815, -1301.5644313769856, 228.74775275561248, -5124.606803012705, -2043.0388501928867, -3987.17123117104, -7807.509041727668, -4512.392522381845, -3332.868615730836, -4632.086113940014, -3808.3125720396724, -10768.042298321998, -14529.885593639088, 0.012, -0.10200000000000001, 0.98, 192.0, 0.0, 0.0, 0.0, 0.0, 0.0, 0.0, 0.0, 0.0, 0.0, 1.64592063327165E9, 0.0, 2022-02-27 11:10:33.271
112.0, -3155.2616542889664, -6021.269383581804, -1630.1350748699995, -10878.929302564777, -1145.2810341454785, 377.09628070548547, -4983.455536777441, -1915.7009620310025, -3745.571225353626, -7598.02849269253, -4365.161581654737, -3140.554206437374, -4471.913513173284, -3644.5189886711823, -10577.739546029514, -14354.334992687107, 0.012, -0.10200000000000001, 0.98, 192.0, 0.0, 0.0, 0.0, 0.0, 0.0, 0.0, 0.0, 0.0, 0.0, 1.645920633279144E9, 0.0, 2022-02-27 11:10:33.279
114.0, -3329.4040953402637, -6202.318513669791, -1808.3455334121627, -11053.876406416466, -1332.7227631476835, 192.3591127823726, -5172.171315213599, -2090.5586589048694, -3926.866224630621, -7699.036025886063, -4428.931108585729, -3222.87568126627, -4542.94735705225, -3722.057190186643, -10666.543026750449, -14497.319101967705, 0.012, -0.10200000000000001, 0.98, 192.0, 0.0, 0.0, 0.0, 0.0, 0.0, 0.0, 0.0, 0.0, 0.0, 1.645920633287194E9, 0.0, 2022-02-27 11:10:33.287
116.0, -3201.5744688003624, -6065.5928928366775, -1675.598523092094, -10920.883526907388, -1183.7930898419727, 337.44428604177074, -5022.079351196212, -1940.6231570986697, -3885.426090410482, -7741.839616517976, -4476.003882408605, -3286.4440424971635, -4593.976389643716, -3780.752871126279, -10711.40297787225, -14447.944098465932, 0.014, -0.108, 0.986, 192.0, 0.0, 56.0, 126.0, 80.0, 15.0, 104.0, 0.0, 0.0, 0.0, 1.645920633295149E9, 0.0, 2022-02-27 11:10:33.295
118.0, -3231.950489515125, -6106.362474723158, -1716.3234014896634, -10965.430553606815, -1230.038849120003, 288.69513138474605, -5083.747814148404, -1997.1060153372307, -3765.2854639632064, -7581.063518650952, -4339.792351697964, -3116.95076429257, -4443.839722137418, -3626.4587791512945, -10549.263423593453, -14385.895655858, 0.014, -0.108, 0.986, 192.0, 0.0, 0.0, 0.0, 0.0, 0.0, 0.0, 0.0, 0.0, 0.0, 1.64592063330182E9, 0.0, 2022-02-27 11:10:33.301
120.0, -3310.449816042163, -6169.863780720685, -1791.5370215817718, -11030.652943927402, -1307.487643657642, 218.24243286161817, -5127.803102469815, -2048.4032688621605, -3994.234382418917, -7812.716998185754, -4521.735551564164, -3350.3923833837966, -4630.722657528241, -3817.2532698217956, -10763.683708153214, -14532.098416340163, 0.014, -0.108, 0.986, 192.0, 0.0, 0.0, 0.0, 0.0, 0.0, 0.0, 0.0, 0.0, 0.0, 1.645920633309642E9, 0.0, 2022-02-27 11:10:33.309
122.0, -3141.180055282123, -6014.161528845016, -1631.1856068593988, -10881.34329096595, -1139.0225456979927, 375.3304928935162, -4985.824821689704, -1915.0527614417986, -3738.1504461944637, -7597.872030481342, -4372.045918946972, -3147.4385437296087, -4468.471344527166, -3662.601549935526, -10574.453839594584, -14354.89378629849, 0.014, -0.108, 0.986, 192.0, 0.0, 0.0, 0.0, 0.0, 0.0, 0.0, 0.0, 0.0, 0.0, 1.645920633316865E9, 0.0, 2022-02-27 11:10:33.316
124.0, -3318.585851023895, -6194.405996132612, -1807.0714839782102, -11055.99982213972, -1322.5750711649741, 171.63904567230293, -5164.482315120973, -2115.5255574614475, -3905.587363909169, -7714.2575638601265, -4424.751332372586, -3228.418913891186, -4532.2632232026135, -3739.8715305175224, -10653.064924843899, -14492.044090276253, 0.014, -0.108, 0.986, 192.0, 0.0, 0.0, 0.0, 0.0, 0.0, 0.0, 0.0, 0.0, 0.0, 1.645920633324931E9, 0.0, 2022-02-27 11:10:33.324
126.0, -3193.3713785852647, -6059.557921833744, -1674.9056190139795, -10922.805776930545, -1191.3703312123218, 319.85346315544405, -5036.250357180877, -1931.8612732721895, -3875.166639705496, -7753.9989655016625, -4481.345949333424, -3290.1767838211995, -4589.975427386216, -3804.0880923376194, -10706.195021414163, -14446.37947635406, 0.014, -0.11, 0.988, 192.0, 0.0, 56.0, 126.0, 72.0, 15.0, 112.0, 0.0, 0.0, 0.0, 1.645920633331372E9, 0.0, 2022-02-27 11:10:33.331
128.0, -3213.465596850586, -6087.139974491593, -1702.1300437605435, -10964.469428595237, -1237.772552701539, 275.0382155225534, -5093.403767753097, -2005.6667334636134, -3747.1581992099527, -7580.460021550659, -4340.9099389207295, -3114.849700313771, -4435.860149366874, -3636.9193955563783, -10541.574423500828, -14375.770315619746, 0.014, -0.11, 0.988, 192.0, 0.0, 0.0, 0.0, 0.0, 0.0, 0.0, 0.0, 0.0, 0.0, 1.64592063333945E9, 0.0, 2022-02-27 11:10:33.339
130.0, -3286.1981733081548, -6148.383754299135, -1773.722681250892, -11027.769568892667, -1318.2164809961894, 199.7128367081686, -5152.25591090392, -2071.023234250931, -3973.648425775579, -7809.833623151019, -4510.626734569876, -3340.1105809343558, -4617.870404466439, -3831.6477932510134, -10750.339716713395, -14533.037189607287, 0.014, -0.11, 0.988, 192.0, 0.0, 0.0, 0.0, 0.0, 0.0, 0.0, 0.0, 0.0, 0.0, 1.645920633347638E9, 0.0, 2022-02-27 11:10:33.347
132.0, -3124.9750405520253, -5991.116880311594, -1621.887281165991, -10883.265540989107, -1148.0302987134814, 362.52294332062525, -5010.702313268461, -1919.2101859104857, -3715.1057976610423, -7593.9828269461195, -4363.932235709695, -3150.210160042067, -4462.726946202153, -3657.4830004552605, -10567.70361276908, -14351.295155441185, 0.014, -0.11, 0.988, 192.0, 0.0, 0.0, 0.0, 0.0, 0.0, 0.0, 0.0, 0.0, 0.0, 1.645920633354548E9, 0.0, 2022-02-27 11:10:33.354
134.0, -3295.6976647016604, -6158.620853259666, -1797.4825856068833, -11055.731601206257, -1334.935585848759, 171.12495554983087, -5175.524076881895, -2095.029007795931, -3886.7001398444345, -7687.480174002669, -4417.956402058173, -3218.0253527194686, -4521.914365519806, -3731.6907920468802, -10646.649974185226, -14482.00815701582, 0.014, -0.11, 0.988, 192.0, 0.0, 0.0, 0.0, 0.0, 0.0, 0.0, 0.0, 0.0, 0.0, 1.64592063336202E9, 0.0, 2022-02-27 11:10:33.362
136.0, -3172.5842562418293, -6033.33932558767, -1658.655900794971, -10926.58322174349, -1198.7911103714837, 311.02452409559777, -5042.866473539648, -1959.5103811634042, -3871.6797675704684, -7740.476160106202, -4478.641388254331, -3285.617027952317, -4588.388453529889, -3806.010342360776, -10697.097861420854, -14450.58160431166, 0.014, -0.11, 0.994, 192.0, 0.0, 56.0, 126.0, 72.0, 15.5, 8.0, 0.0, 0.0, 0.0, 1.645920633370028E9, 0.0, 2022-02-27 11:10:33.370
138.0, -3184.8330122033376, -6057.210988665937, -1683.466337140362, -10962.614233805447, -1230.5976427313856, 274.3676631888942, -5094.163727064577, -2024.5539575283478, -3721.9007279754555, -7569.0382801339965, -4325.420180013201, -3096.1189384602235, -4426.003030062083, -3630.660907108892, -10528.006914616457, -14375.546798175194, 0.014, -0.11, 0.994, 192.0, 0.0, 0.0, 0.0, 0.0, 0.0, 0.0, 0.0, 0.0, 0.0, 1.645920633377158E9, 0.0, 2022-02-27 11:10:33.377
140.0, -3274.418803980208, -6137.051419860294, -1770.1016986491322, -11036.062066085586, -1313.9249460607705, 202.90913616527752, -5157.463867362007, -2071.1126412287526, -3961.422021558526, -7805.922067871341, -4498.020350697083, -3329.6946680181827, -4615.232898620713, -3816.716827954868, -10750.406771946762, -14534.288887296783, 0.014, -0.11, 0.994, 192.0, 0.0, 0.0, 0.0, 0.0, 0.0, 0.0, 0.0, 0.0, 0.0, 1.645920633391657E9, 0.0, 2022-02-27 11:10:33.391
142.0, -3107.3842176656985, -5988.658188421511, -1606.598687958561, -10883.44435494475, -1142.7329352775737, 363.52877182111405, -5004.980266687902, -1934.7222965624687, -3706.0980446455533, -7591.010044933563, -4358.500761807056, -3140.151875037179, -4463.755126447097, -3676.7725559201904, -10569.000013947489, -14355.653745609969, 0.014, -0.11, 0.994, 192.0, 0.0, 0.0, 0.0, 0.0, 0.0, 0.0, 0.0, 0.0, 0.0, 1.645920633399727E9, 0.0, 2022-02-27 11:10:33.399
144.0, -3277.3468825038535, -6160.319585838269, -1780.919942965501, -11054.61401398349, -1319.5575856635078, 177.76342365305706, -5186.632893876183, -2103.5897259223134, -3862.0238139657754, -7688.553057736523, -4403.472471651134, -3210.87279449377, -4511.364342136901, -3730.9308327353997, -10638.022200825477, -14480.91292153751, 0.014, -0.11, 0.994, 192.0, 0.0, 0.0, 0.0, 0.0, 0.0, 0.0, 0.0, 0.0, 0.0, 1.645920633406702E9, 0.0, 2022-02-27 11:10:33.406
146.0, -3154.7028606775834, -6028.131369129583, -1653.8949792259907, -10925.957372898743, -1195.5724591699195, 316.7242189317011, -5060.837276081715, -1984.0525965753313, -3850.646776038024, -7735.558776326035, -4465.386803792334, -3281.9736936061017, -4583.359311027445, -3803.9763336153433, -10703.557515568438, -14455.543691580737, 0.014, -0.108, 0.994, 192.0, 0.0, 56.0, 126.0, 80.0, 15.5, 8.0, 0.0, 0.0, 0.0, 1.645920633414248E9, 0.0, 2022-02-27 11:10:33.414
148.0, -3171.623131230251, -6054.372317120114, -1675.0173777362559, -10963.731821028212, -1219.3100117814556, 281.9896080481539, -5086.742947905415, -2016.0826463797864, -3698.5208032752043, -7558.108277095352, -4316.658296186722, -3094.107281459246, -4422.314992226958, -3629.945651286322, -10528.521004738928, -14375.636205153014, 0.014, -0.108, 0.994, 192.0, 0.0, 0.0, 0.0, 0.0, 0.0, 0.0, 0.0, 0.0, 0.0, 1.645920633422373E9, 0.0, 2022-02-27 11:10:33.422
150.0, -3259.331376472876, -6129.317716278758, -1756.467134531395, -11034.363333506983, -1308.6275826248625, 197.76823494055688, -5137.30259386332, -2082.2661617119506, -3959.7232889799225, -7786.610160661956, -4498.310923375002, -3329.940537207191, -4616.6187067769415, -3828.0938658826194, -10739.141492741286, -14535.96526813093, 0.014, -0.108, 0.994, 192.0, 0.0, 0.0, 0.0, 0.0, 0.0, 0.0, 0.0, 0.0, 0.0, 1.645920633430335E9, 0.0, 2022-02-27 11:10:33.430
152.0, -3095.47073787102, -5978.42108946098, -1595.2440017752651, -10876.269444974596, -1138.396696853244, 368.42380385682634, -4990.2281153474, -1940.645508843125, -3692.6422944834585, -7590.473603066636, -4353.449267560157, -3142.2529390159775, -4463.442202024723, -3677.0631285981094, -10557.980603931022, -14354.89378629849, 0.014, -0.108, 0.994, 192.0, 0.0, 0.0, 0.0, 0.0, 0.0, 0.0, 0.0, 0.0, 0.0, 1.645920633436844E9, 0.0, 2022-02-27 11:10:33.436
154.0, -3275.625798180795, -6154.977518913451, -1771.5769137831826, -11053.541130249636, -1321.748056620128, 182.34553126639503, -5175.904056537635, -2098.448824697593, -3856.7040987854125, -7684.038005356551, -4402.533698384011, -3201.5074135669965, -4513.755978793619, -3724.4935303322713, -10625.706389630603, -14475.637909846058, 0.014, -0.107, 0.994, 192.0, 0.0, 56.0, 126.0, 88.0, 15.5, 8.0, 0.0, 0.0, 0.0, 1.645920633443761E9, 0.0, 2022-02-27 11:10:33.443
156.0, -3153.875846132737, -6022.498729526846, -1647.6141390340495, -10928.147843855364, -1189.5374881669866, 321.1498643338519, -5050.041383509802, -1963.8242678432784, -3855.206531906907, -7745.751171797654, -4469.924207916762, -3286.6675599417163, -4580.1630115703365, -3788.6430369190025, -10693.767451497013, -14453.66614504649, 0.014, -0.107, 0.994, 192.0, 0.0, 0.0, 0.0, 0.0, 0.0, 0.0, 0.0, 0.0, 0.0, 1.645920633452074E9, 0.0, 2022-02-27 11:10:33.452
158.0, -3159.2402648020106, -6042.48118906989, -1667.1942671768984, -10949.896091210378, -1216.5383954689976, 286.0576255390198, -5082.898447859103, -1996.167242070108, -3689.8036229376344, -7552.006250859053, -4319.564022965911, -3092.2297349250002, -4420.392742203801, -3617.3616191579845, -10518.37331275622, -14363.096876513586, 0.014, -0.107, 0.994, 192.0, 0.0, 0.0, 0.0, 0.0, 0.0, 0.0, 0.0, 0.0, 0.0, 1.645920633459901E9, 0.0, 2022-02-27 11:10:33.459
160.0, -3255.196303748644, -6126.479044732934, -1762.077422389677, -11034.542147462626, -1318.0153152960916, 197.92469715174403, -5148.523169579884, -2082.4673274120482, -3951.900178420565, -7778.585884402501, -4497.1039291744155, -3323.3020691039646, -4608.773244473129, -3816.6944762104126, -10735.162882228242, -14534.557108230247, 0.014, -0.107, 0.994, 192.0, 0.0, 0.0, 0.0, 0.0, 0.0, 0.0, 0.0, 0.0, 0.0, 1.645920633466537E9, 0.0, 2022-02-27 11:10:33.466
162.0, -3088.429938367598, -5975.068327792684, -1600.0719785776114, -10887.378261968883, -1143.649356800241, 357.40439384035994, -4998.2747433513105, -1943.5288838778597, -3699.9960184092547, -7595.413338591259, -4365.742727010575, -3151.7077269205724, -4468.761917205085, -3662.6686051688916, -10564.66377552316, -14363.70037361388, 0.014, -0.107, 0.994, 192.0, 0.0, 0.0, 0.0, 0.0, 0.0, 0.0, 0.0, 0.0, 0.0, 1.645920633474536E9, 0.0, 2022-02-27 11:10:33.474
164.0, -3258.5267136724847, -6146.7744286983525, -1771.9568934389226, -11054.457551772304, -1329.3029462460215, 178.59043819790344, -5186.498783409451, -2109.3117725028724, -3850.043278937731, -7678.584179709456, -4403.293657695492, -3202.937925212136, -4516.192318939247, -3711.5518702926483, -10624.901726830212, -14484.355090183628, 0.016, -0.10450000000000001, 0.993, 192.0, 0.0, 72.0, 126.0, 104.0, 15.5, 0.0, 0.0, 0.0, 0.0, 1.645920633482564E9, 0.0, 2022-02-27 11:10:33.482
166.0, -3146.365659995754, -6025.225642350393, -1654.1855519039098, -10935.63567824789, -1211.5986599443747, 305.7048089152347, -5080.797383880304, -2001.866936906211, -3859.833343009155, -7743.761866541132, -4474.349853318912, -3286.1087663303338, -4592.188250087292, -3785.983179328821, -10702.015245201022, -14471.8157615442, 0.016, -0.10450000000000001, 0.993, 192.0, 0.0, 0.0, 0.0, 0.0, 0.0, 0.0, 0.0, 0.0, 0.0, 1.645920633489179E9, 0.0, 2022-02-27 11:10:33.489
168.0, -3159.1508578241896, -6046.124523416105, -1670.5917323341052, -10962.211902405252, -1227.5578054854639, 276.17815448977404, -5086.38531999413, -2004.839718918767, -3689.893029915456, -7545.9712798561195, -4323.788502667964, -3099.6058105952516, -4433.043829565505, -3620.803787804102, -10522.821309902825, -14375.882074342022, 0.016, -0.10450000000000001, 0.993, 192.0, 0.0, 0.0, 0.0, 0.0, 0.0, 0.0, 0.0, 0.0, 0.0, 1.645920633497236E9, 0.0, 2022-02-27 11:10:33.497
170.0, -3255.8221525933927, -6134.123341336649, -1764.8043352132245, -11045.51685399018, -1321.6810013867619, 191.8226709154452, -5144.946890467035, -2078.3099029433615, -3959.455068046459, -7804.871535881942, -4500.993132709638, -3336.3554878658642, -4622.452512079777, -3822.461226279882, -10735.296992694974, -14540.726189699912, 0.016, -0.10450000000000001, 0.993, 192.0, 0.0, 0.0, 0.0, 0.0, 0.0, 0.0, 0.0, 0.0, 0.0, 1.645920633512206E9, 0.0, 2022-02-27 11:10:33.512
172.0, -3081.858525497738, -5975.023624303773, -1597.5909349430724, -10883.220837500196, -1150.5783975813863, 358.2984636185722, -5000.6216765191175, -1936.9798227524548, -3701.6500474989475, -7608.176184675239, -4367.508514822544, -3156.62511070074, -4479.2001818657145, -3674.246808796741, -10563.680298767125, -14365.220292236841, 0.016, -0.10450000000000001, 0.993, 192.0, 0.0, 0.0, 0.0, 0.0, 0.0, 0.0, 0.0, 0.0, 0.0, 1.645920633518827E9, 0.0, 2022-02-27 11:10:33.518
174.0, -3240.265338452499, -6133.989230869917, -1762.524457278783, -11045.606260968001, -1326.9113095893038, 187.0170458575542, -5205.542469685372, -2104.662609656168, -3841.2143398778844, -7670.381089494359, -4392.743634312586, -3198.422872832164, -4507.095158945937, -3705.539251034171, -10624.745264619025, -14477.940139524955, 0.014, -0.10225000000000001, 0.9924999999999999, 192.0, 0.0, 48.0, 126.0, 112.0, 15.5, 0.0, 0.0, 0.0, 0.0, 1.645920633526964E9, 0.0, 2022-02-27 11:10:33.526
176.0, -3142.6329186717176, -6024.420979550002, -1656.1972089048875, -10930.919460167821, -1216.0466570909807, 311.0692275845084, -5068.928607574536, -1988.8582216332225, -3865.041299467242, -7743.851273518953, -4467.130239859848, -3292.1437373332665, -4591.182421586803, -3792.755757898779, -10712.252344161552, -14468.395944642538, 0.014, -0.10225000000000001, 0.9924999999999999, 192.0, 0.0, 0.0, 0.0, 0.0, 0.0, 0.0, 0.0, 0.0, 0.0, 1.645920633534911E9, 0.0, 2022-02-27 11:10:33.534
178.0, -3151.0818780758236, -6045.38691584908, -1663.9309124864237, -10944.151692885363, -1219.712343181651, 300.0051140791314, -5063.318319716253, -1980.2975035068398, -3690.3177130601066, -7546.172445556217, -4316.0771508308835, -3094.554316348352, -4436.106018555882, -3617.1381017134313, -10526.241126804487, -14358.313603200151, 0.014, -0.10225000000000001, 0.9924999999999999, 192.0, 0.0, 0.0, 0.0, 0.0, 0.0, 0.0, 0.0, 0.0, 0.0, 1.645920633542031E9, 0.0, 2022-02-27 11:10:33.542
180.0, -3264.36051897532, -6150.954204911495, -1758.3223293211854, -11032.642249183924, -1313.030876282558, 222.73513349713488, -5143.292861377342, -2083.5849146348137, -3971.4356030745034, -7795.327340999525, -4496.36632160739, -3328.1747493952216, -4621.357276601467, -3813.94521164241, -10737.353353184862, -14529.460910494437, 0.014, -0.10225000000000001, 0.9924999999999999, 192.0, 0.0, 0.0, 0.0, 0.0, 0.0, 0.0, 0.0, 0.0, 0.0, 1.645920633549393E9, 0.0, 2022-02-27 11:10:33.549
182.0, -3093.593191336774, -5989.127575055072, -1589.0749203056002, -10871.508523405615, -1143.3587841223223, 375.3528446379715, -5006.969571944424, -1918.651392299103, -3713.205899382341, -7602.834117750421, -4371.889456735785, -3165.5434567384073, -4482.016501667083, -3684.595666479548, -10573.939749472112, -14356.480760154816, 0.014, -0.10225000000000001, 0.9924999999999999, 192.0, 0.0, 0.0, 0.0, 0.0, 0.0, 0.0, 0.0, 0.0, 0.0, 1.645920633557552E9, 0.0, 2022-02-27 11:10:33.557
184.0, -3262.2147515076103, -6155.6927747360205, -1756.4447827869396, -11036.151473063406, -1307.6217541243739, 217.92950843924385, -5158.916730751602, -2062.6860335691017, -3842.264871867284, -7668.168266793284, -4397.035169248005, -3199.6745705216613, -4509.732664791663, -3712.043608670665, -10619.91728781668, -14460.8634067611, 0.012, -0.10212500000000001, 0.98925, 192.0, 0.0, 40.0, 126.0, 104.0, 15.0, 104.0, 0.0, 0.0, 0.0, 1.645920633564767E9, 0.0, 2022-02-27 11:10:33.564
186.0, -3162.1236398367455, -6046.973889705407, -1647.9494152008792, -10924.996247887166, -1191.2585724900453, 331.4093150388378, -5040.720706071938, -1964.3160062212953, -3868.952854746921, -7753.887206779386, -4477.344987075923, -3299.2515920700544, -4588.9695988857275, -3798.4554527348823, -10706.731463281092, -14460.461075360905, 0.012, -0.10212500000000001, 0.98925, 192.0, 0.0, 0.0, 0.0, 0.0, 0.0, 0.0, 0.0, 0.0, 0.0, 1.645920633571674E9, 0.0, 2022-02-27 11:10:33.571
188.0, -3167.041023616913, -6061.301357901259, -1655.3031391266752, -10940.284841094595, -1192.0632352904363, 320.4122567668267, -5061.418421437553, -1970.619198157692, -3681.2205530667966, -7550.039297346985, -4323.1850055676705, -3103.2938484303772, -4418.291678225002, -3625.631764606448, -10517.278077277908, -14352.457446152861, 0.012, -0.10212500000000001, 0.98925, 192.0, 0.0, 0.0, 0.0, 0.0, 0.0, 0.0, 0.0, 0.0, 0.0, 1.64592063357907E9, 0.0, 2022-02-27 11:10:33.579
190.0, -3294.8259466679033, -6175.69758602352, -1761.6527392450262, -11041.582946966046, -1304.6266203673626, 219.98586892913212, -5149.864274247203, -2067.178734204618, -3971.1226786521293, -7789.359425229958, -4504.301190889024, -3339.395325111786, -4611.5672125300425, -3824.2493658363064, -10735.989896773088, -14533.864204152133, 0.012, -0.10212500000000001, 0.98925, 192.0, 0.0, 0.0, 0.0, 0.0, 0.0, 0.0, 0.0, 0.0, 0.0, 1.645920633587258E9, 0.0, 2022-02-27 11:10:33.587
192.0, -3141.71649714905, -6031.260613353326, -1601.5248419672064, -10885.500715434637, -1133.0993334173363, 388.2498011886837, -4985.780118200793, -1922.1606161785862, -3733.3448211365726, -7636.428789666747, -4397.035169248005, -3185.235343603533, -4490.197240137725, -3694.8998206734445, -10576.24197915101, -14362.381620691016, 0.012, -0.10212500000000001, 0.98925, 192.0, 0.0, 0.0, 0.0, 0.0, 0.0, 0.0, 0.0, 0.0, 0.0, 1.645920633595122E9, 0.0, 2022-02-27 11:10:33.595
194.0, -3287.5392779754734, -6176.8822284796515, -1766.6148265141044, -11041.046505099119, -1304.2019372227119, 235.69914528121296, -5157.530922595372, -2082.9367140456097, -3854.3795173620606, -7681.489906488647, -4415.743579357098, -3215.58901257384, -4513.063074715505, -3719.3526291075505, -10615.893973814724, -14465.981956241365, 0.011, -0.1040625, 0.989625, 192.0, 0.0, 40.0, 126.0, 88.0, 15.0, 120.0, 0.0, 0.0, 0.0, 1.645920633601782E9, 0.0, 2022-02-27 11:10:33.601
196.0, -3190.845631461815, -6074.48888712989, -1664.9590927313677, -10928.125492110908, -1192.2867527349892, 340.8417511989774, -5043.112342728656, -1965.4112416996054, -3890.075253257186, -7764.191360973283, -4496.321618118479, -3312.841452698881, -4605.934572927305, -3810.681856951935, -10710.397149371762, -14462.71860155089, 0.011, -0.1040625, 0.989625, 192.0, 0.0, 0.0, 0.0, 0.0, 0.0, 0.0, 0.0, 0.0, 0.0, 1.645920633609778E9, 0.0, 2022-02-27 11:10:33.609
198.0, -3179.1109656227786, -6071.761974306342, -1661.762793274259, -10935.680381736802, -1188.4422526886765, 333.06334412853056, -5065.464087183963, -1988.031207088376, -3689.758919448724, -7566.177256843717, -4336.95368015214, -3111.51929038993, -4437.268309267558, -3635.086552511043, -10518.261554033943, -14349.93169902941, 0.011, -0.1040625, 0.989625, 192.0, 0.0, 0.0, 0.0, 0.0, 0.0, 0.0, 0.0, 0.0, 0.0, 1.645920633617812E9, 0.0, 2022-02-27 11:10:33.617
200.0, -3291.0932053438673, -6178.782126758352, -1762.0997741341323, -11026.696685158811, -1298.7704633200722, 239.94597672772133, -5166.516323866406, -2076.991150020498, -3967.322882094727, -7797.987198589707, -4506.804586268018, -3336.3331361214086, -4613.847090464484, -3825.881043181544, -10726.31159142394, -14531.629029706603, 0.011, -0.1040625, 0.989625, 192.0, 0.0, 0.0, 0.0, 0.0, 0.0, 0.0, 0.0, 0.0, 0.0, 1.645920633624351E9, 0.0, 2022-02-27 11:10:33.624
202.0, -3123.6786393736174, -6022.074046382195, -1597.121548309511, -10865.652366358325, -1123.5551385349202, 397.01168501516406, -4985.131917611589, -1926.1168749471756, -3719.7102570188354, -7620.290830170015, -4387.647436576776, -3174.4394510316197, -4487.22445812517, -3696.2185735963076, -10570.13995291471, -14357.330126444118, 0.011, -0.1040625, 0.989625, 192.0, 0.0, 0.0, 0.0, 0.0, 0.0, 0.0, 0.0, 0.0, 0.0, 1.64592063363945E9, 0.0, 2022-02-27 11:10:33.639
204.0, -3277.525696459496, -6172.613045288688, -1762.1891811119535, -11027.434292725837, -1290.7238353161617, 229.59711904491414, -5143.6728410330825, -2093.218516495051, -3834.7993892192117, -7662.177999279261, -4405.39472167429, -3203.4743670790635, -4505.418778111789, -3716.9386407063776, -10602.371168419262, -14454.135531680053, 0.0115, -0.10503124999999999, 0.9898125, 192.0, 0.0, 48.0, 126.0, 88.0, 15.0, 120.0, 0.0, 0.0, 0.0, 1.645920633647388E9, 0.0, 2022-02-27 11:10:33.647
206.0, -3193.192564629622, -6079.450974398968, -1670.4576218673733, -10927.678457221802, -1198.0982062933692, 335.4549807852484, -5047.627395108628, -1985.2819425203734, -3881.4474798974375, -7765.063079007039, -4497.305094874513, -3323.0114964260456, -4599.00553214616, -3830.0608193946864, -10702.149355667754, -14466.496046363836, 0.0115, -0.10503124999999999, 0.9898125, 192.0, 0.0, 0.0, 0.0, 0.0, 0.0, 0.0, 0.0, 0.0, 0.0, 1.645920633653984E9, 0.0, 2022-02-27 11:10:33.653
208.0, -3184.743605225516, -6082.066128500239, -1674.5256393582392, -10927.49964326616, -1194.298409735967, 338.09248663097463, -5058.020956280346, -1973.0778900477756, -3687.568448492104, -7572.59220750239, -4346.140247123271, -3115.14027299169, -4440.1069808133825, -3651.828009108068, -10511.667789419627, -14343.226175692818, 0.0115, -0.10503124999999999, 0.9898125, 192.0, 0.0, 0.0, 0.0, 0.0, 0.0, 0.0, 0.0, 0.0, 0.0, 1.645920633662109E9, 0.0, 2022-02-27 11:10:33.662
210.0, -3290.4003012657527, -6179.251513391914, -1782.7304342663806, -11024.193289779818, -1305.9900767791364, 238.20254066020738, -5151.965338226001, -2068.8774667832217, -3969.133373395607, -7801.339960258003, -4512.012542726105, -3330.588737796395, -4619.993820189693, -3826.1939676039183, -10722.780015800003, -14517.838003377678, 0.0115, -0.10503124999999999, 0.9898125, 192.0, 0.0, 0.0, 0.0, 0.0, 0.0, 0.0, 0.0, 0.0, 0.0, 1.645920633670031E9, 0.0, 2022-02-27 11:10:33.670
212.0, -3116.727246848017, -6006.785453174764, -1614.2206328178208, -10867.775782081579, -1130.7300485050737, 412.07676077804103, -4991.502164781352, -1925.848654013712, -3719.9337744633885, -7623.464777882669, -4391.9166197677405, -3175.8923144212145, -4491.404234338312, -3693.469309028305, -10568.95531045858, -14352.390390919494, 0.0115, -0.10503124999999999, 0.9898125, 192.0, 0.0, 0.0, 0.0, 0.0, 0.0, 0.0, 0.0, 0.0, 0.0, 1.64592063367706E9, 0.0, 2022-02-27 11:10:33.677
214.0, -3267.6238736657947, -6160.006661415895, -1767.6206550145932, -11020.684065900334, -1292.2661056835777, 238.6272238048582, -5152.434724859563, -2076.0076732644648, -3823.399999547005, -7659.048755055518, -4397.4375006482005, -3190.3762448282537, -4499.137937919848, -3713.1835476378856, -10592.178772947642, -14445.708924020402, 0.01375, -0.104515625, 0.98990625, 192.0, 0.0, 64.0, 126.0, 96.0, 15.0, 120.0, 0.0, 0.0, 0.0, 1.64592063368468E9, 0.0, 2022-02-27 11:10:33.684
216.0, -3188.7892709719267, -6076.433488897502, -1675.1291364585325, -10927.365532799427, -1192.1302905238022, 339.79121920957795, -5052.09774399969, -1975.4695267044935, -3887.5718578781916, -7762.850256305964, -4495.002865195616, -3311.1427201202778, -4593.775223943619, -3812.4476447639045, -10695.01914918651, -14464.059706218208, 0.01375, -0.104515625, 0.98990625, 192.0, 0.0, 0.0, 0.0, 0.0, 0.0, 0.0, 0.0, 0.0, 0.0, 1.645920633691843E9, 0.0, 2022-02-27 11:10:33.691
218.0, -3164.0235381154466, -6062.038965468284, -1666.635473565516, -10915.027369860098, -1176.1934967271682, 346.00500416815333, -5046.800380563782, -1990.8251751452894, -3672.9951111072437, -7561.505742252558, -4335.701982462643, -3103.629124597207, -4422.292640482502, -3638.439314179339, -10499.195516013566, -14343.516748370737, 0.01375, -0.104515625, 0.98990625, 192.0, 0.0, 0.0, 0.0, 0.0, 0.0, 0.0, 0.0, 0.0, 0.0, 1.645920633699641E9, 0.0, 2022-02-27 11:10:33.699
220.0, -3279.492649971563, -6168.254455119903, -1783.1551174110316, -11019.208850766285, -1313.9249460607705, 231.7428865126236, -5143.650489288627, -2082.4673274120482, -3952.928358665509, -7785.8725530949305, -4497.260391385602, -3315.4342550556967, -4605.2863723381015, -3826.462188537382, -10713.83931801788, -14526.063445337231, 0.01375, -0.104515625, 0.98990625, 192.0, 0.0, 0.0, 0.0, 0.0, 0.0, 0.0, 0.0, 0.0, 0.0, 1.645920633706367E9, 0.0, 2022-02-27 11:10:33.706
222.0, -3113.8885753021927, -6007.232488063871, -1614.9582403848458, -10858.075124987976, -1130.9982694385374, 414.624859645946, -4989.177583358, -1919.4337033550387, -3720.8054924971457, -7619.039132480519, -4387.558029598955, -3165.4093462716755, -4486.375091835867, -3705.11456788952, -10573.023327949444, -14356.480760154816, 0.01375, -0.104515625, 0.98990625, 192.0, 0.0, 0.0, 0.0, 0.0, 0.0, 0.0, 0.0, 0.0, 0.0, 1.645920633714702E9, 0.0, 2022-02-27 11:10:33.714
224.0, -3256.8726845827923, -6153.681117735043, -1768.8723527040904, -11012.302161729594, -1296.9599720191923, 246.60679657540283, -5154.111105693711, -2085.2389437245065, -3810.4136360184716, -7650.823313095965, -4385.121689453326, -3178.194544100111, -4488.36439709239, -3710.054303414143, -10592.089365969821, -14445.977144953866, 0.012, -0.108, 0.992, 192.0, 0.0, 48.0, 126.0, 80.0, 15.5, 0.0, 0.0, 0.0, 0.0, 1.645920633722253E9, 0.0, 2022-02-27 11:10:33.722
226.0, -3179.245076089511, -6068.655081827054, -1689.434252909929, -10923.185756586285, -1204.1555290407573, 351.48118155970354, -5034.931604258014, -1984.164355297608, -3884.0626339987084, -7760.078639993506, -4479.8483824549185, -3299.8327374258924, -4591.405939031356, -3810.1677668294633, -10697.366082354318, -14470.988746999354, 0.012, -0.108, 0.992, 192.0, 0.0, 0.0, 0.0, 0.0, 0.0, 0.0, 0.0, 0.0, 0.0, 1.645920633729367E9, 0.0, 2022-02-27 11:10:33.729
228.0, -3154.009956599469, -6050.237244395882, -1674.6150463360605, -10913.44039600377, -1185.0224357870145, 353.8281147275108, -5031.131807700612, -1987.2935995213509, -3670.8716953839894, -7545.926576367209, -4327.498892247545, -3095.9848279934918, -4417.688181124709, -3629.1633402303864, -10499.195516013566, -14344.567280360137, 0.012, -0.108, 0.992, 192.0, 0.0, 0.0, 0.0, 0.0, 0.0, 0.0, 0.0, 0.0, 0.0, 1.645920633736925E9, 0.0, 2022-02-27 11:10:33.736
230.0, -3270.6413591672613, -6162.21948411697, -1792.0287599597884, -11014.313818730572, -1298.6587045977956, 252.48530536714858, -5139.7389340089485, -2072.476097640526, -3943.294756805272, -7760.123343482416, -4485.950408691217, -3304.303086316954, -4589.282523308101, -3817.6332494775356, -10707.133794681287, -14520.788433645777, 0.012, -0.108, 0.992, 192.0, 0.0, 0.0, 0.0, 0.0, 0.0, 0.0, 0.0, 0.0, 0.0, 1.645920633744883E9, 0.0, 2022-02-27 11:10:33.744
232.0, -3105.238450197989, -5998.001217603829, -1620.9708596433236, -10855.348212164428, -1117.5425192764426, 412.0320572891304, -4970.98326337138, -1942.1207239771754, -3714.1670243939193, -7603.817594506454, -4386.194573187181, -3174.953541154092, -4476.249751597614, -3687.8143176811122, -10564.306147611875, -14355.206710720864, 0.012, -0.108, 0.992, 192.0, 0.0, 0.0, 0.0, 0.0, 0.0, 0.0, 0.0, 0.0, 0.0, 1.645920633759009E9, 0.0, 2022-02-27 11:10:33.759
234.0, -3249.809533334915, -6145.813303686775, -1773.8344399731684, -11009.150565761396, -1286.4993556141087, 253.66994782327984, -5134.888605462147, -2076.342949431294, -3797.606086445581, -7630.326763430448, -4379.265532406036, -3178.596875500307, -4473.992225407627, -3693.49166077276, -10574.498543083495, -14439.562194295193, 0.014, -0.106, 0.99, 192.0, 0.0, 56.0, 126.0, 88.0, 15.0, 120.0, 0.0, 0.0, 0.0, 1.645920633766699E9, 0.0, 2022-02-27 11:10:33.766
236.0, -3169.3432532958095, -6062.329538146203, -1693.4128634229737, -10916.25671580514, -1205.5413371969864, 353.4481350717706, -5044.5875578627065, -1984.0078930864208, -3879.167601962996, -7761.889131294386, -4475.333330074946, -3302.8055194384483, -4579.291293536579, -3805.362141771572, -10693.566285796916, -14466.049011474732, 0.014, -0.106, 0.99, 192.0, 0.0, 0.0, 0.0, 0.0, 0.0, 0.0, 0.0, 0.0, 0.0, 1.645920633774581E9, 0.0, 2022-02-27 11:10:33.774
238.0, -3142.4764564605307, -6044.001107692851, -1671.9998922347895, -10899.224686530195, -1179.1886304841794, 368.75908002365594, -5047.962671275458, -1964.0254335433763, -3645.949500316322, -7537.477616963103, -4308.969296094096, -3087.424109867109, -4400.969076272139, -3622.055485493599, -10491.21594324302, -14327.937582485389, 0.014, -0.106, 0.99, 192.0, 0.0, 0.0, 0.0, 0.0, 0.0, 0.0, 0.0, 0.0, 0.0, 1.645920633782611E9, 0.0, 2022-02-27 11:10:33.782
240.0, -3270.2390277670656, -6160.431344560546, -1793.7721960273025, -11009.46349018377, -1304.291344200533, 258.38616590334965, -5142.801122999325, -2062.618978335736, -3936.1198468351186, -7756.77058181412, -4472.718175973675, -3301.4420630266745, -4570.730575410196, -3795.728539911335, -10702.015245201022, -14505.432785204983, 0.014, -0.106, 0.99, 192.0, 0.0, 0.0, 0.0, 0.0, 0.0, 0.0, 0.0, 0.0, 0.0, 1.645920633789556E9, 0.0, 2022-02-27 11:10:33.789
242.0, -3172.5172010084634, -6040.6483460245545, -1661.6733862964377, -10891.379224226383, -1186.5200026655202, 370.6366265579017, -5008.377731845108, -1944.713526333991, -3683.343968790051, -7607.103300941384, -4389.01089298855, -3170.7067097075833, -4474.863943441384, -3690.6753409713915, -10565.0437551789, -14336.297134911674, 0.014, -0.106, 0.99, 192.0, 0.0, 0.0, 0.0, 0.0, 0.0, 0.0, 0.0, 0.0, 0.0, 1.645920633797228E9, 0.0, 2022-02-27 11:10:33.797
244.0, -3205.620134546773, -6112.866832359652, -1740.016250612289, -10951.773637744624, -1222.0816280939137, 298.3957884783493, -5113.9673726519795, -2015.25563183494, -3457.25607362462, -7497.915029277209, -4385.076985964416, -3162.7718404259494, -4484.050510412516, -3689.3789397929836, -10527.738693682992, -14248.767703624691, 0.016, -0.106, 0.988, 192.0, 0.0, 64.0, 126.0, 88.0, 15.0, 112.0, 0.0, 0.0, 0.0, 1.645920633805183E9, 0.0, 2022-02-27 11:10:33.805
246.0, -3167.1527823391893, -6033.786360476775, -1681.5217353727503, -10910.601724457947, -1182.4743369191096, 359.304292119061, -5050.220197465444, -2000.9505153835435, -4623.838320236006, -7959.679717979398, -4445.292585527013, -3332.913319219747, -4507.050455457027, -3771.275731477229, -10808.051920896998, -14791.244541554994, 0.016, -0.106, 0.988, 192.0, 0.0, 0.0, 0.0, 0.0, 0.0, 0.0, 0.0, 0.0, 0.0, 1.645920633812297E9, 0.0, 2022-02-27 11:10:33.812
248.0, -3300.8832694152916, -6155.223388102459, -1765.0055009133223, -10986.88822828391, -1294.8142045514828, 244.75160178561234, -5073.086032043223, -1986.0866053207644, -2879.4187759660217, -7396.214592005563, -4376.5386195824885, -3035.992745875448, -4488.342045347935, -3664.34498600304, -10361.173494002043, -14041.499977290629, 0.016, -0.106, 0.988, 192.0, 0.0, 0.0, 0.0, 0.0, 0.0, 0.0, 0.0, 0.0, 0.0, 1.645920633818894E9, 0.0, 2022-02-27 11:10:33.818
250.0, -3035.299841797333, -5972.922560324974, -1645.46837156634, -10840.037267212543, -1074.2471902665127, 414.82602534604376, -5080.015072824368, -1996.4578147480267, -4354.589206527377, -7737.369267626914, -4397.169279714737, -3336.176673910222, -4480.854210955406, -3738.7092398058467, -10778.36880426035, -14604.719234075455, 0.016, -0.106, 0.988, 192.0, 0.0, 0.0, 0.0, 0.0, 0.0, 0.0, 0.0, 0.0, 0.0, 1.645920633826784E9, 0.0, 2022-02-27 11:10:33.826
252.0, -3375.2028197291875, -6172.970673199973, -1789.59241981416, -11033.938650362332, -1363.6352257293734, 214.62145025985842, -5061.284310970821, -2032.8464547212668, -3946.803980684755, -7852.100771916005, -4416.34707645739, -3146.745639651494, -4490.264295371091, -3732.830731014101, -10584.534476343928, -14582.92628323153, 0.016, -0.106, 0.988, 192.0, 0.0, 0.0, 0.0, 0.0, 0.0, 0.0, 0.0, 0.0, 0.0, 1.645920633836404E9, 0.0, 2022-02-27 11:10:33.836
254.0, -3101.684522829595, -6027.751389473843, -1688.0707964981552, -10869.139238493353, -1122.6163652677972, 367.28386488960564, -5062.938340060513, -1945.4287821565608, -2948.2174453994567, -7270.798953866834, -4378.215000416637, -3148.042040829902, -4494.980513451161, -3662.467439468794, -10449.351125878231, -13963.268871697053, 0.014, -0.11, 0.992, 192.0, 0.0, 56.0, 126.0, 72.0, 15.5, 0.0, 0.0, 0.0, 0.0, 1.645920633842575E9, 0.0, 2022-02-27 11:10:33.842
0.0, -3208.4141026036864, -6052.025383952307, -1715.4516834559065, -10942.92234694032, -1227.9154333967488, 317.0147916096201, -5078.0481193123005, -2053.4994665979702, -5055.76343009036, -8107.156527895514, -4430.182806275226, -3346.4361246152075, -4481.368301077879, -3776.394280957494, -10880.24805548764, -15009.755195350075, 0.014, -0.11, 0.992, 192.0, 0.0, 0.0, 0.0, 0.0, 0.0, 0.0, 0.0, 0.0, 0.0, 1.64592063384936E9, 0.0, 2022-02-27 11:10:33.849
2.0, -3336.42254309923, -6189.823888519274, -1776.337835352163, -11000.232219723728, -1317.031838540058, 223.96447944217678, -5056.0316510238235, -1949.0497647583206, -2627.067581065605, -7351.287585650395, -4394.397663402279, -3040.9995366334365, -4515.924098005784, -3684.282742057174, -10322.504976094364, -13928.936592213702, 0.014, -0.11, 0.992, 192.0, 0.0, 0.0, 0.0, 0.0, 0.0, 0.0, 0.0, 0.0, 0.0, 1.645920633857532E9, 0.0, 2022-02-27 11:10:33.857
4.0, -3042.8323796787718, -5984.4113569750025, -1637.0417639066893, -10843.43473236975, -1063.1160215277698, 406.0641415195634, -5078.741023390416, -2004.2809253073842, -4442.029230836539, -7772.595616888478, -4385.76989004253, -3361.0094620000677, -4466.482039270644, -3741.927891007411, -10789.499972999094, -14624.433472685037, 0.014, -0.11, 0.992, 192.0, 0.0, 0.0, 0.0, 0.0, 0.0, 0.0, 0.0, 0.0, 0.0, 1.645920633864592E9, 0.0, 2022-02-27 11:10:33.864
6.0, -3406.584668944439, -6200.306856668813, -1791.984056470878, -11048.869615658477, -1368.709071720728, 203.892612921311, -5058.0880115137115, -2018.4966347809595, -3966.294701849783, -7890.523420634678, -4418.537547414011, -3167.108078850279, -4500.32258037598, -3756.9929667702877, -10599.24192419552, -14599.153649706084, 0.014, -0.11, 0.992, 192.0, 0.0, 0.0, 0.0, 0.0, 0.0, 0.0, 0.0, 0.0, 0.0, 1.645920633872091E9, 0.0, 2022-02-27 11:10:33.872
8.0, -3116.973116037025, -6053.545302575267, -1676.2243719368425, -10868.20046522623, -1111.6640104846967, 358.6337397854018, -5064.949997061491, -1945.741706578935, -2905.637372212097, -7276.7221661474905, -4367.463811333634, -3161.0954595918015, -4491.113661660393, -3671.855172140023, -10441.125683918677, -13942.213528420154, 0.012, -0.10400000000000001, 0.992, 192.0, 0.0, 48.0, 126.0, 96.0, 15.5, 0.0, 0.0, 0.0, 0.0, 1.645920633887165E9, 0.0, 2022-02-27 11:10:33.887
10.0, -3218.338277141843, -6065.77170679232, -1706.7345031183368, -10945.582204530503, -1220.4723024931316, 325.77667543610045, -5076.796421622804, -2057.2992631553725, -5078.785726879326, -8140.214757944913, -4423.879614338829, -3365.390403913308, -4474.752184719108, -3778.428289702927, -10888.987587569665, -15016.527773920034, 0.012, -0.10400000000000001, 0.992, 192.0, 0.0, 0.0, 0.0, 0.0, 0.0, 0.0, 0.0, 0.0, 0.0, 1.645920633894313E9, 0.0, 2022-02-27 11:10:33.894
12.0, -3343.8433222583917, -6193.310760654302, -1772.4262800724841, -11005.663693626368, -1317.2330042401559, 223.07040966396448, -5055.361098690164, -1974.7989743708342, -2614.8635285930072, -7359.557731098858, -4388.675616821721, -3041.98301338947, -4500.4119873538, -3682.338140289562, -10320.180394671012, -13934.725694027627, 0.012, -0.10400000000000001, 0.992, 192.0, 0.0, 0.0, 0.0, 0.0, 0.0, 0.0, 0.0, 0.0, 0.0, 1.645920633901733E9, 0.0, 2022-02-27 11:10:33.901
14.0, -3045.2910715688554, -5983.070252307684, -1635.6336040060048, -10845.088761459441, -1078.3599112462891, 411.2497462331946, -5084.507773459884, -2016.5743847578033, -4411.92143105524, -7769.1981517312715, -4385.948703998173, -3363.199932956688, -4462.212856079681, -3740.586786340092, -10788.404737520783, -14613.123489990652, 0.012, -0.10400000000000001, 0.992, 192.0, 0.0, 0.0, 0.0, 0.0, 0.0, 0.0, 0.0, 0.0, 0.0, 1.6459206339097E9, 0.0, 2022-02-27 11:10:33.909
16.0, -3411.9267358692573, -6199.613952590698, -1793.9733617274, -11055.418676783882, -1384.2658858616217, 199.62342973034737, -5060.837276081715, -2039.350812357761, -4001.096367966696, -7906.840194087053, -4421.487977682112, -3181.3684918127647, -4493.88527797285, -3732.182530424897, -10606.48388939904, -14618.08557725973, 0.012, -0.10400000000000001, 0.992, 192.0, 0.0, 0.0, 0.0, 0.0, 0.0, 0.0, 0.0, 0.0, 0.0, 1.645920633917839E9, 0.0, 2022-02-27 11:10:33.917
18.0, -3124.840930085293, -6047.175055405504, -1682.728729573337, -10873.520180406593, -1136.2285776410793, 351.86116121544376, -5069.777973863837, -1963.5336951653596, -2873.830839852195, -7268.049689298831, -4367.709680522643, -3157.3180147788544, -4492.052434927516, -3670.8493436395343, -10434.39780883763, -13937.005571962069, 0.016, -0.10400000000000001, 0.99, 192.0, 0.0, 64.0, 126.0, 96.0, 15.0, 120.0, 0.0, 0.0, 0.0, 1.645920633924368E9, 0.0, 2022-02-27 11:10:33.924
20.0, -3225.557890600907, -6066.285796914792, -1707.6732763854595, -10948.644393520879, -1226.2614043070562, 309.8398816394665, -5079.612741424173, -2065.5023533704702, -5089.849840384703, -8153.111714495625, -4420.280983481524, -3373.7276045951376, -4480.764803977586, -3784.3738537280387, -10891.088651548464, -15025.736692635619, 0.016, -0.10400000000000001, 0.99, 192.0, 0.0, 0.0, 0.0, 0.0, 0.0, 0.0, 0.0, 0.0, 0.0, 1.645920633932324E9, 0.0, 2022-02-27 11:10:33.932
22.0, -3355.801505541981, -6193.958961243506, -1781.8587162326237, -11009.821118095055, -1312.6285448823626, 206.26189783357358, -5048.968499775947, -1982.9126576081107, -2621.390237973957, -7377.12620224073, -4383.311198152447, -3046.118086113702, -4510.649086314331, -3691.3905967939613, -10323.019066216835, -13945.834511021914, 0.016, -0.10400000000000001, 0.99, 192.0, 0.0, 0.0, 0.0, 0.0, 0.0, 0.0, 0.0, 0.0, 0.0, 1.645920633939407E9, 0.0, 2022-02-27 11:10:33.939
24.0, -3048.7108884705176, -5978.912827838997, -1642.0709064091334, -10841.892462002334, -1076.7952891344178, 396.58700187051323, -5089.514564217873, -2031.997088431965, -4381.634817318299, -7760.235102204693, -4386.552201098466, -3363.9822440126236, -4470.594760250421, -3741.8161322851342, -10781.56510371746, -14596.538495604813, 0.016, -0.10400000000000001, 0.99, 192.0, 0.0, 0.0, 0.0, 0.0, 0.0, 0.0, 0.0, 0.0, 0.0, 1.64592063394646E9, 0.0, 2022-02-27 11:10:33.946
26.0, -3409.736264912637, -6189.533315841355, -1796.4097018730286, -11049.987202881242, -1387.6409992743731, 180.82561264343414, -5067.386337207119, -2060.339100401294, -4039.5637201742793, -7917.3008104921355, -4420.5045009260775, -3177.658102233184, -4499.227344897669, -3752.656728345958, -10617.458595926595, -14641.979592082453, 0.016, -0.10400000000000001, 0.99, 192.0, 0.0, 0.0, 0.0, 0.0, 0.0, 0.0, 0.0, 0.0, 0.0, 1.645920633954156E9, 0.0, 2022-02-27 11:10:33.954
28.0, -3118.6047933822624, -6043.487017570379, -1681.0076452502783, -10868.222816970685, -1112.8039494519173, 350.9223879483209, -5065.911122073069, -1970.0157010573985, -2836.70459231193, -7252.224654224474, -4358.590168784877, -3137.536720935908, -4490.621923282376, -3673.0845180850647, -10428.139320390144, -13926.56730730144, 0.02, -0.114, 0.984, 192.0, 0.0, 80.0, 126.0, 56.0, 15.0, 96.0, 0.0, 0.0, 0.0, 1.645920633962157E9, 0.0, 2022-02-27 11:10:33.962
30.0, -3198.266410620977, -6043.665831526021, -1696.2291832243425, -10940.240137605684, -1213.9679448566371, 312.72325667420114, -5075.075337299745, -2076.9464465315878, -5084.105442059689, -8136.437313131966, -4410.423864176734, -3363.1105259788665, -4478.775498721064, -3790.9899700868095, -10900.811660386522, -15021.668675144754, 0.02, -0.114, 0.984, 192.0, 0.0, 0.0, 0.0, 0.0, 0.0, 0.0, 0.0, 0.0, 0.0, 1.645920633970223E9, 0.0, 2022-02-27 11:10:33.970
32.0, -3338.61301405585, -6175.675234279065, -1775.5108208073166, -11010.55872566208, -1331.73928639165, 211.17928161374113, -5055.897540557092, -1993.1721083130967, -2622.3737147299903, -7369.660719592657, -4373.7222997811205, -3031.2541760509225, -4501.909554232306, -3678.5606954766154, -10325.187185429, -13955.401057648785, 0.02, -0.114, 0.984, 192.0, 0.0, 0.0, 0.0, 0.0, 0.0, 0.0, 0.0, 0.0, 0.0, 1.645920633976632E9, 0.0, 2022-02-27 11:10:33.976
34.0, -3025.5768329592747, -5953.051859504207, -1632.1690836154323, -10836.773912522069, -1070.1344692867362, 404.54422289660255, -5084.1501455485995, -2035.5286640559036, -4324.459055001624, -7729.970840212208, -4375.242218404081, -3345.251482159076, -4460.804696178996, -3729.656783301447, -10775.641891436802, -14575.527855816825, 0.02, -0.114, 0.984, 192.0, 0.0, 0.0, 0.0, 0.0, 0.0, 0.0, 0.0, 0.0, 0.0, 1.645920633984745E9, 0.0, 2022-02-27 11:10:33.984
36.0, -3389.9773228141457, -6176.457545335001, -1781.746957510347, -11045.740371434733, -1382.388339327376, 188.022874358043, -5063.318319716253, -2063.4012893916715, -4054.4276302370586, -7910.617638899999, -4409.328628698424, -3161.1625148251674, -4490.331350604457, -3753.684908590902, -10627.583936164849, -14652.373153254171, 0.02, -0.114, 0.984, 192.0, 0.0, 0.0, 0.0, 0.0, 0.0, 0.0, 0.0, 0.0, 0.0, 1.645920633992651E9, 0.0, 2022-02-27 11:10:33.992
38.0, -3112.435711912598, -6042.771761747809, -1668.75888928877, -10874.235436229163, -1137.301461374934, 336.86314068593276, -5073.510715187874, -1976.967093582999, -2791.352902812112, -7236.086694727743, -4350.968223925617, -3118.694200360084, -4475.914475430784, -3670.53641921716, -10421.925535431568, -13909.08824313739, 0.01, -0.11, 0.99, 192.0, 0.0, 40.0, 126.0, 72.0, 15.0, 120.0, 0.0, 0.0, 0.0, 1.645920634006322E9, 0.0, 2022-02-27 11:10:34.006
40.0, -3188.051663404902, -6035.395686077558, -1686.1038429860882, -10935.345105569972, -1216.3148780244444, 317.953564876743, -5088.933418862035, -2081.796775078389, -5081.758508891882, -8120.142891424048, -4409.641553120799, -3355.779153797526, -4466.482039270644, -3775.3213972236395, -10901.281047020084, -15016.773643109042, 0.01, -0.11, 0.99, 192.0, 0.0, 0.0, 0.0, 0.0, 0.0, 0.0, 0.0, 0.0, 0.0, 1.645920634014398E9, 0.0, 2022-02-27 11:10:34.014
42.0, -3339.842360000892, -6177.373966857668, -1766.436012558462, -11008.815289594566, -1331.8957486028373, 207.08891237841993, -5057.7974388357925, -1993.5073844799263, -2630.934432856373, -7374.958083028565, -4377.432689360701, -3022.7828649023613, -4499.60732455341, -3677.44310825385, -10333.680848322016, -13960.653717595784, 0.01, -0.11, 0.99, 192.0, 0.0, 0.0, 0.0, 0.0, 0.0, 0.0, 0.0, 0.0, 0.0, 1.64592063402233E9, 0.0, 2022-02-27 11:10:34.022
44.0, -3015.6750101655734, -5952.783638570743, -1624.6812492229044, -10831.76712176408, -1052.9012743116946, 415.5859846575242, -5093.113195075178, -2041.8318559923002, -4280.649635869221, -7707.95437192373, -4376.717433538131, -3329.5382058069954, -4460.000033378606, -3720.3808093524945, -10773.853751880379, -14559.814579464744, 0.01, -0.11, 0.99, 192.0, 0.0, 0.0, 0.0, 0.0, 0.0, 0.0, 0.0, 0.0, 0.0, 1.645920634029344E9, 0.0, 2022-02-27 11:10:34.029
46.0, -3377.616808130361, -6165.862818463185, -1776.3601870966181, -11043.393438266927, -1376.12985087989, 193.96843838315468, -5077.131697789633, -2065.167077203641, -4085.5859620077567, -7919.75950238222, -4407.674599608731, -3164.269407304455, -4485.41396682429, -3745.7723910537234, -10637.709276403104, -14677.451810533024, 0.01, -0.109, 0.991, 192.0, 0.0, 40.0, 126.0, 80.0, 15.5, 0.0, 0.0, 0.0, 0.0, 1.645920634036928E9, 0.0, 2022-02-27 11:10:34.036
48.0, -3112.592174123785, -6036.267404111315, -1669.1835724334207, -10873.207255984218, -1137.815551497406, 337.6678034863238, -5069.822677352748, -1971.6697301470913, -2755.4112977279783, -7231.6386975811365, -4347.973090168606, -3114.9391072915923, -4482.977626678661, -3671.586951206559, -10417.857517940703, -13906.09310938038, 0.01, -0.109, 0.991, 192.0, 0.0, 0.0, 0.0, 0.0, 0.0, 0.0, 0.0, 0.0, 0.0, 1.645920634044998E9, 0.0, 2022-02-27 11:10:34.044
50.0, -3173.6124364867733, -6022.5657847602115, -1681.8346597951247, -10926.985553143688, -1210.9504593551708, 320.0099253666312, -5089.335750262231, -2079.6957110995904, -5069.688566886016, -8110.397530841534, -4401.863146050352, -3353.678089818727, -4462.794001435519, -3778.98708331431, -10904.075015076998, -15024.864974601864, 0.01, -0.109, 0.991, 192.0, 0.0, 0.0, 0.0, 0.0, 0.0, 0.0, 0.0, 0.0, 0.0, 1.645920634052075E9, 0.0, 2022-02-27 11:10:34.052
52.0, -3321.6256882698167, -6158.196170115015, -1761.071593889188, -11008.61412389447, -1337.260167272111, 200.76336869756804, -5074.851819855192, -2003.5656694848144, -2645.6418807079654, -7367.224379447029, -4370.526000324011, -3009.21535601799, -4502.311885632502, -3686.562619991615, -10343.42620890453, -13985.262988241077, 0.01, -0.109, 0.991, 192.0, 0.0, 0.0, 0.0, 0.0, 0.0, 0.0, 0.0, 0.0, 0.0, 1.645920634058624E9, 0.0, 2022-02-27 11:10:34.058
54.0, -2989.2999517083113, -5922.117045178062, -1613.4606735063403, -10824.256935627096, -1065.1947337621134, 409.70747586577846, -5108.066512115778, -2047.1515711726634, -4211.314524568859, -7663.452048713214, -4350.923520436707, -3304.995990395068, -4449.248844295603, -3720.0008296967544, -10768.355222744372, -14544.97302114642, 0.01, -0.109, 0.991, 192.0, 0.0, 0.0, 0.0, 0.0, 0.0, 0.0, 0.0, 0.0, 0.0, 1.645920634066612E9, 0.0, 2022-02-27 11:10:34.066
56.0, -3365.0104242575676, -6140.471236761956, -1771.5992655276377, -11036.822025397067, -1381.382510826887, 194.5942872279033, -5088.285218272832, -2090.1339757602186, -4118.130101934684, -7915.289153491159, -4403.494823395589, -3149.5396077084074, -4488.4761558146665, -3747.0017369987654, -10656.238872556552, -14692.360424084714, 0.011, -0.10650000000000001, 0.9884999999999999, 192.0, 0.0, 48.0, 126.0, 96.0, 15.0, 104.0, 0.0, 0.0, 0.0, 1.645920634074593E9, 0.0, 2022-02-27 11:10:34.074
58.0, -3101.013970495936, -6023.661020238522, -1670.6140840785604, -10873.006090284121, -1150.4219353701992, 333.37626855090485, -5095.4824799874405, -2012.1040358667417, -2730.77967533823, -7208.974028703455, -4347.168427368215, -3096.6106768382406, -4493.550001806021, -3654.3537562315178, -10422.506680787406, -13903.187382601189, 0.011, -0.10650000000000001, 0.9884999999999999, 192.0, 0.0, 0.0, 0.0, 0.0, 0.0, 0.0, 0.0, 0.0, 0.0, 1.645920634081732E9, 0.0, 2022-02-27 11:10:34.081
60.0, -3151.52891296493, -6004.639685707055, -1677.498421370795, -10922.78342518609, -1210.2799070215115, 329.50941676013673, -5113.520337762873, -2105.0425893119086, -5060.837276081715, -8100.674522003475, -4393.168317457237, -3344.871502503336, -4466.280873570547, -3769.018205287243, -10911.8757738919, -15028.865936859364, 0.011, -0.10650000000000001, 0.9884999999999999, 192.0, 0.0, 0.0, 0.0, 0.0, 0.0, 0.0, 0.0, 0.0, 0.0, 1.645920634089283E9, 0.0, 2022-02-27 11:10:34.089
62.0, -3322.966792937135, -6150.864797933674, -1770.660492260515, -11006.423652937849, -1351.8111529125158, 206.70893272267972, -5109.944058650024, -2019.1895388590742, -2658.0247471362054, -7373.348757427783, -4370.280131135003, -3007.4719199504757, -4505.284667645057, -3672.9951111072437, -10352.389258431109, -13994.404851723297, 0.011, -0.10650000000000001, 0.9884999999999999, 192.0, 0.0, 0.0, 0.0, 0.0, 0.0, 0.0, 0.0, 0.0, 0.0, 1.645920634097174E9, 0.0, 2022-02-27 11:10:34.097
64.0, -2996.3183994672777, -5927.101484191595, -1620.7473421987704, -10822.111168159387, -1074.5377629444317, 412.9261270673427, -5123.198643112021, -2093.12910951723, -4187.241695790493, -7642.5308159030465, -4367.128535166805, -3302.1349671047888, -4464.023347380561, -3710.4566348143385, -10770.679804167725, -14530.220869805917, 0.011, -0.10650000000000001, 0.9884999999999999, 192.0, 0.0, 0.0, 0.0, 0.0, 0.0, 0.0, 0.0, 0.0, 0.0, 1.64592063410526E9, 0.0, 2022-02-27 11:10:34.105
66.0, -3365.18923821321, -6143.846350174707, -1779.0647481757103, -11042.499368488714, -1387.2833713630882, 202.28328732052893, -5116.381361053152, -2086.021254780442, -4151.992994784474, -7897.921848049385, -4414.760102601064, -3158.1897328126115, -4493.818222739485, -3734.9764984818103, -10670.611044241316, -14719.428386620091, 0.0115, -0.10725000000000001, 0.98625, 192.0, 0.0, 48.0, 126.0, 80.0, 15.0, 96.0, 0.0, 0.0, 0.0, 1.64592063411194E9, 0.0, 2022-02-27 11:10:34.111
68.0, -3126.5396626638967, -6038.48022681239, -1686.1261947305436, -10889.747546881146, -1182.8990200637604, 320.25579455563957, -5079.724500146449, -1987.9865035994655, -2710.037256483705, -7188.656292993581, -4368.648453789765, -3104.5455461198744, -4505.575240322976, -3646.6200526499815, -10416.739930717937, -13892.03386211799, 0.0115, -0.10725000000000001, 0.98625, 192.0, 0.0, 0.0, 0.0, 0.0, 0.0, 0.0, 0.0, 0.0, 0.0, 1.645920634119841E9, 0.0, 2022-02-27 11:10:34.119
70.0, -3169.432660273631, -6015.18970908996, -1689.4119011654736, -10925.823262432012, -1233.7268869551285, 312.70090492974583, -5105.496061503418, -2117.4925109735145, -5091.325055518753, -8119.382932112567, -4427.053562051483, -3366.932674280724, -4489.392577337334, -3783.949170583388, -10916.189660571774, -15026.742521136108, 0.0115, -0.10725000000000001, 0.98625, 192.0, 0.0, 0.0, 0.0, 0.0, 0.0, 0.0, 0.0, 0.0, 0.0, 1.645920634134923E9, 0.0, 2022-02-27 11:10:34.134
72.0, -3355.0191944860453, -6175.6528825346095, -1783.5127453223165, -11018.538298432624, -1364.775164696594, 195.44365351720495, -5092.755567163893, -2025.671544751113, -2702.3259046466237, -7401.199031019096, -4391.894268023285, -3014.177443287068, -4517.444016628744, -3682.4722507562938, -10355.026764276834, -14016.398968267318, 0.0115, -0.10725000000000001, 0.98625, 192.0, 0.0, 0.0, 0.0, 0.0, 0.0, 0.0, 0.0, 0.0, 0.0, 1.645920634142887E9, 0.0, 2022-02-27 11:10:34.142
74.0, -3033.668164452096, -5964.56300789869, -1639.3663453300412, -10832.594136308926, -1082.0479490814148, 392.6754465908345, -5075.030633810835, -2050.9513677300656, -4180.357358498259, -7655.271310242571, -4387.938009254695, -3327.414790083741, -4482.955274934206, -3734.9317949928995, -10753.84894059288, -14510.35016898515, 0.0115, -0.10725000000000001, 0.98625, 192.0, 0.0, 0.0, 0.0, 0.0, 0.0, 0.0, 0.0, 0.0, 0.0, 1.645920634149425E9, 0.0, 2022-02-27 11:10:34.149
76.0, -3391.7207588816595, -6175.786993001341, -1788.1619081690203, -11042.320554533071, -1384.1094236504346, 188.73813018061284, -5060.926683059536, -2084.6577983686684, -4225.753751486987, -7966.117020382527, -4433.423809221245, -3181.7037679795944, -4512.772502037586, -3756.8365045591004, -10671.68392797517, -14729.352561158248, 0.012750000000000001, -0.108625, 0.9861249999999999, 192.0, 0.0, 56.0, 126.0, 72.0, 15.0, 104.0, 0.0, 0.0, 0.0, 1.645920634157534E9, 0.0, 2022-02-27 11:10:34.157
78.0, -3139.593081425796, -6055.5569595762445, -1685.2991801856972, -10883.44435494475, -1160.9496070086489, 328.6824022152904, -5094.074320086756, -1971.0215295578873, -2712.0936169735933, -7221.200432920508, -4375.15281142626, -3100.455176884553, -4504.0329699555605, -3660.9028173569227, -10408.49213701393, -13882.064984090923, 0.012750000000000001, -0.108625, 0.9861249999999999, 192.0, 0.0, 0.0, 0.0, 0.0, 0.0, 0.0, 0.0, 0.0, 0.0, 1.645920634164102E9, 0.0, 2022-02-27 11:10:34.164
80.0, -3181.7037679795944, -6022.543433015756, -1690.9094680439794, -10920.63765771838, -1200.489842950087, 335.8126086965333, -5079.053947812789, -2082.3779204342272, -5101.360988779186, -8093.4102050555, -4421.622088148843, -3352.9181305072466, -4476.294455086524, -3770.0016820432766, -10918.849518161955, -15019.746425121597, 0.012750000000000001, -0.108625, 0.9861249999999999, 192.0, 0.0, 0.0, 0.0, 0.0, 0.0, 0.0, 0.0, 0.0, 0.0, 1.645920634172138E9, 0.0, 2022-02-27 11:10:34.172
82.0, -3381.148383754299, -6198.27284792338, -1791.849946004146, -11021.779301378645, -1350.5371034785633, 206.26189783357358, -5037.859682781659, -2003.029227617887, -2739.8544835870844, -7403.434205464627, -4402.1313669838155, -3019.698324167529, -4514.672400316286, -3679.6112274660145, -10353.596252631694, -14021.763386936593, 0.012750000000000001, -0.108625, 0.9861249999999999, 192.0, 0.0, 0.0, 0.0, 0.0, 0.0, 0.0, 0.0, 0.0, 0.0, 1.645920634180279E9, 0.0, 2022-02-27 11:10:34.180
84.0, -3044.374650046188, -5975.537714426246, -1644.8872262105021, -10837.355057877905, -1069.8215448643618, 419.29637423710517, -5076.86347685617, -2024.8221784618115, -4149.377840683203, -7639.289812957027, -4391.983675001106, -3327.8171214839367, -4474.640425996831, -3718.950297707355, -10740.16967298623, -14494.480430421881, 0.012750000000000001, -0.108625, 0.9861249999999999, 192.0, 0.0, 0.0, 0.0, 0.0, 0.0, 0.0, 0.0, 0.0, 0.0, 1.645920634187223E9, 0.0, 2022-02-27 11:10:34.187
86.0, -3409.222174790165, -6187.5663623292885, -1801.2153269309197, -11049.875444158966, -1387.7974614855602, 204.87608967734454, -5064.570017405751, -2076.0747284978306, -4270.434888653146, -7975.303587353657, -4443.21387329267, -3201.8650414782815, -4507.2069176682135, -3766.1571819969636, -10683.217428114109, -14747.099846255762, 0.013375000000000001, -0.1083125, 0.9870625, 192.0, 0.0, 56.0, 126.0, 80.0, 15.0, 112.0, 0.0, 0.0, 0.0, 1.645920634193793E9, 0.0, 2022-02-27 11:10:34.193
88.0, -3176.6969772216057, -6083.697805845476, -1705.885136829035, -10896.140145795363, -1172.304293191945, 337.15371336385175, -5062.0219185378455, -1982.4209192300941, -2700.3365993901016, -7237.092523228232, -4392.475413379123, -3106.8701275432263, -4507.855118257417, -3669.7988116501347, -10405.184078834543, -13884.098992836356, 0.013375000000000001, -0.1083125, 0.9870625, 192.0, 0.0, 0.0, 0.0, 0.0, 0.0, 0.0, 0.0, 0.0, 0.0, 1.645920634201701E9, 0.0, 2022-02-27 11:10:34.201
90.0, -3195.0924629083233, -6037.742619245365, -1701.8394710826244, -10919.251849562152, -1203.2167557736345, 348.6872135027902, -5074.33772973272, -2093.5314409174252, -5130.172387382077, -8118.980600712372, -4444.174998304248, -3376.4321656742295, -4486.5986092804205, -3790.498231708793, -10921.934058896788, -15023.032131556527, 0.013375000000000001, -0.1083125, 0.9870625, 192.0, 0.0, 0.0, 0.0, 0.0, 0.0, 0.0, 0.0, 0.0, 0.0, 1.645920634209736E9, 0.0, 2022-02-27 11:10:34.209
92.0, -3396.682846150738, -6209.448720151034, -1798.8236902742017, -11025.154414791396, -1363.9481501517475, 200.3163338084619, -5056.501037657385, -2029.9630796865322, -2788.514231266288, -7431.887976156232, -4410.870899065841, -3024.146321314135, -4518.5169003626, -3691.6364659829696, -10365.487380681918, -14041.321163334986, 0.013375000000000001, -0.1083125, 0.9870625, 192.0, 0.0, 0.0, 0.0, 0.0, 0.0, 0.0, 0.0, 0.0, 0.0, 1.64592063421679E9, 0.0, 2022-02-27 11:10:34.216
94.0, -3051.7283739719837, -5970.575627157167, -1646.5859587891055, -10830.314258374485, -1087.3229607728674, 410.66860087735665, -5091.280352029843, -2043.061201937342, -4129.954174751541, -7624.6494203388, -4395.425843647224, -3310.9415544201797, -4478.395519065323, -3717.6091930400366, -10746.763437600546, -14477.180180213474, 0.013375000000000001, -0.1083125, 0.9870625, 192.0, 0.0, 0.0, 0.0, 0.0, 0.0, 0.0, 0.0, 0.0, 0.0, 1.645920634224348E9, 0.0, 2022-02-27 11:10:34.224
96.0, -3414.7877591595366, -6187.655769307109, -1797.884917007079, -11042.409961510893, -1387.1045574074458, 199.7351884526239, -5075.567075677762, -2096.8171473523557, -4329.845825415352, -7986.680625281409, -4443.303280270491, -3195.9194774531697, -4510.693789803242, -3787.7713188852454, -10703.26694289052, -14761.673183640622, 0.013687500000000002, -0.10615625000000001, 0.98653125, 192.0, 0.0, 56.0, 126.0, 96.0, 15.0, 104.0, 0.0, 0.0, 0.0, 1.645920634232324E9, 0.0, 2022-02-27 11:10:34.232
98.0, -3194.846593719315, -6096.01361704035, -1717.3962852235181, -10906.06432033352, -1186.4976509210649, 320.0322771110865, -5068.503924429885, -1990.0875675782643, -2700.20248892337, -7236.533729616849, -4391.514288367544, -3102.2433164409777, -4513.018371226593, -3686.9202479029, -10408.447433525018, -13875.0241845875, 0.013687500000000002, -0.10615625000000001, 0.98653125, 192.0, 0.0, 0.0, 0.0, 0.0, 0.0, 0.0, 0.0, 0.0, 0.0, 1.645920634241779E9, 0.0, 2022-02-27 11:10:34.241
100.0, -3200.9933234445243, -6041.363601847124, -1703.1358722610323, -10925.845614176467, -1201.8309476174054, 331.789294694578, -5084.48542171543, -2098.672342142146, -5141.750591009926, -8121.707513535919, -4447.147780316804, -3389.865564091869, -4490.331350604457, -3807.9549441283875, -10930.472425278715, -15018.315913476457, 0.013687500000000002, -0.10615625000000001, 0.98653125, 192.0, 0.0, 0.0, 0.0, 0.0, 0.0, 0.0, 0.0, 0.0, 0.0, 1.645920634253875E9, 0.0, 2022-02-27 11:10:34.253
102.0, -3402.4048927312965, -6214.142586486649, -1803.2940391652633, -11032.03875208363, -1368.5079060206301, 193.92373489424406, -5059.473819669941, -2023.704591239046, -2820.2760601372793, -7439.085237870841, -4417.844643335896, -3040.3736877886877, -4516.214670683703, -3727.175739666908, -10374.428078464041, -14054.955727452723, 0.013687500000000002, -0.10615625000000001, 0.98653125, 192.0, 0.0, 0.0, 0.0, 0.0, 0.0, 0.0, 0.0, 0.0, 0.0, 1.645920634262118E9, 0.0, 2022-02-27 11:10:34.262
104.0, -3060.8255339652937, -5984.389005230547, -1647.9270634564239, -10832.303563631007, -1087.077091583859, 403.8289670740327, -5095.974218365457, -2045.0728589383198, -4088.2681713423935, -7629.7903215635215, -4391.983675001106, -3304.9512869061577, -4472.002920151105, -3740.8773590180112, -10740.303783452962, -14457.108313692608, 0.013687500000000002, -0.10615625000000001, 0.98653125, 192.0, 0.0, 0.0, 0.0, 0.0, 0.0, 0.0, 0.0, 0.0, 0.0, 1.645920634270149E9, 0.0, 2022-02-27 11:10:34.270
106.0, -3422.6779249522597, -6187.164030929092, -1801.6847135644812, -11043.616955711479, -1386.1434323958674, 204.87608967734454, -5080.998549580401, -2105.3331619898277, -4376.337453882391, -8016.430797151423, -4452.109867585882, -3205.8660037357813, -4513.84538577144, -3789.492403208304, -10714.442815118173, -14777.632329181712, 0.014843750000000001, -0.108078125, 0.987265625, 192.0, 0.0, 64.0, 126.0, 72.0, 15.0, 112.0, 0.0, 0.0, 0.0, 1.645920634276634E9, 0.0, 2022-02-27 11:10:34.276
108.0, -3204.100215923812, -6095.365416451146, -1714.3564479775964, -10904.29853252155, -1180.1274037513024, 305.72716065969, -5084.731290904438, -1997.6201054597027, -2679.8847532134955, -7230.744627802924, -4390.754329056064, -3100.5892873512853, -4509.397388624834, -3693.9163439174113, -10398.366796775676, -13867.715164150617, 0.014843750000000001, -0.108078125, 0.987265625, 192.0, 0.0, 0.0, 0.0, 0.0, 0.0, 0.0, 0.0, 0.0, 0.0, 1.645920634284606E9, 0.0, 2022-02-27 11:10:34.284
110.0, -3210.939849727136, -6051.19836940746, -1701.6383053825266, -10925.242117076174, -1204.6025639298634, 342.65224249985727, -5107.530070248851, -2093.0620542838637, -5140.498893320429, -8117.550089067232, -4443.5715012039545, -3384.702311122693, -4482.731757489652, -3808.625496462047, -10928.97485840021, -15013.286770974013, 0.014843750000000001, -0.108078125, 0.987265625, 192.0, 0.0, 0.0, 0.0, 0.0, 0.0, 0.0, 0.0, 0.0, 0.0, 1.645920634292754E9, 0.0, 2022-02-27 11:10:34.292
112.0, -3430.7245529561706, -6229.453531438534, -1807.5632223562268, -11039.168958564873, -1371.1677636108118, 194.08019710543124, -5069.688566886016, -2016.3061638243396, -2859.481019911888, -7459.470028814081, -4425.310125983969, -3042.340641300755, -4522.026124242083, -3725.432303599394, -10372.461124951975, -14066.980965969678, 0.014843750000000001, -0.108078125, 0.987265625, 192.0, 0.0, 0.0, 0.0, 0.0, 0.0, 0.0, 0.0, 0.0, 0.0, 1.64592063429925E9, 0.0, 2022-02-27 11:10:34.299
114.0, -3086.75355753345, -6006.2490113078375, -1653.8949792259907, -10836.23747065514, -1082.7185014150741, 407.1146735089628, -5107.015980126379, -2029.2031203750516, -4069.246836810927, -7614.7699492895545, -4409.328628698424, -3311.477996287107, -4484.788117979541, -3743.917196263933, -10720.880117521301, -14431.716731991379, 0.014843750000000001, -0.108078125, 0.987265625, 192.0, 0.0, 0.0, 0.0, 0.0, 0.0, 0.0, 0.0, 0.0, 0.0, 1.645920634306221E9, 0.0, 2022-02-27 11:10:34.306
116.0, -3440.961651916701, -6214.410807420112, -1801.6623618200258, -11044.063990600585, -1382.187173627278, 205.14431061080822, -5092.085014830233, -2083.763728590456, -4419.744541614597, -8035.653297382987, -4463.0622223689825, -3220.30523065391, -4505.865813000895, -3799.953019613388, -10712.051178461454, -14788.45057349808, 0.014, -0.11, 0.988, 192.0, 0.0, 56.0, 126.0, 72.0, 15.0, 112.0, 0.0, 0.0, 0.0, 1.645920634314554E9, 0.0, 2022-02-27 11:10:34.314
118.0, -3241.6958500976384, -6141.007678628884, -1725.7334859053476, -10908.321846523506, -1187.1234997658134, 307.6717624273017, -5090.073357829257, -1984.5219832088928, -2675.3026456001576, -7247.463732655494, -4408.725131598131, -3106.8030723098605, -4507.296324646035, -3704.7792917226902, -10386.475668725452, -13858.640355901762, 0.014, -0.11, 0.988, 192.0, 0.0, 0.0, 0.0, 0.0, 0.0, 0.0, 0.0, 0.0, 0.0, 1.645920634322336E9, 0.0, 2022-02-27 11:10:34.322
120.0, -3256.1797805046776, -6106.228364256426, -1704.1417007615212, -10921.35291354095, -1189.582191655897, 330.24702432716185, -5108.692360960527, -2092.7267781170344, -5145.662146289605, -8126.3790281270785, -4458.524818244555, -3398.5603926849835, -4485.279856357558, -3826.1492641150076, -10922.984590886188, -15006.648302870788, 0.014, -0.11, 0.988, 192.0, 0.0, 0.0, 0.0, 0.0, 0.0, 0.0, 0.0, 0.0, 0.0, 1.645920634328865E9, 0.0, 2022-02-27 11:10:34.328
122.0, -3511.2355364841865, -6317.921735992639, -1819.8343300621905, -11040.800635910111, -1370.452507788242, 185.54183072350392, -5080.015072824368, -2023.6151842612248, -2903.9386396334935, -7509.895564305254, -4450.478190240645, -3064.5135718004194, -4524.104836476426, -3761.440963916894, -10380.127773300144, -14084.348271411453, 0.014, -0.11, 0.988, 192.0, 0.0, 0.0, 0.0, 0.0, 0.0, 0.0, 0.0, 0.0, 0.0, 1.645920634337033E9, 0.0, 2022-02-27 11:10:34.337
124.0, -3205.1283961687564, -6133.11751283616, -1663.1933049193985, -10842.563014335992, -1072.950789088105, 406.4217694308483, -5107.150090593111, -2027.3032220963505, -4053.220636036472, -7643.983679292641, -4443.146818059304, -3342.8151420134477, -4480.228362110658, -3762.9385307953994, -10709.771300527012, -14416.919877161967, 0.014, -0.11, 0.988, 192.0, 0.0, 0.0, 0.0, 0.0, 0.0, 0.0, 0.0, 0.0, 0.0, 1.64592063434495E9, 0.0, 2022-02-27 11:10:34.344
126.0, -3593.1993834017976, -6354.131562010237, -1810.8042253022463, -11046.813255168589, -1374.5875805124738, 214.9120229377774, -5092.263828785876, -2083.5625628903585, -4501.708388532208, -8081.563780494187, -4508.838595013452, -3265.746327131549, -4509.330333391468, -3815.5098337542813, -10714.576925584905, -14803.940332405607, 0.012, -0.1, 0.986, 192.0, 0.0, 48.0, 126.0, 112.0, 15.0, 104.0, 0.0, 0.0, 0.0, 1.645920634352012E9, 0.0, 2022-02-27 11:10:34.352
128.0, -3425.0472098645223, -6308.064616687849, -1740.9550238794118, -10918.424835017304, -1187.9952177995704, 317.372419520905, -5112.939192407035, -1986.7571576544235, -2708.293820416191, -7277.929160348077, -4458.591873477921, -3137.827293613827, -4509.687961302753, -3719.106759918542, -10371.589406918218, -13850.370210453299, 0.012, -0.1, 0.986, 192.0, 0.0, 0.0, 0.0, 0.0, 0.0, 0.0, 0.0, 0.0, 0.0, 1.645920634359663E9, 0.0, 2022-02-27 11:10:34.359
130.0, -3415.972401615668, -6252.4311247385895, -1718.2903550017304, -10923.029294375097, -1181.8261363299057, 360.13130666390737, -5120.6058407552055, -2095.9901328075093, -5204.469585951518, -8162.946482055961, -4514.113606704904, -3443.0403641510447, -4485.4586703132, -3834.821740963667, -10923.655143219847, -15000.143945234293, 0.012, -0.1, 0.986, 192.0, 0.0, 0.0, 0.0, 0.0, 0.0, 0.0, 0.0, 0.0, 0.0, 1.645920634367677E9, 0.0, 2022-02-27 11:10:34.367
132.0, -3646.173017760875, -6430.708638514118, -1829.7361528558915, -11049.674278458868, -1371.123060121901, 194.37076978335023, -5051.851874810681, -2029.0243064194092, -2988.2047162300014, -7552.92267238172, -4497.170984407781, -3099.8740315287155, -4523.121359720392, -3755.294234191684, -10376.842066865214, -14096.1276407394, 0.012, -0.1, 0.986, 192.0, 0.0, 0.0, 0.0, 0.0, 0.0, 0.0, 0.0, 0.0, 0.0, 1.645920634381787E9, 0.0, 2022-02-27 11:10:34.381
134.0, -3278.240952282066, -6186.135850684149, -1670.9940637343007, -10841.803055024511, -1079.790422891429, 407.7628740981667, -5107.418311526574, -2004.2362218184737, -4060.2167320509834, -7644.788342093032, -4478.082594642949, -3361.7694213115483, -4487.716196503186, -3767.5429901531925, -10696.986102698578, -14395.506905973782, 0.012, -0.1, 0.986, 192.0, 0.0, 0.0, 0.0, 0.0, 0.0, 0.0, 0.0, 0.0, 0.0, 1.645920634389403E9, 0.0, 2022-02-27 11:10:34.389
136.0, -3599.9496102273, -6359.048945790404, -1809.5525276127491, -11045.539205734636, -1364.7304612076832, 216.94603168321035, -5069.934436075025, -2078.6675308546464, -4543.819075086007, -8080.826172927163, -4508.2574496576135, -3283.493612229063, -4499.1602896643035, -3816.4039035324936, -10724.702265823158, -14813.775099965944, 0.01, -0.106, 0.992, 192.0, 0.0, 40.0, 126.0, 88.0, 15.5, 0.0, 0.0, 0.0, 0.0, 1.645920634397337E9, 0.0, 2022-02-27 11:10:34.397
138.0, -3412.5302329695505, -6282.762441964441, -1749.493390261339, -10923.275163564107, -1195.393645214277, 306.50947171562575, -5075.142392533111, -1950.2120554699966, -2695.352160376568, -7272.564741678803, -4454.322690286957, -3141.6494419156843, -4510.514975847599, -3717.83271048459, -10371.365889473664, -13842.45769291612, 0.01, -0.106, 0.992, 192.0, 0.0, 0.0, 0.0, 0.0, 0.0, 0.0, 0.0, 0.0, 0.0, 1.64592063440449E9, 0.0, 2022-02-27 11:10:34.404
140.0, -3411.9043841248017, -6218.076493510783, -1739.1892360674426, -10954.053515679065, -1222.5286629830198, 313.75143691914525, -5121.276393088865, -2107.478929457537, -5129.859462959703, -8121.796920513741, -4499.115586175392, -3422.2755935520645, -4486.330388346957, -3810.011304618276, -10912.322808781006, -14962.123627915817, 0.01, -0.106, 0.992, 192.0, 0.0, 0.0, 0.0, 0.0, 0.0, 0.0, 0.0, 0.0, 0.0, 1.645920634411909E9, 0.0, 2022-02-27 11:10:34.411
142.0, -3577.955493683278, -6367.900236594705, -1827.0762952657099, -11043.66165920039, -1359.3660425384096, 185.25125804558493, -5080.506811202385, -1982.7338436524683, -2689.473651584822, -7400.819051363355, -4467.443164282223, -3079.824516752305, -4518.114568962404, -3742.553739852159, -10334.865490778147, -13937.117330684345, 0.01, -0.106, 0.992, 192.0, 0.0, 0.0, 0.0, 0.0, 0.0, 0.0, 0.0, 0.0, 0.0, 1.645920634419952E9, 0.0, 2022-02-27 11:10:34.419
144.0, -3200.367474599776, -6131.284669790825, -1657.6053688055717, -10839.992563723632, -1062.9372075721274, 401.303219950583, -5128.20543387001, -2013.0204573894093, -4157.11154426474, -7672.884484873353, -4456.490809499122, -3373.7276045951376, -4481.07772839996, -3795.728539911335, -10728.07737923591, -14438.466958816882, 0.01, -0.106, 0.992, 192.0, 0.0, 0.0, 0.0, 0.0, 0.0, 0.0, 0.0, 0.0, 0.0, 1.645920634427971E9, 0.0, 2022-02-27 11:10:34.427
146.0, -3550.9098828923566, -6314.01018071296, -1812.525309625305, -11055.195159339328, -1377.8509352029487, 200.45044427519375, -5112.0898261177335, -2079.226324466029, -4483.067033656483, -8085.78826019624, -4488.543211048032, -3258.057327038923, -4497.014522196594, -3831.2901653397284, -10717.482652364095, -14808.790660952409, 0.014, -0.106, 0.992, 192.0, 0.0, 56.0, 126.0, 88.0, 15.5, 0.0, 0.0, 0.0, 0.0, 1.645920634433987E9, 0.0, 2022-02-27 11:10:34.433
148.0, -3313.8919846882804, -6201.357388658213, -1722.6489451705154, -10911.965180869722, -1168.7950693124617, 318.24413755466196, -5060.367889448153, -1958.2810352183624, -2810.910679210506, -7278.331491748273, -4426.986506818117, -3153.808790899371, -4489.616094781887, -3726.8404635000784, -10403.418291022575, -13902.360368056343, 0.014, -0.106, 0.992, 192.0, 0.0, 0.0, 0.0, 0.0, 0.0, 0.0, 0.0, 0.0, 0.0, 1.645920634441511E9, 0.0, 2022-02-27 11:10:34.441
150.0, -3290.065025098923, -6129.11655057866, -1694.3292849456413, -10916.837861160977, -1152.3441853933557, 365.1157456774409, -5062.29013947131, -2081.930885545121, -5262.941749446601, -8180.582008431198, -4488.118527903382, -3444.292061840542, -4478.082594642949, -3849.037450437242, -10921.084692607486, -15043.081646332937, 0.014, -0.106, 0.992, 192.0, 0.0, 0.0, 0.0, 0.0, 0.0, 0.0, 0.0, 0.0, 0.0, 1.645920634449722E9, 0.0, 2022-02-27 11:10:34.449
152.0, -3538.214092041742, -6314.747788279986, -1817.4203416610173, -11053.742295949734, -1354.4710105026975, 190.63802845931394, -5039.871339782637, -2022.6093557607362, -3060.043222909358, -7571.8545999353655, -4464.805658436497, -3088.005255222947, -4513.823034026985, -3763.2291034733184, -10381.021843078357, -14155.762094946158, 0.014, -0.106, 0.992, 192.0, 0.0, 0.0, 0.0, 0.0, 0.0, 0.0, 0.0, 0.0, 0.0, 1.645920634457521E9, 0.0, 2022-02-27 11:10:34.457
154.0, -3171.5784277413404, -6085.195372723982, -1666.7025287988818, -10852.733058063157, -1077.912876357183, 401.1914612283065, -5101.852727157203, -1998.581230471281, -3933.2588235448393, -7595.480393824625, -4429.020515563549, -3329.1135226623446, -4477.121469631371, -3773.980292556321, -10672.421535542195, -14357.732457844313, 0.014, -0.106, 0.992, 192.0, 0.0, 0.0, 0.0, 0.0, 0.0, 0.0, 0.0, 0.0, 0.0, 1.645920634464865E9, 0.0, 2022-02-27 11:10:34.464
156.0, -3535.084847817999, -6293.535982791899, -1824.5505481422601, -11074.149438637429, -1392.804252243549, 182.34553126639503, -5083.591351937217, -2052.806562519856, -4299.08982504485, -7999.376416132023, -4472.3381963179345, -3241.2488152085325, -4509.307981647013, -3819.331982056139, -10676.333090821874, -14703.893924223654, 0.012, -0.106, 0.988, 192.0, 0.0, 48.0, 126.0, 88.0, 15.0, 112.0, 0.0, 0.0, 0.0, 1.645920634472195E9, 0.0, 2022-02-27 11:10:34.472
158.0, -3286.7569669195377, -6176.010510445894, -1732.1707883084762, -10923.521032753115, -1187.9505143106599, 294.2830674985728, -5079.165706535066, -1973.1225935366863, -2697.900259244473, -7233.382133648651, -4411.452044421679, -3146.3209565068432, -4504.792929267041, -3723.1524256649527, -10387.34738675921, -13830.275992187977, 0.012, -0.106, 0.988, 192.0, 0.0, 0.0, 0.0, 0.0, 0.0, 0.0, 0.0, 0.0, 0.0, 1.645920634479513E9, 0.0, 2022-02-27 11:10:34.479
160.0, -3268.6073504218284, -6111.570431181244, -1708.7014566304038, -10935.009829403143, -1189.135156766791, 337.6454517418685, -5102.657389957594, -2070.2185714505404, -5226.620164706727, -8140.438275389466, -4462.1234491018595, -3431.1492361008213, -4478.641388254331, -3842.1531131450074, -10932.171157857318, -15019.724073377141, 0.012, -0.106, 0.988, 192.0, 0.0, 0.0, 0.0, 0.0, 0.0, 0.0, 0.0, 0.0, 0.0, 1.645920634487631E9, 0.0, 2022-02-27 11:10:34.487
162.0, -3475.2045244222313, -6271.653624970153, -1811.1618532135312, -11036.531452719148, -1361.1094786059236, 198.97522914114347, -5063.698299371994, -1988.2100210440185, -2785.0050073868047, -7447.42243855267, -4437.02244007855, -3056.846923452249, -4515.27589741658, -3736.362306638039, -10340.609889103162, -14007.905305374303, 0.012, -0.106, 0.988, 192.0, 0.0, 0.0, 0.0, 0.0, 0.0, 0.0, 0.0, 0.0, 0.0, 1.645920634501752E9, 0.0, 2022-02-27 11:10:34.501
164.0, -3109.909964789148, -6031.931165686985, -1652.2409501362981, -10832.281211886551, -1057.4163266916664, 417.6646968918678, -5090.274523529354, -1996.614276959214, -4060.7531739179108, -7625.990525006119, -4421.666791637754, -3327.5265488060177, -4475.914475430784, -3766.4924581637933, -10700.048291688954, -14407.867420657567, 0.012, -0.106, 0.988, 192.0, 0.0, 0.0, 0.0, 0.0, 0.0, 0.0, 0.0, 0.0, 0.0, 1.645920634509143E9, 0.0, 2022-02-27 11:10:34.509
166.0, -3465.705033028726, -6231.845168095251, -1799.9189257525118, -11055.128104105963, -1376.0180921576134, 208.05003738999815, -5077.556380934284, -2063.64715858068, -4459.061260111483, -8060.888416873028, -4469.186600349736, -3242.8581408093146, -4503.787100766552, -3810.8159674186672, -10703.333998123884, -14791.915093888652, 0.012, -0.106, 0.988, 192.0, 0.0, 48.0, 126.0, 88.0, 15.0, 112.0, 0.0, 0.0, 0.0, 1.645920634517155E9, 0.0, 2022-02-27 11:10:34.517
168.0, -3235.392658161242, -6122.791006897808, -1712.3224392321636, -10909.484137235182, -1180.2168107291236, 317.7300474321899, -5071.499058186896, -1959.19745674103, -2696.357988877057, -7237.00311625041, -4397.035169248005, -3122.1587207506564, -4497.930943719261, -3714.949335449855, -10380.95478784499, -13850.88430057577, 0.012, -0.106, 0.988, 192.0, 0.0, 0.0, 0.0, 0.0, 0.0, 0.0, 0.0, 0.0, 0.0, 1.645920634525256E9, 0.0, 2022-02-27 11:10:34.525
170.0, -3202.49089032303, -6040.7601047468315, -1684.3604069185744, -10914.826204160001, -1175.1429647377688, 353.29167286058345, -5101.271581801365, -2070.6656063396463, -5203.061426050834, -8102.574420282176, -4440.35285000239, -3405.8247096329583, -4467.197295093214, -3823.981144902843, -10930.338314811983, -15015.387834952813, 0.012, -0.106, 0.988, 192.0, 0.0, 0.0, 0.0, 0.0, 0.0, 0.0, 0.0, 0.0, 0.0, 1.645920634531729E9, 0.0, 2022-02-27 11:10:34.531
172.0, -3409.378637001352, -6202.363217158701, -1787.5137075798164, -11024.70737990229, -1343.585710952963, 209.77112171305677, -5067.609854651672, -1998.2683060489067, -2791.4870132788437, -7433.13967384573, -4415.028323534528, -3024.302783525322, -4508.771539780086, -3720.7384372637794, -10350.914043297058, -14025.518480005085, 0.012, -0.106, 0.988, 192.0, 0.0, 0.0, 0.0, 0.0, 0.0, 0.0, 0.0, 0.0, 0.0, 1.645920634539787E9, 0.0, 2022-02-27 11:10:34.539
174.0, -3038.250272065434, -5965.390022443536, -1624.7259527118151, -10818.870165213368, -1035.5786723588315, 417.28471723612756, -5104.244363813921, -2007.2090038310296, -3965.4006320715707, -7569.30650106746, -4389.837907533397, -3290.288542543476, -4466.370280548368, -3741.7937805406787, -10694.683873019681, -14386.499152958293, 0.012, -0.106, 0.988, 192.0, 0.0, 0.0, 0.0, 0.0, 0.0, 0.0, 0.0, 0.0, 0.0, 1.645920634547982E9, 0.0, 2022-02-27 11:10:34.547
176.0, -3399.76738688557, -6168.79089698683, -1773.2532946173305, -11035.145644562917, -1372.7323857226831, 208.11709262336407, -5091.146241563111, -2073.7501470744787, -4486.330388346957, -8041.554157919188, -4443.370335503857, -3219.8581957648034, -4490.264295371091, -3814.012266875776, -10722.332980910896, -14820.815899469364, 0.006, -0.112, 0.988, 192.0, 0.0, 24.0, 126.0, 64.0, 15.0, 112.0, 0.0, 0.0, 0.0, 1.645920634555083E9, 0.0, 2022-02-27 11:10:34.555
178.0, -3195.6065530307956, -6083.071957000728, -1704.856956584091, -10906.556058711536, -1181.8931915632716, 304.7436839036565, -5091.325055518753, -1975.7377476379572, -2630.0403630781607, -7208.28112462534, -4377.276227149514, -3082.3949673646653, -4487.626789525365, -3704.175794622397, -10376.1491627871, -13839.663724859205, 0.006, -0.112, 0.988, 192.0, 0.0, 0.0, 0.0, 0.0, 0.0, 0.0, 0.0, 0.0, 0.0, 1.645920634561562E9, 0.0, 2022-02-27 11:10:34.561
180.0, -3160.4472590025975, -6003.075063595184, -1674.1903631914097, -10903.359759254428, -1181.0214735295147, 346.04970765706395, -5122.416332056086, -2097.5547549193807, -5160.4590011190185, -8080.7144142048855, -4427.724114385142, -3389.642046647316, -4471.466478284178, -3815.465130265371, -10940.396599816871, -15007.251799971082, 0.006, -0.112, 0.988, 192.0, 0.0, 0.0, 0.0, 0.0, 0.0, 0.0, 0.0, 0.0, 0.0, 1.645920634569412E9, 0.0, 2022-02-27 11:10:34.569
182.0, -3391.9219245817576, -6187.901638496118, -1785.9043819790343, -11025.601449680502, -1384.1988306282558, 177.67401667523583, -5099.81871841177, -2035.3274983558058, -2804.540432040743, -7442.169778605674, -4411.630858377321, -3013.462187464498, -4519.388618396356, -3729.4109141124386, -10363.922758570046, -14055.201596641731, 0.006, -0.112, 0.988, 192.0, 0.0, 0.0, 0.0, 0.0, 0.0, 0.0, 0.0, 0.0, 0.0, 1.645920634577796E9, 0.0, 2022-02-27 11:10:34.577
184.0, -3020.435931734554, -5943.4406093884245, -1627.4975690242732, -10818.624296024358, -1068.8157163638732, 411.1603392553734, -5117.521300020373, -2023.2128528610294, -3918.3502099931493, -7555.113143338341, -4390.553163355967, -3280.6102371943284, -4477.344987075923, -3741.7714287962235, -10695.510887564527, -14380.508885444271, 0.008, -0.111, 0.99, 192.0, 0.0, 40.0, 126.0, 72.0, 15.5, 0.0, 0.0, 0.0, 0.0, 1.64592063458409E9, 0.0, 2022-02-27 11:10:34.584
186.0, -3375.4039854292855, -6141.208844328981, -1781.1434604100539, -11031.994048594719, -1386.7916329850714, 200.07046461945353, -5104.311419047287, -2088.4352431816155, -4506.17873742327, -8032.099370014593, -4446.432524494234, -3210.2916491379324, -4500.054359442515, -3805.809176660678, -10737.800388073969, -14839.680771789644, 0.008, -0.111, 0.99, 192.0, 0.0, 0.0, 0.0, 0.0, 0.0, 0.0, 0.0, 0.0, 0.0, 1.645920634592102E9, 0.0, 2022-02-27 11:10:34.592
188.0, -3170.7067097075833, -6061.1895991789825, -1703.3146862166748, -10906.712520922723, -1199.7075318941513, 300.4297972237822, -5102.277410301854, -1995.2731722918957, -2610.7284558687757, -7198.334598342729, -4371.889456735785, -3066.9946154349586, -4494.891106473339, -3694.1622131064196, -10384.508715213386, -13850.280803475476, 0.008, -0.111, 0.99, 192.0, 0.0, 0.0, 0.0, 0.0, 0.0, 0.0, 0.0, 0.0, 0.0, 1.645920634600178E9, 0.0, 2022-02-27 11:10:34.600
190.0, -3122.918680062137, -5975.291845237237, -1668.5800753331275, -10900.543439453058, -1183.4354619306878, 342.7640012221338, -5138.442532830541, -2101.7568828769786, -5146.511512578906, -8075.797030424718, -4419.856300336874, -3378.0191395305565, -4471.287664328535, -3809.2066418178847, -10943.570547529525, -15010.179878494726, 0.008, -0.111, 0.99, 192.0, 0.0, 0.0, 0.0, 0.0, 0.0, 0.0, 0.0, 0.0, 0.0, 1.645920634607127E9, 0.0, 2022-02-27 11:10:34.607
192.0, -3358.1037352208778, -6160.274882349358, -1780.7634807543136, -11022.360446734483, -1370.8548391884374, 172.33194975041746, -5121.611669255694, -2023.9057569391439, -2819.404342103522, -7441.588633249836, -4406.44525366369, -3006.287277494345, -4509.889127002851, -3731.3108123911397, -10375.679776153538, -14071.563073583016, 0.008, -0.111, 0.99, 192.0, 0.0, 0.0, 0.0, 0.0, 0.0, 0.0, 0.0, 0.0, 0.0, 1.645920634614666E9, 0.0, 2022-02-27 11:10:34.614
194.0, -2987.7129778519843, -5921.692362033411, -1616.6793247079045, -10811.47173779866, -1067.9887018190268, 392.80955705756634, -5121.432855300052, -2039.1049431687527, -3866.4047558790157, -7531.263832004528, -4379.690215550687, -3253.877550825781, -4469.924207916762, -3728.0027542117546, -10693.007492185532, -14357.330126444118, 0.008, -0.1085, 0.988, 192.0, 0.0, 32.0, 126.0, 88.0, 15.0, 104.0, 0.0, 0.0, 0.0, 1.645920634629724E9, 0.0, 2022-02-27 11:10:34.629
196.0, -3344.1338949363108, -6119.840576629708, -1762.211532856409, -11029.513004960181, -1381.9413044382698, 184.35718826737266, -5099.394035267119, -2092.0785775278305, -4527.301135933535, -8041.241233496814, -4435.2343005221255, -3202.6026490453064, -4492.8794494723625, -3796.555554456181, -10746.02583003352, -14860.51259762199, 0.008, -0.1085, 0.988, 192.0, 0.0, 0.0, 0.0, 0.0, 0.0, 0.0, 0.0, 0.0, 0.0, 1.645920634636792E9, 0.0, 2022-02-27 11:10:34.636
198.0, -3162.7047851925836, -6049.589043806678, -1692.630552367038, -10909.797061657557, -1212.6715436782295, 280.0673580249975, -5093.4261194975525, -1998.6035822157364, -2582.028815988161, -7184.90119992509, -4371.218904402126, -3058.098621141746, -4496.768653007585, -3689.401291537439, -10374.38337497513, -13843.575280138884, 0.008, -0.1085, 0.988, 192.0, 0.0, 0.0, 0.0, 0.0, 0.0, 0.0, 0.0, 0.0, 0.0, 1.645920634644348E9, 0.0, 2022-02-27 11:10:34.644
200.0, -3096.3648076492323, -5953.3647839265805, -1654.9008077264796, -10891.692148648757, -1172.1478309807576, 342.4957802886701, -5127.087846647245, -2096.8842025857216, -5114.6155732411835, -8055.658108670486, -4417.375256702335, -3366.798563813992, -4468.896027671817, -3802.165842314463, -10936.038009648086, -15005.798936581486, 0.008, -0.1085, 0.988, 192.0, 0.0, 0.0, 0.0, 0.0, 0.0, 0.0, 0.0, 0.0, 0.0, 1.645920634652387E9, 0.0, 2022-02-27 11:10:34.652
202.0, -3359.5342468660174, -6151.423591545056, -1777.075442919188, -11028.283659015138, -1388.065682419024, 166.90047584777784, -5095.370721265164, -2026.4091523181382, -2869.628711894597, -7463.739212005045, -4402.354884428369, -2995.826661089261, -4514.091254960448, -3708.8920127024667, -10385.961578602979, -14107.482326922694, 0.008, -0.1085, 0.988, 192.0, 0.0, 0.0, 0.0, 0.0, 0.0, 0.0, 0.0, 0.0, 0.0, 1.645920634660371E9, 0.0, 2022-02-27 11:10:34.660
204.0, -2996.4078064450987, -5926.676801046944, -1615.3158682961307, -10811.605848265392, -1080.97506534756, 379.5326208511139, -5127.154901880611, -2027.3255738408059, -3794.0298073327313, -7510.8119858279215, -4382.014796974039, -3245.5179983994963, -4478.4402225542335, -3736.8763967605114, -10671.527465763982, -14333.525518599216, 0.009000000000000001, -0.10725, 0.986, 192.0, 0.0, 40.0, 126.0, 88.0, 15.0, 96.0, 0.0, 0.0, 0.0, 1.645920634666987E9, 0.0, 2022-02-27 11:10:34.666
206.0, -3334.0756099314226, -6102.585029910211, -1757.785887454258, -11017.979504821242, -1384.7129207507278, 189.07340634744244, -5118.951811665513, -2111.055208570386, -4596.3680263004335, -8059.569663950166, -4437.536530201021, -3204.8378234908373, -4502.825975754974, -3807.2620400502733, -10768.42227797774, -14890.888618336752, 0.009000000000000001, -0.10725, 0.986, 192.0, 0.0, 0.0, 0.0, 0.0, 0.0, 0.0, 0.0, 0.0, 0.0, 1.645920634675006E9, 0.0, 2022-02-27 11:10:34.675
208.0, -3166.6610439611727, -6052.204197907949, -1699.827814081647, -10912.032236103087, -1234.1739218442349, 266.8351253074557, -5110.8604801726915, -2012.5957742447586, -2549.7976004836087, -7181.034348134322, -4371.174200913215, -3038.8090656768163, -4498.780310008563, -3689.848326426545, -10369.689508639516, -13846.235137729067, 0.009000000000000001, -0.10725, 0.986, 192.0, 0.0, 0.0, 0.0, 0.0, 0.0, 0.0, 0.0, 0.0, 0.0, 1.645920634682183E9, 0.0, 2022-02-27 11:10:34.682
210.0, -3097.214173938534, -5961.210246230394, -1658.633549050516, -10891.915666093311, -1186.5423544099754, 339.2324255981953, -5142.108218921211, -2109.200013780596, -5091.637979941128, -8038.78254160673, -4419.789245103508, -3365.457459146674, -4472.919341673773, -3804.266906293262, -10938.764922471633, -14993.259607942058, 0.009000000000000001, -0.10725, 0.986, 192.0, 0.0, 0.0, 0.0, 0.0, 0.0, 0.0, 0.0, 0.0, 0.0, 1.64592063468934E9, 0.0, 2022-02-27 11:10:34.689
212.0, -3356.5391131090064, -6154.619891002166, -1775.108489407121, -11023.969772335264, -1398.191022657278, 168.55450493747057, -5115.442587786029, -2038.0991146682638, -2876.9153805870274, -7464.6779852721675, -4409.842718820896, -3000.0287890468585, -4517.555775351021, -3724.8735099880114, -10386.72153791446, -14111.639751391382, 0.009000000000000001, -0.10725, 0.986, 192.0, 0.0, 0.0, 0.0, 0.0, 0.0, 0.0, 0.0, 0.0, 0.0, 1.645920634696629E9, 0.0, 2022-02-27 11:10:34.696
214.0, -2995.603143644708, -5934.186987183927, -1613.863004906536, -10816.94791519021, -1077.108213556792, 389.45679538927027, -5130.150035637622, -2044.0446786933755, -3785.603199673081, -7508.085073004374, -4383.981750486106, -3241.9864227755575, -4476.517972531077, -3731.556681580148, -10669.716974463103, -14335.291306411185, 0.0105, -0.106625, 0.987, 192.0, 0.0, 48.0, 126.0, 88.0, 15.0, 112.0, 0.0, 0.0, 0.0, 1.645920634704605E9, 0.0, 2022-02-27 11:10:34.704
216.0, -3350.3700316393415, -6134.413914014568, -1758.5011432768279, -11029.89298461592, -1381.2931038490658, 192.0908918489089, -5105.093730103223, -2087.8540978257774, -4611.187232874302, -8084.581265995654, -4444.890254126818, -3217.041875963435, -4500.009655953605, -3804.13279582653, -10770.9927285901, -14903.964388843107, 0.0105, -0.106625, 0.987, 192.0, 0.0, 0.0, 0.0, 0.0, 0.0, 0.0, 0.0, 0.0, 0.0, 1.645920634712695E9, 0.0, 2022-02-27 11:10:34.712
218.0, -3193.170212885167, -6082.133183733605, -1707.4721106853617, -10920.481195507193, -1231.067029364947, 276.3793201898718, -5087.972293850457, -1978.0623290613091, -2560.4146790998793, -7212.438549094028, -4388.094471465883, -3053.2929960838555, -4505.105853689415, -3695.6150764960144, -10366.448505693497, -13848.336201707865, 0.0105, -0.106625, 0.987, 192.0, 0.0, 0.0, 0.0, 0.0, 0.0, 0.0, 0.0, 0.0, 0.0, 1.645920634719224E9, 0.0, 2022-02-27 11:10:34.719
220.0, -3117.9342410486033, -5987.071214565184, -1664.4002991199852, -10896.095442306452, -1161.75426980904, 347.74844023566726, -5118.303611076309, -2074.308940685861, -5098.075282344256, -8059.457905227889, -4437.9388616012175, -3376.3651104408636, -4480.675396999764, -3800.7800341582342, -10936.775617215111, -14991.739689319098, 0.0105, -0.106625, 0.987, 192.0, 0.0, 0.0, 0.0, 0.0, 0.0, 0.0, 0.0, 0.0, 0.0, 1.645920634727386E9, 0.0, 2022-02-27 11:10:34.727
222.0, -3392.4136629597742, -6194.875382766174, -1791.8275942596906, -11040.353601021005, -1376.7109962357279, 173.60599918436995, -5073.95775007698, -2020.8882714376775, -2928.279689345323, -7521.049084788452, -4433.021477821049, -3015.4514927210207, -4523.747208565141, -3725.141730921475, -10387.012110592379, -14132.337466756997, 0.0105, -0.106625, 0.987, 192.0, 0.0, 0.0, 0.0, 0.0, 0.0, 0.0, 0.0, 0.0, 0.0, 1.645920634735295E9, 0.0, 2022-02-27 11:10:34.735
224.0, -3028.214338805001, -5967.736955611344, -1629.4421707918848, -10831.8565287419, -1061.3949372047111, 395.17884196982885, -5102.679741702049, -2003.5880212292698, -3758.0211470152317, -7521.987858055575, -4405.5958873743875, -3253.296405469943, -4486.330388346957, -3729.4109141124386, -10659.502227247027, -14319.443919592371, 0.01225, -0.1053125, 0.9884999999999999, 192.0, 0.0, 56.0, 126.0, 96.0, 15.0, 120.0, 0.0, 0.0, 0.0, 1.6459206347489E9, 0.0, 2022-02-27 11:10:34.748
226.0, -3379.6061133868834, -6162.6218155171655, -1770.5487335382384, -11042.745237677722, -1364.1493158518454, 201.09864486439764, -5087.9052386170915, -2079.9862837775095, -4665.5690271340645, -8120.053484446226, -4469.097193371916, -3248.647242623239, -4508.816243268996, -3811.4418162634156, -10778.748783916091, -14916.61547620481, 0.01225, -0.1053125, 0.9884999999999999, 192.0, 0.0, 0.0, 0.0, 0.0, 0.0, 0.0, 0.0, 0.0, 0.0, 1.645920634757005E9, 0.0, 2022-02-27 11:10:34.757
228.0, -3222.6968673106276, -6118.030085328828, -1714.9599450778896, -10936.239175348184, -1225.2779275510225, 268.8467823084334, -5100.601029467706, -1990.6016577007365, -2560.3476238665135, -7239.461808140494, -4408.434558920212, -3071.688481770573, -4516.795816039541, -3700.688922487369, -10362.246377735899, -13850.481969175575, 0.01225, -0.1053125, 0.9884999999999999, 192.0, 0.0, 0.0, 0.0, 0.0, 0.0, 0.0, 0.0, 0.0, 0.0, 1.645920634764927E9, 0.0, 2022-02-27 11:10:34.764
230.0, -3126.159683008156, -6007.90304039753, -1658.0077002057674, -10895.715462650713, -1154.0876214608695, 349.3130623475388, -5116.001381397412, -2090.7598246049674, -5087.81583163927, -8073.651262957009, -4450.902873385296, -3389.0161978025676, -4484.832821468452, -3804.1551475709857, -10935.099236380964, -14982.128439203316, 0.01225, -0.1053125, 0.9884999999999999, 192.0, 0.0, 0.0, 0.0, 0.0, 0.0, 0.0, 0.0, 0.0, 0.0, 1.645920634771556E9, 0.0, 2022-02-27 11:10:34.771
232.0, -3414.027799848056, -6219.082322011272, -1794.5545070832381, -11047.439104013338, -1383.8859062058814, 169.26976076004038, -5072.951921576491, -2021.3129545823283, -2963.371928140155, -7557.147152083773, -4444.018536093061, -3030.091885339247, -4524.529519621077, -3733.523635092215, -10395.908104885591, -14154.37628678993, 0.01225, -0.1053125, 0.9884999999999999, 192.0, 0.0, 0.0, 0.0, 0.0, 0.0, 0.0, 0.0, 0.0, 0.0, 1.645920634779576E9, 0.0, 2022-02-27 11:10:34.779
234.0, -3041.781847689372, -5986.355958742614, -1636.728839484315, -10833.085874686942, -1069.530972186443, 398.1516239823847, -5101.830375412747, -2020.3518295707502, -3731.4449228578715, -7532.20260527165, -4419.498672425589, -3260.583074162373, -4490.59957153792, -3732.6966205473686, -10656.171817323187, -14302.434242061883, 0.012125, -0.10665625000000001, 0.98825, 192.0, 0.0, 48.0, 126.0, 80.0, 15.0, 112.0, 0.0, 0.0, 0.0, 1.645920634787423E9, 0.0, 2022-02-27 11:10:34.787
236.0, -3380.7237006096484, -6161.705393994498, -1772.918018450501, -11037.738446919733, -1369.513734521119, 203.64674373230264, -5091.280352029843, -2073.683091841113, -4717.805053926117, -8139.723019566896, -4476.897952186818, -3257.2526642385324, -4508.235097913158, -3815.845109921111, -10795.333778301929, -14933.401636290746, 0.012125, -0.10665625000000001, 0.98825, 192.0, 0.0, 0.0, 0.0, 0.0, 0.0, 0.0, 0.0, 0.0, 0.0, 1.645920634794735E9, 0.0, 2022-02-27 11:10:34.794
238.0, -3229.380038902764, -6112.129224792627, -1717.9103753459901, -10935.903899181354, -1226.619032218341, 272.02073002108693, -5081.24441876941, -1975.804802871323, -2551.8763127179523, -7222.318020143273, -4409.641553120799, -3062.077231654791, -4512.616039826398, -3701.180660865386, -10358.066601522756, -13838.099102747334, 0.012125, -0.10665625000000001, 0.98825, 192.0, 0.0, 0.0, 0.0, 0.0, 0.0, 0.0, 0.0, 0.0, 0.0, 1.645920634801253E9, 0.0, 2022-02-27 11:10:34.801
240.0, -3121.912851561648, -5993.463813479401, -1656.9571682163678, -10894.977855083687, -1143.8728742447943, 366.4121468558487, -5108.312381304787, -2071.671434840135, -5075.38826172212, -8058.385021494034, -4446.790152405519, -3385.998712301101, -4484.050510412516, -3803.3057812816837, -10926.11383510993, -14966.996308207074, 0.012125, -0.10665625000000001, 0.98825, 192.0, 0.0, 0.0, 0.0, 0.0, 0.0, 0.0, 0.0, 0.0, 0.0, 1.64592063480916E9, 0.0, 2022-02-27 11:10:34.809
242.0, -3410.742093413126, -6200.217449690992, -1788.430129102484, -11047.081476102052, -1380.063757904024, 170.5661619384482, -5083.479593214941, -2010.8299864327894, -2999.917030324582, -7563.427992275714, -4440.2857947690245, -3026.7167719264953, -4527.5693568669985, -3742.307870663151, -10393.941151373525, -14164.434571794818, 0.012125, -0.10665625000000001, 0.98825, 192.0, 0.0, 0.0, 0.0, 0.0, 0.0, 0.0, 0.0, 0.0, 0.0, 1.645920634817135E9, 0.0, 2022-02-27 11:10:34.817
244.0, -3044.039373879358, -5977.035281304751, -1629.151598113966, -10836.617450310881, -1072.4143472211776, 389.65796108936803, -5109.117044105178, -2002.358675284228, -3689.535402004171, -7509.560288138425, -4411.563803143955, -3247.283786211465, -4493.393539594834, -3740.586786340092, -10641.777293893969, -14281.06597436261, 0.0080625, -0.109328125, 0.987125, 192.0, 0.0, 16.0, 126.0, 64.0, 15.0, 104.0, 0.0, 0.0, 0.0, 1.645920634824342E9, 0.0, 2022-02-27 11:10:34.824
246.0, -3373.2135144726653, -6147.847312432207, -1758.2105705989088, -11036.978487608254, -1364.3057780630324, 205.47958677763782, -5105.183137081044, -2081.170926233641, -4749.209254885824, -8144.573348113699, -4477.434394053745, -3261.0524607959346, -4511.833728770463, -3827.244499593318, -10795.065557368465, -14944.711618985131, 0.0080625, -0.109328125, 0.987125, 192.0, 0.0, 0.0, 0.0, 0.0, 0.0, 0.0, 0.0, 0.0, 0.0, 1.645920634831842E9, 0.0, 2022-02-27 11:10:34.831
248.0, -3232.621041848784, -6105.78132936732, -1715.3846282225404, -10941.49183529518, -1228.00484037457, 274.6582358668132, -5094.163727064577, -1970.619198157692, -2536.721829977254, -7219.345238130718, -4415.654172379276, -3058.7691734754058, -4519.187452696258, -3703.1923178663637, -10348.880034551625, -13833.807567811915, 0.0080625, -0.109328125, 0.987125, 192.0, 0.0, 0.0, 0.0, 0.0, 0.0, 0.0, 0.0, 0.0, 0.0, 1.645920634840002E9, 0.0, 2022-02-27 11:10:34.840
