%OpenBCI Raw EEG Data
%Number of channels = 16
%Sample Rate = 125 Hz
%Board = OpenBCI_GUI$BoardCytonSerialDaisy
Sample Index, EXG Channel 0, EXG Channel 1, EXG Channel 2, EXG Channel 3, EXG Channel 4, EXG Channel 5, EXG Channel 6, EXG Channel 7, EXG Channel 8, EXG Channel 9, EXG Channel 10, EXG Channel 11, EXG Channel 12, EXG Channel 13, EXG Channel 14, EXG Channel 15, Accel Channel 0, Accel Channel 1, Accel Channel 2, Other, Other, Other, Other, Other, Other, Other, Analog Channel 0, Analog Channel 1, Analog Channel 2, Timestamp, Other, Timestamp (Formatted)
254.0, -2535.2466148432036, -5752.04262161763, -2183.1395844387516, -10957.585091303003, -929.8325693407738, -104.71792277311359, -5317.658819873192, -1943.9535670225105, -2392.396616029336, -7152.245301275886, -4490.711330260197, -3523.1713680233206, -4876.3012738586995, -3683.4110240234168, -10087.789307569183, -14243.336229722052, 0.006, -0.052000000000000005, 0.509, 192.0, 0.0, 48.0, 126.0, 96.0, 15.5, 104.0, 0.0, 0.0, 0.0, 1.645920988553265E9, 0.0, 2022-02-27 11:16:28.553
0.0, -1823.7682370863245, -5198.725187626504, -1722.0901515591327, -10483.035204772379, -306.48711997117044, 375.57636208252455, -5130.351201337719, -1766.6818817474702, -3454.5738642899832, -6880.917475332913, -4013.9262692840425, -3397.9121920957796, -4354.4103925717345, -3234.8562162943144, -10067.695089303863, -14275.478038248782, 0.006, -0.052000000000000005, 0.509, 192.0, 0.0, 0.0, 0.0, 0.0, 0.0, 0.0, 0.0, 0.0, 0.0, 1.645920988553268E9, 0.0, 2022-02-27 11:16:28.553
0.0, -1237.2808143235225, -2803.713417495897, -1078.5163734574764, -5434.089056740887, -468.09023238304053, 18.26137521998587, -2641.707973683831, -885.4643565969893, -1661.3381101296081, -3821.2095285903847, -2308.175242921739, -1823.7905888307798, -2488.0620822980504, -1919.2325376549409, -5157.530922595372, -7409.245659023007, 0.012, -0.10200000000000001, 1.004, 192.0, 0.0, 48.0, 126.0, 104.0, 15.5, 48.0, 0.0, 0.0, 0.0, 1.645920988659596E9, 0.0, 2022-02-27 11:16:28.659
2.0, -1937.2033401970077, -5213.298525011364, -1815.3416294266738, -10494.769870611415, -462.1223166134735, 387.93687676630935, -5138.196663641532, -1610.2643740492315, -2761.870951875562, -6705.769205781127, -4114.397360610647, -3362.0376422450117, -4519.634487585365, -3239.751248330027, -9955.511683882676, -14052.519387307095, 0.012, -0.10200000000000001, 1.004, 192.0, 0.0, 0.0, 0.0, 0.0, 0.0, 0.0, 0.0, 0.0, 0.0, 1.645920988665668E9, 0.0, 2022-02-27 11:16:28.665
4.0, -2596.2445254617364, -5713.217641498762, -2307.3929318658033, -11048.601394725012, -1084.1043095713032, -110.7752455205018, -5528.435770086739, -2103.0756357998416, -4899.792957281227, -7698.387825296859, -4293.390130208746, -3610.276116165652, -4625.335887114512, -3463.134582416366, -10393.695282184515, -15229.87517474594, 0.012, -0.10200000000000001, 1.004, 192.0, 0.0, 0.0, 0.0, 0.0, 0.0, 0.0, 0.0, 0.0, 0.0, 1.64592098867192E9, 0.0, 2022-02-27 11:16:28.671
6.0, -2269.2385040805943, -5453.020984294532, -2018.0719516363088, -10721.26009717704, -758.5958550686664, 170.43205147171636, -5235.583214233305, -1682.1922877064096, -2085.5742198913363, -6766.588302444017, -4332.662145216721, -3398.1357095403328, -4756.160647411424, -3427.9082331548016, -9935.842148762005, -13968.968566533158, 0.015000000000000001, -0.10200000000000001, 1.0, 192.0, 0.0, 72.0, 126.0, 104.0, 15.5, 16.0, 0.0, 0.0, 0.0, 1.645920988678131E9, 0.0, 2022-02-27 11:16:28.678
8.0, -2106.517804445959, -5348.2360062880525, -1963.3548812097172, -10669.87343667429, -635.7283157978435, 235.38622085883867, -5317.658819873192, -1868.1140980856537, -4362.501724064556, -7192.590200017715, -4074.1418688466397, -3473.1258121878877, -4426.517120184555, -3249.965995546102, -10203.638399081041, -14751.927823058108, 0.015000000000000001, -0.10200000000000001, 1.0, 192.0, 0.0, 0.0, 0.0, 0.0, 0.0, 0.0, 0.0, 0.0, 0.0, 1.645920988684356E9, 0.0, 2022-02-27 11:16:28.684
10.0, -2645.5301219856888, -5751.305014050605, -2294.451271826181, -11024.640324668924, -1103.4385685251439, -108.29420188596272, -5418.331076899895, -1946.836942057245, -3358.0143282430568, -7414.453615481093, -4490.130184904359, -3561.526961508627, -4867.271169098755, -3594.786357258124, -10211.237992195844, -14706.553781813835, 0.015000000000000001, -0.10200000000000001, 1.0, 192.0, 0.0, 0.0, 0.0, 0.0, 0.0, 0.0, 0.0, 0.0, 0.0, 1.645920988691665E9, 0.0, 2022-02-27 11:16:28.691
12.0, -1956.3811369396612, -5229.771760674926, -1825.9810597873998, -10501.922428837113, -480.20487787781695, 377.40920512785976, -5156.279224905876, -1601.6813041783935, -2760.932178608439, -6712.340618650987, -4130.043581729363, -3367.424412658741, -4535.236005215169, -3248.4237251786863, -9960.853750807495, -14052.385276840363, 0.015000000000000001, -0.10200000000000001, 1.0, 192.0, 0.0, 0.0, 0.0, 0.0, 0.0, 0.0, 0.0, 0.0, 0.0, 1.645920988699762E9, 0.0, 2022-02-27 11:16:28.699
14.0, -2594.5010893942226, -5715.810443855577, -2309.046960955496, -11041.001801610208, -1081.623265936764, -109.85882399783421, -5545.646613317324, -2080.9697605335427, -4923.754027337316, -7700.153613108828, -4303.336656491359, -3606.3869126304285, -4635.193006419302, -3462.441678338251, -10404.781747434348, -15236.468939360255, 0.015000000000000001, -0.10200000000000001, 1.0, 192.0, 0.0, 0.0, 0.0, 0.0, 0.0, 0.0, 0.0, 0.0, 0.0, 1.645920988706228E9, 0.0, 2022-02-27 11:16:28.706
16.0, -2280.5931902638904, -5465.426202467228, -2030.0524866643534, -10727.809158302445, -764.1837911824931, 161.58076066741475, -5215.712513412537, -1685.4779941413397, -2103.70148464459, -6774.791392659115, -4345.29088083397, -3398.4709857071625, -4769.728156295795, -3432.87032042388, -9942.30180290959, -13974.914130558269, 0.0175, -0.10300000000000001, 0.997, 192.0, 0.0, 80.0, 126.0, 96.0, 15.5, 8.0, 0.0, 0.0, 0.0, 1.645920988721417E9, 0.0, 2022-02-27 11:16:28.721
18.0, -2111.70340915959, -5350.158256311209, -1973.1896487700521, -10677.227160600087, -625.8488447485978, 237.55434007100345, -5323.224404242565, -1862.9508451164777, -4363.261683376037, -7207.118833913664, -4084.6024852517235, -3486.0674722275107, -4438.922338357251, -3248.222559478588, -10209.82983229516, -14753.134817258695, 0.0175, -0.10300000000000001, 0.997, 192.0, 0.0, 0.0, 0.0, 0.0, 0.0, 0.0, 0.0, 0.0, 0.0, 1.645920988729366E9, 0.0, 2022-02-27 11:16:28.729
20.0, -2651.2521685662473, -5742.029040101653, -2298.8545654838763, -11030.876461371954, -1101.0245801239705, -111.4010943652504, -5453.043336038988, -1951.709622348502, -3383.092985521911, -7423.886051641232, -4494.1758506507695, -3572.635778502915, -4876.055404669691, -3606.498671352705, -10222.816195823694, -14713.840450506264, 0.0175, -0.10300000000000001, 0.997, 192.0, 0.0, 0.0, 0.0, 0.0, 0.0, 0.0, 0.0, 0.0, 0.0, 1.645920988735907E9, 0.0, 2022-02-27 11:16:28.735
22.0, -1962.6396253871474, -5233.1245223432215, -1825.5116731538385, -10508.65030391816, -467.1291073714623, 374.8164027710441, -5135.737971751449, -1607.023371103212, -2739.832131842629, -6685.049138671057, -4135.184482954083, -3366.3291771804306, -4541.203920984736, -3260.5160189290073, -9961.658413607885, -14046.819692470992, 0.0175, -0.10300000000000001, 0.997, 192.0, 0.0, 0.0, 0.0, 0.0, 0.0, 0.0, 0.0, 0.0, 0.0, 1.645920988743911E9, 0.0, 2022-02-27 11:16:28.743
24.0, -2591.8859352929517, -5713.664676387868, -2301.4920713296024, -11046.992069124231, -1078.8963531132167, -104.47205358410521, -5538.158778924797, -2087.1388420032076, -4937.7015158774275, -7705.898011433842, -4303.671932658188, -3613.651229578403, -4636.4447041088, -3467.1355446738658, -10403.15007008911, -15242.168634196358, 0.0175, -0.10300000000000001, 0.997, 192.0, 0.0, 0.0, 0.0, 0.0, 0.0, 0.0, 0.0, 0.0, 0.0, 1.64592098875334E9, 0.0, 2022-02-27 11:16:28.753
26.0, -2286.918733944742, -5473.27166477104, -2024.35279182825, -10741.019039275532, -759.802849269253, 161.80427811196782, -5243.026345136923, -1699.9619245483786, -2102.338028232816, -6795.243238835721, -4345.983784912084, -3407.0317038335447, -4771.337481896578, -3427.6623639657932, -9949.677878579841, -13994.136630789833, 0.01575, -0.10450000000000001, 0.9935, 192.0, 0.0, 56.0, 126.0, 88.0, 15.0, 120.0, 0.0, 0.0, 0.0, 1.645920988759042E9, 0.0, 2022-02-27 11:16:28.759
28.0, -2094.6266763957356, -5340.256433517508, -1958.5716078962814, -10673.136791364765, -628.6204610610558, 245.06452620798663, -5351.789933656447, -1859.3745660036286, -4327.253023058537, -7196.747624486402, -4073.9183514020865, -3471.896466242846, -4431.1886347757145, -3223.0321434774573, -10214.702512586417, -14751.816064335831, 0.01575, -0.10450000000000001, 0.9935, 192.0, 0.0, 0.0, 0.0, 0.0, 0.0, 0.0, 0.0, 0.0, 0.0, 1.645920988767259E9, 0.0, 2022-02-27 11:16:28.767
30.0, -2656.19190409087, -5751.953214639809, -2306.878841743331, -11041.985278366243, -1118.0566093989146, -119.76064679153524, -5431.496254384071, -1942.7242210774687, -3418.7663696725813, -7430.7480371890115, -4492.208897138703, -3574.7144907372585, -4883.587942551129, -3602.0953776950096, -10241.07757104368, -14738.337962429281, 0.01575, -0.10450000000000001, 0.9935, 192.0, 0.0, 0.0, 0.0, 0.0, 0.0, 0.0, 0.0, 0.0, 0.0, 1.645920988773422E9, 0.0, 2022-02-27 11:16:28.773
32.0, -1956.6717096175803, -5226.061371095344, -1828.1491789995646, -10515.422882488117, -473.32054058558236, 357.80672524055547, -5149.439591102551, -1635.1195138835328, -2732.098428261093, -6705.724502292216, -4135.6762213321, -3384.679959378238, -4554.860836846929, -3278.0397865819677, -9970.39794568991, -14058.06261993201, 0.01575, -0.10450000000000001, 0.9935, 192.0, 0.0, 0.0, 0.0, 0.0, 0.0, 0.0, 0.0, 0.0, 0.0, 1.645920988780945E9, 0.0, 2022-02-27 11:16:28.780
34.0, -2583.7946038001305, -5707.093263518008, -2300.6203532958452, -11046.14270283493, -1069.754489630996, -117.3913618792727, -5548.261767418596, -2125.4273802551484, -4947.782152626772, -7701.561773009512, -4287.936304561652, -3623.2624796941855, -4632.622555806942, -3465.056832439522, -10409.0062271364, -15260.474712905254, 0.01575, -0.10450000000000001, 0.9935, 192.0, 0.0, 0.0, 0.0, 0.0, 0.0, 0.0, 0.0, 0.0, 0.0, 1.645920988788816E9, 0.0, 2022-02-27 11:16:28.788
36.0, -2305.895364987298, -5488.917885889756, -2047.8221235063224, -10748.998612046076, -789.0165792723393, 138.0443737559764, -5255.968005176545, -1685.8803255415353, -2131.4847030025367, -6810.934163443347, -4355.3491658388575, -3424.376657530863, -4785.262618692233, -3443.018012406589, -9961.479599652243, -14017.874183401369, 0.015875, -0.10625000000000001, 0.99075, 192.0, 0.0, 64.0, 126.0, 80.0, 15.0, 112.0, 0.0, 0.0, 0.0, 1.645920988796948E9, 0.0, 2022-02-27 11:16:28.796
38.0, -2093.486737428515, -5343.743305652536, -1968.0487475453315, -10665.604253483327, -638.097600710106, 226.49022656562647, -5342.223387029575, -1860.849781137679, -4321.2404038000595, -7198.222839620453, -4083.641360240145, -3477.2385331676646, -4450.388783262823, -3245.5627018884065, -10223.93378304646, -14748.39624743417, 0.015875, -0.10625000000000001, 0.99075, 192.0, 0.0, 0.0, 0.0, 0.0, 0.0, 0.0, 0.0, 0.0, 0.0, 1.645920988803573E9, 0.0, 2022-02-27 11:16:28.803
40.0, -2656.2142558353253, -5749.047487860619, -2314.321972646949, -11040.867691143476, -1123.756304235018, -137.17265572221945, -5470.924731603233, -1983.0914715637532, -3462.9781202051786, -7439.442865782126, -4489.481984315155, -3581.9341041963226, -4885.197268151912, -3607.2809824086407, -10255.941481106458, -14775.754782647466, 0.015875, -0.10625000000000001, 0.99075, 192.0, 0.0, 0.0, 0.0, 0.0, 0.0, 0.0, 0.0, 0.0, 0.0, 1.645920988811598E9, 0.0, 2022-02-27 11:16:28.811
42.0, -1965.1206690216864, -5243.22751083702, -1837.5145599263383, -10512.159527797643, -490.48668032725817, 354.789239739089, -5190.589152644772, -1616.9922491302789, -2700.515413345744, -6712.251211673166, -4136.279718432394, -3375.5380958960172, -4561.186380527781, -3259.0855072838676, -9981.26089349519, -14057.704992020726, 0.015875, -0.10625000000000001, 0.99075, 192.0, 0.0, 0.0, 0.0, 0.0, 0.0, 0.0, 0.0, 0.0, 0.0, 1.645920988819447E9, 0.0, 2022-02-27 11:16:28.819
44.0, -2584.3757491559686, -5714.759911866178, -2301.6932370297, -11036.643211441424, -1073.2413617660238, -128.2096061956413, -5527.139368908331, -2093.486737428515, -4975.185391328978, -7707.306171334526, -4291.222010996582, -3627.978697774255, -4636.176483175335, -3452.6292625223714, -10422.73019823196, -15258.999497771205, 0.015875, -0.10625000000000001, 0.99075, 192.0, 0.0, 0.0, 0.0, 0.0, 0.0, 0.0, 0.0, 0.0, 0.0, 1.645920988826645E9, 0.0, 2022-02-27 11:16:28.826
46.0, -2325.475493130147, -5508.654476243792, -2056.6957660550793, -10756.039411549498, -803.6569718905654, 101.32045761590692, -5245.663850982649, -1718.0891893016326, -2171.0696424328858, -6833.643535809939, -4364.580436298899, -3439.8440646939357, -4800.193583988379, -3456.9431492022454, -9971.940216057326, -14044.852738958925, 0.0149375, -0.108125, 0.988375, 192.0, 0.0, 56.0, 126.0, 72.0, 15.0, 104.0, 0.0, 0.0, 0.0, 1.645920988841136E9, 0.0, 2022-02-27 11:16:28.841
48.0, -2111.6140021817687, -5357.355518025818, -1958.549256151826, -10655.993003367545, -623.3454493696033, 218.08597065043102, -5329.684058390148, -1850.456219965961, -4298.665141900199, -7184.878848180634, -4078.1204793596844, -3486.8050797945357, -4448.757105917586, -3246.0544402664236, -10211.126233473567, -14734.24759319396, 0.0149375, -0.108125, 0.988375, 192.0, 0.0, 0.0, 0.0, 0.0, 0.0, 0.0, 0.0, 0.0, 0.0, 1.64592098884917E9, 0.0, 2022-02-27 11:16:28.849
50.0, -2699.4425296118893, -5798.198973917839, -2310.5445278340017, -11036.777321908155, -1128.65133627073, -149.89079831728915, -5466.364975734351, -1959.7338986079574, -3485.218105938209, -7456.340784590338, -4494.980513451161, -3594.8534124914904, -4880.01166343828, -3603.592944573515, -10249.92886184798, -14769.518645944436, 0.0149375, -0.108125, 0.988375, 192.0, 0.0, 0.0, 0.0, 0.0, 0.0, 0.0, 0.0, 0.0, 0.0, 1.645920988856174E9, 0.0, 2022-02-27 11:16:28.856
52.0, -2034.9475187000655, -5306.415892412173, -1835.5029029253608, -10511.667789419627, -490.46432858280286, 331.0963906164635, -5166.628082588682, -1618.4004090309631, -2726.957527036372, -6725.528147879619, -4150.003689527952, -3399.990904330123, -4563.466258462222, -3275.31287375842, -9969.570931145065, -14051.02182042859, 0.0149375, -0.108125, 0.988375, 192.0, 0.0, 0.0, 0.0, 0.0, 0.0, 0.0, 0.0, 0.0, 0.0, 1.645920988863917E9, 0.0, 2022-02-27 11:16:28.863
54.0, -2686.3891108499897, -5811.431206635381, -2303.637838797312, -11031.94934510581, -1076.1023850563033, -123.4263328822056, -5536.52710157956, -2085.395405935694, -5002.566278286729, -7718.794967984554, -4304.431891969668, -3641.3226892140738, -4632.644907551397, -3459.4688963256954, -10416.024674895367, -15256.607861114486, 0.0149375, -0.108125, 0.988375, 192.0, 0.0, 0.0, 0.0, 0.0, 0.0, 0.0, 0.0, 0.0, 0.0, 1.645920988871795E9, 0.0, 2022-02-27 11:16:28.871
56.0, -2489.2467247541817, -5657.003004193664, -2064.161248703152, -10755.212397004652, -787.4743089049231, 127.02496373951004, -5230.0176298639335, -1683.108709229077, -2203.5243753819914, -6853.804809308625, -4394.665884335743, -3457.8595707249133, -4794.04685426317, -3427.125922098866, -9964.295919453612, -14021.49516600313, 0.01646875, -0.1090625, 0.9871875, 192.0, 0.0, 72.0, 126.0, 72.0, 15.0, 104.0, 0.0, 0.0, 0.0, 1.645920988878725E9, 0.0, 2022-02-27 11:16:28.878
58.0, -2308.5552225774795, -5551.994508742632, -1970.2168667574963, -10664.039631371455, -614.002420187285, 224.97030794266558, -5308.0252180129555, -1849.003356576366, -4366.949721211162, -7243.52982563136, -4140.504198134447, -3539.1752170533205, -4451.886350141329, -3246.657937366717, -10204.934800259447, -14727.050331479351, 0.01646875, -0.1090625, 0.9871875, 192.0, 0.0, 0.0, 0.0, 0.0, 0.0, 0.0, 0.0, 0.0, 0.0, 1.645920988886543E9, 0.0, 2022-02-27 11:16:28.886
60.0, -2916.9697066509375, -6004.147947329038, -2326.280155930538, -11048.601394725012, -1116.916670431694, -135.65273709925856, -5451.456362182661, -1935.8398837852342, -3605.537546341127, -7531.666163404723, -4555.240816502669, -3655.1584190319086, -4875.943645947415, -3608.376217886951, -10249.191254280955, -14784.650776940678, 0.01646875, -0.1090625, 0.9871875, 192.0, 0.0, 0.0, 0.0, 0.0, 0.0, 0.0, 0.0, 0.0, 0.0, 1.645920988893536E9, 0.0, 2022-02-27 11:16:28.893
62.0, -2237.856654865343, -5497.724473205147, -1848.8692461096343, -10516.60752494425, -478.8637732104985, 355.7503647506672, -5144.388096855652, -1594.9981325862566, -2772.7562514252963, -6778.747651427705, -4212.432111791624, -3452.8751317113797, -4559.4429444602665, -3262.8629520968143, -9960.652585107397, -14032.559279508505, 0.01646875, -0.1090625, 0.9871875, 192.0, 0.0, 0.0, 0.0, 0.0, 0.0, 0.0, 0.0, 0.0, 0.0, 1.645920988901515E9, 0.0, 2022-02-27 11:16:28.901
64.0, -2848.8639412956168, -5954.772943827265, -2310.723341789644, -11030.585888694035, -1050.531989399432, -102.08041692738736, -5521.372618838861, -2075.448879653082, -5070.850857597692, -7752.1214189674165, -4359.126610651804, -3692.7093497168244, -4618.049218422082, -3453.411573578307, -10407.754529446904, -15241.63219232943, 0.01646875, -0.1090625, 0.9871875, 192.0, 0.0, 0.0, 0.0, 0.0, 0.0, 0.0, 0.0, 0.0, 0.0, 1.645920988908606E9, 0.0, 2022-02-27 11:16:28.908
66.0, -2589.6060573585105, -5749.293357049627, -2073.2360569520065, -10760.80033311848, -789.4859659059008, 134.33398417639543, -5262.450011068584, -1691.2670959552643, -2268.9032279137646, -6893.4791557167955, -4440.2857947690245, -3513.69422837427, -4792.146955984468, -3452.6516142668265, -9970.219131734268, -14034.883860931857, 0.018234375, -0.10953125, 0.98759375, 192.0, 0.0, 80.0, 126.0, 72.0, 15.0, 112.0, 0.0, 0.0, 0.0, 1.645920988916068E9, 0.0, 2022-02-27 11:16:28.916
68.0, -2336.8972345468087, -5571.619340374392, -1972.9661313254992, -10657.803494668424, -601.4854432923131, 244.05869770749783, -5330.466369446083, -1841.2249495059193, -4352.845770459863, -7230.386999891639, -4151.590663384279, -3552.8544846599684, -4442.811541892474, -3238.0078122625127, -10205.225372937366, -14711.828793505287, 0.018234375, -0.10953125, 0.98759375, 192.0, 0.0, 0.0, 0.0, 0.0, 0.0, 0.0, 0.0, 0.0, 0.0, 1.645920988924092E9, 0.0, 2022-02-27 11:16:28.924
70.0, -2923.4964160318873, -5988.99346458834, -2340.7417345931217, -11052.647060471423, -1109.5182430169873, -136.47975164410494, -5419.73923680058, -1958.616311385192, -3623.6424593499255, -7539.489273964081, -4562.661595661831, -3675.9902448642547, -4877.664730270473, -3616.6910668243254, -10248.40894322502, -14789.679919443122, 0.018234375, -0.10953125, 0.98759375, 192.0, 0.0, 0.0, 0.0, 0.0, 0.0, 0.0, 0.0, 0.0, 0.0, 1.645920988931995E9, 0.0, 2022-02-27 11:16:28.931
72.0, -2218.8129685894214, -5468.063708312954, -1873.5008684993827, -10527.537527982895, -488.45267158182526, 346.98848092418683, -5133.9274804505685, -1608.5432897261728, -2783.6862544639416, -6773.718508925261, -4223.518577041456, -3461.6817190267707, -4573.3010260225565, -3283.001873851046, -9956.182236216335, -14038.773064467081, 0.018234375, -0.10953125, 0.98759375, 192.0, 0.0, 0.0, 0.0, 0.0, 0.0, 0.0, 0.0, 0.0, 0.0, 1.645920988938663E9, 0.0, 2022-02-27 11:16:28.938
74.0, -2802.3276093396676, -5916.082074175129, -2328.403571653792, -11041.024153354663, -1061.6184546492643, -111.66931529871408, -5538.8293312584565, -2094.291400228906, -5078.33869199022, -7751.987308500685, -4361.227674630603, -3699.146652119953, -4633.91895698535, -3463.581617305472, -10408.91682015858, -15240.514605106666, 0.018234375, -0.10953125, 0.98759375, 192.0, 0.0, 0.0, 0.0, 0.0, 0.0, 0.0, 0.0, 0.0, 0.0, 1.645920988946782E9, 0.0, 2022-02-27 11:16:28.946
76.0, -2539.2252253562483, -5707.719112362756, -2091.7880048499114, -10773.384365246817, -809.7142946379537, 118.84422526886765, -5262.114734901755, -1693.3905116785184, -2265.058727867452, -6896.966027851824, -4433.624974921343, -3515.0353330415887, -4803.166366000934, -3469.326015630486, -9974.533018414142, -14040.292983090041, 0.016, -0.10400000000000001, 0.994, 192.0, 0.0, 64.0, 126.0, 96.0, 15.5, 8.0, 0.0, 0.0, 0.0, 1.645920988954615E9, 0.0, 2022-02-27 11:16:28.954
78.0, -2273.217114593639, -5519.897403704811, -1975.6706924045914, -10660.73157319207, -606.2016613723829, 236.86143599288894, -5297.721063819059, -1825.914004554034, -4332.818607427908, -7236.891357528134, -4140.995936512463, -3560.8117056860574, -4458.793039178019, -3264.494629442052, -10204.420710136976, -14706.106746924728, 0.016, -0.10400000000000001, 0.994, 192.0, 0.0, 0.0, 0.0, 0.0, 0.0, 0.0, 0.0, 0.0, 0.0, 1.645920988968417E9, 0.0, 2022-02-27 11:16:28.968
80.0, -2836.972813245394, -5924.978068468341, -2330.214062954672, -11053.250557571717, -1109.6970569726298, -138.08907724488702, -5438.961737032144, -1970.7533086244237, -3629.275098952663, -7532.850805860854, -4532.464388902711, -3663.6297301804702, -4871.8979802010035, -3617.1604534578864, -10249.705344403428, -14803.78387019442, 0.016, -0.10400000000000001, 0.994, 192.0, 0.0, 0.0, 0.0, 0.0, 0.0, 0.0, 0.0, 0.0, 0.0, 1.645920988976518E9, 0.0, 2022-02-27 11:16:28.976
82.0, -2136.8044181829, -5406.462300594128, -1857.8769991251231, -10525.771740170925, -486.0610349251074, 352.12938214890744, -5149.573701569284, -1597.278010520698, -2718.4638641433557, -6751.925558081336, -4185.274742278426, -3452.8751317113797, -4558.101839792948, -3281.392548250264, -9948.359125656978, -14034.369770809386, 0.016, -0.10400000000000001, 0.994, 192.0, 0.0, 0.0, 0.0, 0.0, 0.0, 0.0, 0.0, 0.0, 0.0, 1.645920988984348E9, 0.0, 2022-02-27 11:16:28.984
84.0, -2706.3045151596684, -5843.997698306764, -2303.0343416970186, -11025.400283980403, -1039.8925590387057, -86.61300976431487, -5524.367752595872, -2059.0426992228868, -5045.325165429731, -7735.894052492864, -4316.792406653453, -3684.3945007794505, -4612.528337541621, -3457.054907924522, -10396.131622330144, -15235.44075911531, 0.016, -0.10400000000000001, 0.994, 192.0, 0.0, 0.0, 0.0, 0.0, 0.0, 0.0, 0.0, 0.0, 0.0, 1.645920988991552E9, 0.0, 2022-02-27 11:16:28.991
86.0, -2476.8638583259417, -5653.225559380718, -2092.8161850948554, -10777.251217037585, -803.2546404903699, 122.42050438171678, -5245.730906216015, -1703.4711484278619, -2267.428012779714, -6907.247830301265, -4417.285849724513, -3496.6174956104155, -4798.941886298881, -3471.315320887008, -9968.92273055586, -14052.273518118087, 0.012, -0.106, 0.99, 192.0, 0.0, 48.0, 126.0, 88.0, 15.0, 120.0, 0.0, 0.0, 0.0, 1.645920988998884E9, 0.0, 2022-02-27 11:16:28.998
88.0, -2203.8820032932763, -5455.07734478442, -1968.7416516234462, -10646.9628986076, -601.5077950367684, 251.6359390778469, -5299.1068719752875, -1817.8897282945786, -4279.621455624278, -7195.741795985913, -4125.282660160382, -3539.1081618199546, -4451.171094318759, -3255.419821193197, -10184.505305827297, -14675.551912254325, 0.012, -0.106, 0.99, 192.0, 0.0, 0.0, 0.0, 0.0, 0.0, 0.0, 0.0, 0.0, 0.0, 1.645920989006983E9, 0.0, 2022-02-27 11:16:29.006
90.0, -2783.1498125970143, -5880.766317935743, -2337.9030630472976, -11057.251519829217, -1125.723257747085, -136.23388245509653, -5448.46122842565, -1984.1420035531526, -3700.219535853808, -7541.880910620798, -4524.238946943158, -3663.473267969283, -4869.931026688937, -3614.210023189786, -10260.434181741975, -14826.381483838735, 0.012, -0.106, 0.99, 192.0, 0.0, 0.0, 0.0, 0.0, 0.0, 0.0, 0.0, 0.0, 0.0, 1.6459209890142E9, 0.0, 2022-02-27 11:16:29.014
92.0, -2095.833670596322, -5360.9765006275775, -1868.6952434414916, -10527.202251816065, -503.04836071114073, 351.9282164488097, -5136.497931062929, -1603.3800367569968, -2675.3697008335234, -6738.961546297258, -4193.053149348873, -3446.3931258193406, -4577.749023169163, -3271.691891156661, -9950.750762313695, -14016.577782222961, 0.012, -0.106, 0.99, 192.0, 0.0, 0.0, 0.0, 0.0, 0.0, 0.0, 0.0, 0.0, 0.0, 1.645920989020749E9, 0.0, 2022-02-27 11:16:29.020
94.0, -2647.787648175675, -5764.917226423887, -2305.1354056758173, -11025.892022358421, -1051.7613353444738, -87.14945163124224, -5512.163700123275, -2076.275894197928, -5028.807226277259, -7683.0321768560625, -4306.912935604208, -3678.8065646656237, -4612.461282308255, -3436.49130302564, -10399.707901442993, -15225.360122365968, 0.012, -0.106, 0.99, 192.0, 0.0, 0.0, 0.0, 0.0, 0.0, 0.0, 0.0, 0.0, 0.0, 1.645920989028619E9, 0.0, 2022-02-27 11:16:29.028
96.0, -2412.356723827925, -5588.517259182604, -2087.362359447761, -10769.316347755952, -812.6200214171436, 117.99485897956599, -5239.964156146545, -1704.7004943729037, -2238.5495589434577, -6854.2071407088215, -4393.39183490179, -3481.0159779806113, -4795.477365908309, -3462.7322510161703, -9969.861503822984, -14046.931451193268, 0.012, -0.106, 0.992, 192.0, 0.0, 48.0, 126.0, 88.0, 15.5, 0.0, 0.0, 0.0, 0.0, 1.645920989036736E9, 0.0, 2022-02-27 11:16:29.036
98.0, -2135.3739065377604, -5390.100823652843, -1959.6444916301361, -10638.62569792577, -601.5748502701343, 253.5581891010033, -5304.0913109888215, -1838.1851122599976, -4258.297891413915, -7167.243321805397, -4106.753064006933, -3521.807911611547, -4449.829989651441, -3249.8318850793703, -10190.83084950815, -14684.67142399209, 0.012, -0.106, 0.992, 192.0, 0.0, 0.0, 0.0, 0.0, 0.0, 0.0, 0.0, 0.0, 0.0, 1.645920989043876E9, 0.0, 2022-02-27 11:16:29.043
100.0, -2726.3316781916237, -5826.272764953705, -2329.990545510119, -11048.534339491647, -1120.560004777909, -132.36703066432844, -5436.614803864337, -1961.38792769765, -3645.4801136827605, -7504.329979935883, -4503.205955410714, -3628.828064063557, -4864.186628363923, -3598.7426160267137, -10257.573158451696, -14816.03262615593, 0.012, -0.106, 0.992, 192.0, 0.0, 0.0, 0.0, 0.0, 0.0, 0.0, 0.0, 0.0, 0.0, 1.645920989051369E9, 0.0, 2022-02-27 11:16:29.051
102.0, -2038.322632112817, -5306.997037768011, -1861.1627055600532, -10525.637629704193, -501.7072560438223, 345.2003413677623, -5147.204416657021, -1610.1749670714103, -2690.6135905520428, -6718.777921054116, -4171.34960548277, -3419.8169016619804, -4571.848162632962, -3274.1058795578338, -9950.616651846964, -14023.238602070644, 0.012, -0.106, 0.992, 192.0, 0.0, 0.0, 0.0, 0.0, 0.0, 0.0, 0.0, 0.0, 0.0, 1.64592098905929E9, 0.0, 2022-02-27 11:16:29.059
104.0, -2588.1531939689153, -5728.416827728371, -2288.5504112899794, -11015.006722808686, -1044.8769980522393, -91.01630342201035, -5531.587366054937, -2089.955161804576, -5012.557508058251, -7672.9962435956295, -4281.99074053654, -3645.658927638403, -4611.2766398521235, -3442.2133496061983, -10401.227820065955, -15235.01607597066, 0.012, -0.106, 0.992, 192.0, 0.0, 0.0, 0.0, 0.0, 0.0, 0.0, 0.0, 0.0, 0.0, 1.645920989067249E9, 0.0, 2022-02-27 11:16:29.067
106.0, -2366.379185483359, -5544.19374992773, -2078.1757924766293, -10764.734240142614, -813.2458702618922, 117.27960315699616, -5273.961159463067, -1724.9064713605014, -2224.6467738922565, -6849.937957517857, -4370.615407301832, -3459.647710281338, -4795.611476375041, -3453.992718934145, -9977.394041704421, -14063.20352115673, 0.008, -0.106, 0.994, 192.0, 0.0, 32.0, 126.0, 88.0, 15.5, 8.0, 0.0, 0.0, 0.0, 1.645920989073877E9, 0.0, 2022-02-27 11:16:29.073
108.0, -2091.542135660903, -5351.119381322787, -1952.357822937706, -10631.920174589179, -602.6700857484443, 248.0596599649978, -5306.728816834548, -1828.1938824884753, -4211.001600146485, -7132.464007432939, -4079.1486596046284, -3503.4347776692844, -4446.521931472055, -3250.748306602038, -10194.898866999016, -14678.636452989156, 0.008, -0.106, 0.994, 192.0, 0.0, 0.0, 0.0, 0.0, 0.0, 0.0, 0.0, 0.0, 0.0, 1.645920989088819E9, 0.0, 2022-02-27 11:16:29.088
110.0, -2686.3891108499897, -5787.559543557113, -2333.4103624117806, -11048.601394725012, -1129.0760194153809, -143.81112382544563, -5457.312519229951, -1986.7571576544235, -3659.5170092006933, -7489.6225320842905, -4480.0271964105605, -3624.0671424945767, -4862.376137063043, -3602.0953776950096, -10276.862713916626, -14842.497091591013, 0.008, -0.106, 0.994, 192.0, 0.0, 0.0, 0.0, 0.0, 0.0, 0.0, 0.0, 0.0, 0.0, 1.645920989096914E9, 0.0, 2022-02-27 11:16:29.096
112.0, -2009.6006404877473, -5285.584066579827, -1854.680699668014, -10519.781472656903, -501.79666302164355, 339.76886746512264, -5169.153829712132, -1635.9912319172897, -2657.6671192249205, -6696.627342298907, -4152.305919206849, -3402.7625206425814, -4575.603255701453, -3277.6598069262277, -9964.63119562044, -14039.823596456481, 0.008, -0.106, 0.994, 192.0, 0.0, 0.0, 0.0, 0.0, 0.0, 0.0, 0.0, 0.0, 0.0, 1.645920989103639E9, 0.0, 2022-02-27 11:16:29.103
114.0, -2553.686804018832, -5693.7939755671, -2278.559181518457, -11000.232219723728, -1035.2657479364573, -87.50707954252715, -5551.614529086892, -2098.7841008644227, -4997.693597995472, -7643.849568825909, -4256.375641390758, -3629.0292297636547, -4603.431177548311, -3431.8197884344804, -10404.401767778609, -15242.347448152, 0.008, -0.106, 0.994, 192.0, 0.0, 0.0, 0.0, 0.0, 0.0, 0.0, 0.0, 0.0, 0.0, 1.645920989111592E9, 0.0, 2022-02-27 11:16:29.111
116.0, -2353.75044986611, -5534.515444578582, -2079.583952377314, -10763.504894197571, -821.4266087325345, 104.7849780064795, -5255.699784243082, -1722.9618695928896, -2240.6059194333457, -6836.035172466657, -4366.905017722252, -3463.514562072106, -4801.534688655697, -3462.9110649718127, -9983.07138479607, -14080.59317834296, 0.01, -0.1, 0.992, 192.0, 0.0, 40.0, 126.0, 112.0, 15.5, 0.0, 0.0, 0.0, 0.0, 1.645920989119471E9, 0.0, 2022-02-27 11:16:29.119
118.0, -2070.8891237841995, -5340.301137006419, -1947.2839769463512, -10623.091235529333, -593.9752571553299, 252.03827047804245, -5304.650104600204, -1826.852777821157, -4186.794660901387, -7116.929545036501, -4076.3993950366257, -3484.5699053490052, -4453.763896675575, -3253.9669578036023, -10187.276922139756, -14674.411973287104, 0.01, -0.1, 0.992, 192.0, 0.0, 0.0, 0.0, 0.0, 0.0, 0.0, 0.0, 0.0, 0.0, 1.645920989126358E9, 0.0, 2022-02-27 11:16:29.126
120.0, -2671.458145553845, -5777.344796341038, -2322.5474146065017, -11038.252537042206, -1127.3549350923224, -140.4583621571496, -5484.112260831865, -1982.7338436524683, -3675.9902448642547, -7478.7595842790115, -4476.830896953452, -3612.5559941000934, -4865.639491753518, -3605.2693254076635, -10276.84036217217, -14847.7050480491, 0.01, -0.1, 0.992, 192.0, 0.0, 0.0, 0.0, 0.0, 0.0, 0.0, 0.0, 0.0, 0.0, 1.64592098913413E9, 0.0, 2022-02-27 11:16:29.134
122.0, -2005.6220299747026, -5287.796889280902, -1861.2074090489639, -10520.98846685749, -514.2242329387943, 336.46080928573724, -5160.4590011190185, -1628.4586940358513, -2642.3785260174905, -6687.060795672035, -4154.652852374656, -3405.5341369550392, -4582.666406949331, -3287.807498908937, -9964.83236132054, -14030.97230565218, 0.01, -0.1, 0.992, 192.0, 0.0, 0.0, 0.0, 0.0, 0.0, 0.0, 0.0, 0.0, 0.0, 1.645920989141232E9, 0.0, 2022-02-27 11:16:29.141
124.0, -2541.750972479698, -5698.443138413803, -2279.0062164075634, -10991.93972253081, -1035.1316374697253, -87.64119000925899, -5525.194767140719, -2095.9901328075093, -5001.448691063963, -7648.141103761328, -4261.360080404292, -3634.371296688473, -4609.533203784609, -3440.5593205165055, -10407.843936424726, -15231.171575924347, 0.01, -0.1, 0.992, 192.0, 0.0, 0.0, 0.0, 0.0, 0.0, 0.0, 0.0, 0.0, 0.0, 1.645920989149242E9, 0.0, 2022-02-27 11:16:29.149
126.0, -2362.4229267147693, -5545.244281917129, -2085.8424408247997, -10774.881932125323, -839.7773909303417, 99.28644887047398, -5261.533589545917, -1727.2534045283085, -2267.137440101795, -6864.980681536279, -4376.516267838034, -3452.6069107779163, -4813.738741128295, -3474.869248255402, -9989.93337034385, -14096.060585506033, 0.014, -0.10400000000000001, 0.988, 192.0, 0.0, 56.0, 126.0, 96.0, 15.0, 112.0, 0.0, 0.0, 0.0, 1.645920989155755E9, 0.0, 2022-02-27 11:16:29.155
128.0, -2062.8201440358334, -5333.930889836656, -1934.8564070292007, -10622.19716575112, -596.7021699788774, 256.0168809910871, -5300.671494087159, -1838.0062983043551, -4164.308805979348, -7115.364922924629, -4086.412976552603, -3486.246286183153, -4467.376109048857, -3257.1856090051665, -10185.555837816697, -14659.637470202146, 0.014, -0.10400000000000001, 0.988, 192.0, 0.0, 0.0, 0.0, 0.0, 0.0, 0.0, 0.0, 0.0, 0.0, 1.645920989165237E9, 0.0, 2022-02-27 11:16:29.165
130.0, -2671.9498839318617, -5784.452651077825, -2317.0935889594066, -11048.735505191744, -1134.105161917825, -145.21928372613, -5475.685653172213, -1989.2158495445074, -3746.845274787578, -7500.306665933927, -4472.606417251399, -3610.9690202437664, -4860.386831806521, -3605.3810841299396, -10285.289321576276, -14881.009147287506, 0.014, -0.10400000000000001, 0.988, 192.0, 0.0, 0.0, 0.0, 0.0, 0.0, 0.0, 0.0, 0.0, 0.0, 1.645920989171797E9, 0.0, 2022-02-27 11:16:29.171
132.0, -2006.583154986281, -5290.322636404352, -1858.5028479698717, -10532.611373974249, -520.9968115087523, 332.8621784284328, -5176.194629215554, -1627.8104934466473, -2610.70610412432, -6690.882943973893, -4163.571198412323, -3400.1026630523997, -4595.697473966775, -3297.485804258085, -9963.11127699748, -14032.134596363854, 0.014, -0.10400000000000001, 0.988, 192.0, 0.0, 0.0, 0.0, 0.0, 0.0, 0.0, 0.0, 0.0, 0.0, 1.645920989179379E9, 0.0, 2022-02-27 11:16:29.179
134.0, -2532.6091089974775, -5694.799804067588, -2266.2880738124936, -11003.406167436382, -1030.2813089229237, -93.27382961199638, -5527.072313674965, -2103.545022433403, -4988.685844979983, -7644.788342093032, -4254.475743112057, -3631.2644042091856, -4605.062854893548, -3448.225968864676, -10403.86532591168, -15230.456320101777, 0.014, -0.10400000000000001, 0.988, 192.0, 0.0, 0.0, 0.0, 0.0, 0.0, 0.0, 0.0, 0.0, 0.0, 1.645920989186415E9, 0.0, 2022-02-27 11:16:29.186
136.0, -2350.9341300647416, -5540.282194648051, -2083.5849146348137, -10786.214266564164, -839.0174316188612, 88.37879757628413, -5275.168153663654, -1756.847114187135, -2265.7069284566555, -6869.1157542605115, -4374.392852114779, -3456.362003846408, -4816.555060929663, -3491.543649619061, -9997.22003903628, -14111.9303240693, 0.014, -0.112, 0.988, 192.0, 0.0, 56.0, 126.0, 64.0, 15.0, 112.0, 0.0, 0.0, 0.0, 1.645920989194447E9, 0.0, 2022-02-27 11:16:29.194
138.0, -2043.709402526546, -5317.636468128738, -1936.0410494853318, -10625.415816952684, -594.3552368110701, 250.22777917716257, -5297.922229519157, -1832.8877488240898, -4134.91626202062, -7102.847946029658, -4078.343996804237, -3485.64278908286, -4468.270178827069, -3268.8532196108367, -10184.125326171557, -14660.33037428026, 0.014, -0.112, 0.988, 192.0, 0.0, 0.0, 0.0, 0.0, 0.0, 0.0, 0.0, 0.0, 0.0, 1.645920989202426E9, 0.0, 2022-02-27 11:16:29.202
140.0, -2666.7866309626856, -5776.741299240744, -2322.502711117591, -11052.28943256014, -1142.7105835331183, -150.9636820511439, -5498.059749371976, -2014.3392103122726, -3733.367172881028, -7496.886849032266, -4474.9757021636615, -3615.6852383238365, -4872.635587768029, -3614.3888371454286, -10289.13382162259, -14881.143257754238, 0.014, -0.112, 0.988, 192.0, 0.0, 0.0, 0.0, 0.0, 0.0, 0.0, 0.0, 0.0, 0.0, 1.645920989216009E9, 0.0, 2022-02-27 11:16:29.216
142.0, -2006.806672430834, -5281.80662176688, -1858.9051793700671, -10534.935955397601, -521.8685295425093, 317.55123347654745, -5179.457983906029, -1670.9270085009348, -2612.561298914111, -6688.357196850443, -4167.818029858831, -3399.7897386300256, -4603.565288015043, -3305.1748043507105, -9968.63215787794, -14041.790549968548, 0.014, -0.112, 0.988, 192.0, 0.0, 0.0, 0.0, 0.0, 0.0, 0.0, 0.0, 0.0, 0.0, 1.645920989224011E9, 0.0, 2022-02-27 11:16:29.224
144.0, -2531.133893863427, -5686.440251641304, -2269.8196494364324, -10994.13019348743, -1039.8702072942506, -85.33896033036237, -5535.275403890062, -2084.3001704573835, -5005.360246343643, -7643.335478703437, -4262.857647282797, -3630.593851875526, -4618.2056806332685, -3453.746849745137, -10416.427006295564, -15242.213337685269, 0.013000000000000001, -0.11, 0.985, 192.0, 0.0, 48.0, 126.0, 80.0, 15.0, 88.0, 0.0, 0.0, 0.0, 1.645920989231061E9, 0.0, 2022-02-27 11:16:29.231
146.0, -2380.103156578917, -5556.330747166961, -2105.5566794343804, -10798.574781247948, -864.0290336643499, 78.36521606030657, -5279.303226387886, -1762.0997741341323, -2306.40945510977, -6889.969931837312, -4401.594925116888, -3470.421251108796, -4846.573453733141, -3512.5989928959602, -10014.252068311223, -14135.645524936383, 0.013000000000000001, -0.11, 0.985, 192.0, 0.0, 0.0, 0.0, 0.0, 0.0, 0.0, 0.0, 0.0, 0.0, 1.64592098923871E9, 0.0, 2022-02-27 11:16:29.238
148.0, -2051.64427180818, -5319.022276284966, -1940.6231570986697, -10623.00182855151, -597.5068327792684, 253.06645072298656, -5312.1379389927315, -1834.1170947691317, -4115.246726899949, -7095.673036059504, -4095.0854534012624, -3496.3269229324965, -4481.591818522432, -3283.3147982734204, -10193.937741987436, -14655.412990500092, 0.013000000000000001, -0.11, 0.985, 192.0, 0.0, 0.0, 0.0, 0.0, 0.0, 0.0, 0.0, 0.0, 0.0, 1.645920989246728E9, 0.0, 2022-02-27 11:16:29.246
150.0, -2673.4698025548223, -5776.562485285102, -2332.0692577444624, -11057.43033378486, -1136.5191503189983, -144.5934348813814, -5479.776022407535, -2012.416960289116, -3768.526466909226, -7505.805195069933, -4486.240981369136, -3617.898061024912, -4886.5160210747745, -3622.8825000384454, -10308.356321854153, -14894.129621282771, 0.013000000000000001, -0.11, 0.985, 192.0, 0.0, 0.0, 0.0, 0.0, 0.0, 0.0, 0.0, 0.0, 0.0, 1.645920989254682E9, 0.0, 2022-02-27 11:16:29.254
152.0, -2011.7911114443675, -5281.0466624554, -1866.9965108628883, -10535.807673431358, -532.9773465367969, 322.5803759789915, -5171.009024501923, -1647.7482495007814, -2602.5700691425886, -6679.707071746239, -4180.267951520437, -3404.573011943461, -4616.551651543576, -3314.517833533029, -9966.665204365874, -14031.15111960782, 0.013000000000000001, -0.11, 0.985, 192.0, 0.0, 0.0, 0.0, 0.0, 0.0, 0.0, 0.0, 0.0, 0.0, 1.645920989261305E9, 0.0, 2022-02-27 11:16:29.261
154.0, -2524.8754054159413, -5672.895094501388, -2274.7593849610553, -10991.202114963784, -1039.2890619384125, -83.57317251839311, -5532.056752688498, -2111.5245952039477, -5019.575955817218, -7631.779626820044, -4266.568036862378, -3626.503482640205, -4621.200814390279, -3459.312434114508, -10415.644695239627, -15237.988857983215, 0.0125, -0.108, 0.9864999999999999, 192.0, 0.0, 48.0, 126.0, 88.0, 15.0, 112.0, 0.0, 0.0, 0.0, 1.645920989268324E9, 0.0, 2022-02-27 11:16:29.268
156.0, -2361.1041737919063, -5537.8905579913335, -2096.0124845519645, -10784.627292707837, -845.8794171666405, 89.94341968815561, -5321.548023408416, -1765.5642945247048, -2284.392986821292, -6864.399536180442, -4391.938971512195, -3451.1763991327766, -4837.520997228742, -3498.7856148225806, -10011.50280374322, -14126.771882387626, 0.0125, -0.108, 0.9864999999999999, 192.0, 0.0, 0.0, 0.0, 0.0, 0.0, 0.0, 0.0, 0.0, 0.0, 1.645920989276389E9, 0.0, 2022-02-27 11:16:29.276
158.0, -2046.615129305736, -5320.721008863569, -1935.6834215740469, -10614.463462169584, -595.4281205449248, 256.62037809138036, -5315.758921594492, -1827.165702243531, -4120.186462424572, -7088.989864467367, -4094.4372528120584, -3483.8099460375247, -4478.641388254331, -3267.6685771547054, -10197.558724589197, -14650.495606719925, 0.0125, -0.108, 0.9864999999999999, 192.0, 0.0, 0.0, 0.0, 0.0, 0.0, 0.0, 0.0, 0.0, 0.0, 1.645920989284265E9, 0.0, 2022-02-27 11:16:29.284
160.0, -2683.5057358152553, -5790.599380803034, -2339.691202603722, -11058.458514029804, -1154.1099732053249, -161.22313275612984, -5454.138571517297, -2014.4062655456385, -3787.547801440692, -7513.225974229094, -4495.695769273731, -3623.016610505177, -4880.883381472037, -3631.8455495650232, -10303.863621218637, -14905.774880143987, 0.0125, -0.108, 0.9864999999999999, 192.0, 0.0, 0.0, 0.0, 0.0, 0.0, 0.0, 0.0, 0.0, 0.0, 1.645920989291096E9, 0.0, 2022-02-27 11:16:29.291
162.0, -2014.7638934569234, -5288.71331080357, -1874.5737522332374, -10538.400475788174, -548.6906228888778, 319.9875736221759, -5167.768021555904, -1640.215711619343, -2604.872298821485, -6682.769260736616, -4186.057053334362, -3403.634238676338, -4622.4301603353215, -3310.360409064342, -9976.902303326406, -14032.089892874945, 0.0125, -0.108, 0.9864999999999999, 192.0, 0.0, 0.0, 0.0, 0.0, 0.0, 0.0, 0.0, 0.0, 0.0, 1.645920989298966E9, 0.0, 2022-02-27 11:16:29.298
164.0, -2531.178597352338, -5682.819269039544, -2277.2627803400496, -10993.683158598324, -1044.4746666520437, -90.14458538825339, -5537.085895190942, -2100.7510543764897, -5032.159987945555, -7642.776685092054, -4266.389222906736, -3636.092381011532, -4632.086113940014, -3458.932454458768, -10429.569832035284, -15241.654544073886, 0.013250000000000001, -0.10600000000000001, 0.98525, 192.0, 0.0, 56.0, 126.0, 96.0, 15.0, 96.0, 0.0, 0.0, 0.0, 1.645920989306932E9, 0.0, 2022-02-27 11:16:29.306
166.0, -2387.1886595712494, -5564.153857726319, -2109.7588073919783, -10795.490240513116, -875.3390163587352, 70.9220851566893, -5284.265313656964, -1757.0929833761436, -2306.9011934877867, -6892.473327216307, -4401.773739072531, -3474.7798412775805, -4856.899959671493, -3517.4269696983065, -10025.65145798343, -14135.489062725195, 0.013250000000000001, -0.10600000000000001, 0.98525, 192.0, 0.0, 0.0, 0.0, 0.0, 0.0, 0.0, 0.0, 0.0, 0.0, 1.645920989314071E9, 0.0, 2022-02-27 11:16:29.314
168.0, -2067.290492926895, -5338.445942216628, -1948.647433358125, -10620.252563983508, -604.4135218159582, 257.6262065918692, -5298.19045045262, -1814.5593183707379, -4128.546014850857, -7106.69244607597, -4103.757930249922, -3496.2375159546755, -4498.959123964206, -3280.4761267275962, -10202.856088025104, -14647.120493307173, 0.013250000000000001, -0.10600000000000001, 0.98525, 192.0, 0.0, 0.0, 0.0, 0.0, 0.0, 0.0, 0.0, 0.0, 0.0, 1.645920989321633E9, 0.0, 2022-02-27 11:16:29.321
170.0, -2700.291895901191, -5798.266029151205, -2353.6833946327442, -11065.454610044315, -1155.205208683635, -160.61963565583656, -5483.531115476027, -2017.8484341917556, -3835.693458997424, -7534.191910528173, -4497.79683325253, -3639.4451426798278, -4893.042730455724, -3628.559843130093, -10316.93939172499, -14914.648522692743, 0.013250000000000001, -0.10600000000000001, 0.98525, 192.0, 0.0, 0.0, 0.0, 0.0, 0.0, 0.0, 0.0, 0.0, 0.0, 1.645920989336669E9, 0.0, 2022-02-27 11:16:29.336
172.0, -2040.2448821359733, -5309.589840124827, -1888.7894617068127, -10540.054504877866, -549.3164717336264, 328.10125685945235, -5188.130460754688, -1625.8435399345803, -2593.8975922939294, -6686.680816016295, -4196.1600418281605, -3421.6944481962264, -4640.177445432835, -3313.9143364327356, -9972.901341068906, -14015.72841593366, 0.013250000000000001, -0.10600000000000001, 0.98525, 192.0, 0.0, 0.0, 0.0, 0.0, 0.0, 0.0, 0.0, 0.0, 0.0, 1.645920989343673E9, 0.0, 2022-02-27 11:16:29.343
174.0, -2537.705306733287, -5690.530620876625, -2278.2239053516278, -10989.212809707262, -1026.9956024879937, -75.19126834765297, -5523.384275839839, -2098.426472953138, -5039.826636293726, -7638.552205390001, -4264.243455439027, -3632.516101898683, -4625.872328981439, -3437.094800125933, -10418.595125507729, -15221.716788019752, 0.012625, -0.10500000000000001, 0.986625, 192.0, 0.0, 48.0, 126.0, 96.0, 15.0, 112.0, 0.0, 0.0, 0.0, 1.645920989351366E9, 0.0, 2022-02-27 11:16:29.351
176.0, -2404.265392335104, -5577.386090443861, -2119.0794848298415, -10806.062615640476, -870.0416529228274, 72.33024505737366, -5274.072918185344, -1758.9258264214786, -2332.98567926713, -6909.304190791153, -4409.574497887433, -3474.8245447664913, -4858.442230038909, -3506.608725381938, -10015.257896811712, -14133.633867935405, 0.012625, -0.10500000000000001, 0.986625, 192.0, 0.0, 0.0, 0.0, 0.0, 0.0, 0.0, 0.0, 0.0, 0.0, 1.64592098935914E9, 0.0, 2022-02-27 11:16:29.359
178.0, -2069.480963883515, -5338.088314305343, -1942.970090266477, -10616.653933126205, -592.0753588766288, 276.3793201898718, -5312.428511670651, -1812.011219502833, -4104.0037994389295, -7093.817841269713, -4102.90856396062, -3492.9071060308347, -4499.6296762978645, -3266.7074521431273, -10188.841544251627, -14623.449995929002, 0.012625, -0.10500000000000001, 0.986625, 192.0, 0.0, 0.0, 0.0, 0.0, 0.0, 0.0, 0.0, 0.0, 0.0, 1.645920989366372E9, 0.0, 2022-02-27 11:16:29.366
180.0, -2709.254945427769, -5809.352494401038, -2345.6814701177445, -11069.05324090162, -1151.6959848041517, -152.14832450727516, -5479.619560196347, -2019.3683528147167, -3848.14338065903, -7540.048067575463, -4490.398405837823, -3638.2381484792413, -4889.555858320697, -3623.821273305568, -10321.208574915956, -14916.548420971445, 0.012625, -0.10500000000000001, 0.986625, 192.0, 0.0, 0.0, 0.0, 0.0, 0.0, 0.0, 0.0, 0.0, 0.0, 1.645920989373883E9, 0.0, 2022-02-27 11:16:29.373
182.0, -2042.6365187926913, -5309.008694768989, -1882.5980284926927, -10546.804731703369, -544.2649774867269, 319.49583524415914, -5152.367669626197, -1639.5898627745942, -2589.784871314153, -6699.220144655722, -4190.572105714334, -3417.604078960905, -4635.125951185936, -3316.350676578364, -9968.498047411209, -14020.310523546998, 0.012625, -0.10500000000000001, 0.986625, 192.0, 0.0, 0.0, 0.0, 0.0, 0.0, 0.0, 0.0, 0.0, 0.0, 1.645920989381796E9, 0.0, 2022-02-27 11:16:29.381
184.0, -2526.9317659058293, -5679.399452137882, -2269.707890714156, -10980.786202047611, -1014.1880529151026, -64.17185833118657, -5510.263801844573, -2080.209801222062, -5028.606060577162, -7638.440446667725, -4262.097687971316, -3632.0690670095764, -4627.906337726872, -3443.330936828964, -10417.611648751694, -15226.075378188538, 0.013312500000000001, -0.10650000000000001, 0.9873125, 192.0, 0.0, 56.0, 126.0, 80.0, 15.0, 112.0, 0.0, 0.0, 0.0, 1.645920989389003E9, 0.0, 2022-02-27 11:16:29.389
186.0, -2425.0972181674506, -5587.466727193204, -2132.8034559253997, -10818.534889046538, -884.5479350743217, 66.80936417691281, -5293.183659694631, -1766.1677916249982, -2366.6250546723672, -6933.46642654734, -4424.572518416943, -3485.5086786161282, -4869.573398777652, -3517.896356331868, -10030.390027807955, -14159.85246418148, 0.013312500000000001, -0.10650000000000001, 0.9873125, 192.0, 0.0, 0.0, 0.0, 0.0, 0.0, 0.0, 0.0, 0.0, 0.0, 1.64592098939597E9, 0.0, 2022-02-27 11:16:29.395
188.0, -2040.8930827251772, -5304.426587155651, -1930.2072441824967, -10600.135993973732, -582.329998294115, 279.7767853470785, -5294.278895172942, -1811.0947979801654, -4030.51126366988, -7065.632291511571, -4094.8172324677985, -3489.3308269179856, -4487.649141269821, -3264.4722776975964, -10180.571398803164, -14599.17600145054, 0.013312500000000001, -0.10650000000000001, 0.9873125, 192.0, 0.0, 0.0, 0.0, 0.0, 0.0, 0.0, 0.0, 0.0, 0.0, 1.645920989403615E9, 0.0, 2022-02-27 11:16:29.403
190.0, -2708.2491169272803, -5798.757767529222, -2348.631900385845, -11065.43225829986, -1164.168258210213, -147.58856863839253, -5517.8186914704675, -2042.6812222816018, -3905.363846464616, -7537.611727429835, -4478.1496498763145, -3633.0078402766994, -4872.032090667736, -3614.4558923787945, -10327.020028474335, -14943.079941639895, 0.013312500000000001, -0.10650000000000001, 0.9873125, 192.0, 0.0, 0.0, 0.0, 0.0, 0.0, 0.0, 0.0, 0.0, 0.0, 1.645920989411605E9, 0.0, 2022-02-27 11:16:29.411
192.0, -2053.5665218313366, -5315.2448314720195, -1887.3142465727624, -10551.029211405423, -557.7654311377324, 307.20237579374026, -5178.206286216532, -1648.016470434245, -2543.9861469252287, -6687.887810216882, -4199.870431407742, -3417.738189427637, -4643.463151867766, -3321.6927435031826, -9975.02475679216, -14015.10256708891, 0.013312500000000001, -0.10650000000000001, 0.9873125, 192.0, 0.0, 0.0, 0.0, 0.0, 0.0, 0.0, 0.0, 0.0, 0.0, 1.645920989419658E9, 0.0, 2022-02-27 11:16:29.419
194.0, -2530.4186380408573, -5675.152620691374, -2270.4902017700915, -10986.17297246134, -1022.5252535969322, -71.01149213451053, -5520.433845571738, -2080.8803535557217, -5018.681886039006, -7621.855452281887, -4258.3202431583695, -3637.366430445484, -4615.881099209917, -3453.8809602118686, -10418.30455282981, -15217.782880995617, 0.014656250000000001, -0.10825000000000001, 0.98965625, 192.0, 0.0, 64.0, 126.0, 72.0, 15.5, 0.0, 0.0, 0.0, 0.0, 1.645920989426104E9, 0.0, 2022-02-27 11:16:29.426
196.0, -2419.1293023978833, -5583.108137024419, -2126.9025953891987, -10816.590287278925, -873.6179320356765, 68.17282058868655, -5274.072918185344, -1750.0298321282664, -2342.9098538052863, -6917.999019384268, -4421.800902104485, -3487.1403559613655, -4858.53163701673, -3523.2384232566865, -10019.661190469407, -14146.46376925275, 0.014656250000000001, -0.10825000000000001, 0.98965625, 192.0, 0.0, 0.0, 0.0, 0.0, 0.0, 0.0, 0.0, 0.0, 0.0, 1.645920989434116E9, 0.0, 2022-02-27 11:16:29.434
198.0, -2054.9076264986547, -5319.849290829813, -1934.968165751477, -10609.277857455952, -576.004454613263, 271.79721257653387, -5285.561714835371, -1802.0870449646766, -4054.3382232592376, -7083.871314987102, -4107.155395407128, -3503.568888136016, -4493.0582634280045, -3281.2807895279875, -10177.106878412591, -14611.22359171195, 0.014656250000000001, -0.10825000000000001, 0.98965625, 192.0, 0.0, 0.0, 0.0, 0.0, 0.0, 0.0, 0.0, 0.0, 0.0, 1.645920989442206E9, 0.0, 2022-02-27 11:16:29.442
200.0, -2706.2821634152133, -5803.026950720186, -2352.8340283434427, -11073.992976426242, -1157.395679640255, -158.76444086604607, -5484.380481765328, -2023.6375360056802, -3897.853660327633, -7558.465905006637, -4482.821164467474, -3643.021421792677, -4872.099145901102, -3626.1905582178306, -10318.504013836862, -14940.308325327436, 0.014656250000000001, -0.10825000000000001, 0.98965625, 192.0, 0.0, 0.0, 0.0, 0.0, 0.0, 0.0, 0.0, 0.0, 0.0, 1.6459209894493E9, 0.0, 2022-02-27 11:16:29.449
202.0, -2050.280815396406, -5314.3060582048965, -1891.5387262748154, -10554.270214351442, -554.1891520248834, 315.5842799644804, -5170.271416934898, -1625.2623945787425, -2531.849149685997, -6700.114214433935, -4198.1493470846835, -3426.67888720976, -4635.081247697026, -3334.1203134203333, -9962.463076408278, -14004.776061150558, 0.014656250000000001, -0.10825000000000001, 0.98965625, 192.0, 0.0, 0.0, 0.0, 0.0, 0.0, 0.0, 0.0, 0.0, 0.0, 1.64592098946386E9, 0.0, 2022-02-27 11:16:29.463
204.0, -2514.4818442442233, -5673.587998579503, -2262.3765185328148, -10980.875609025432, -1011.8634714917507, -64.2389135645525, -5514.3541710798945, -2068.899818527677, -5024.940374486491, -7627.577498862446, -4253.693432056121, -3650.9339393298555, -4605.688703738297, -3438.2347390931536, -10403.910029400591, -15208.506907046665, 0.014328125, -0.107125, 0.9878281250000001, 192.0, 0.0, 56.0, 126.0, 88.0, 15.0, 104.0, 0.0, 0.0, 0.0, 1.64592098947184E9, 0.0, 2022-02-27 11:16:29.471
206.0, -2413.2507936061374, -5582.996378302143, -2123.6615924431794, -10818.937220446733, -883.4974030849222, 57.55574197241569, -5305.588877867327, -1756.5788932536714, -2350.1965224977166, -6931.074789890622, -4413.620163633843, -3492.21420195272, -4853.077811369635, -3525.115969790932, -10017.157795090414, -14152.923423400334, 0.014328125, -0.107125, 0.9878281250000001, 192.0, 0.0, 0.0, 0.0, 0.0, 0.0, 0.0, 0.0, 0.0, 0.0, 1.645920989478425E9, 0.0, 2022-02-27 11:16:29.478
208.0, -2042.5024083259593, -5316.630639628249, -1919.7689795218682, -10596.358549160785, -558.9277218494084, 273.85357306642214, -5259.23135986702, -1792.9675332269114, -4008.8524232926875, -7069.186218879965, -4087.150584119628, -3490.7166350742145, -4474.908646930296, -3269.6131789223173, -10159.672517737452, -14579.148838418585, 0.014328125, -0.107125, 0.9878281250000001, 192.0, 0.0, 0.0, 0.0, 0.0, 0.0, 0.0, 0.0, 0.0, 0.0, 1.645920989486392E9, 0.0, 2022-02-27 11:16:29.486
210.0, -2703.3987883804784, -5798.28838089566, -2350.6659091312777, -11068.695612990334, -1145.8845312457718, -170.2532375160739, -5467.683728657214, -2019.9494981705545, -3948.5697684967245, -7567.07132662193, -4473.500487029611, -3646.888273583445, -4859.492762028309, -3625.2964884396183, -10311.217345144432, -14950.880700454796, 0.014328125, -0.107125, 0.9878281250000001, 192.0, 0.0, 0.0, 0.0, 0.0, 0.0, 0.0, 0.0, 0.0, 0.0, 1.645920989494453E9, 0.0, 2022-02-27 11:16:29.494
212.0, -2056.6510625661685, -5313.948430293612, -1886.3754733056396, -10548.235243348508, -542.5438931636684, 307.47059672720394, -5169.220884945498, -1620.6579352209492, -2513.230146554726, -6686.434946827287, -4201.0327221194175, -3422.812035418992, -4631.259099395168, -3333.6285750423167, -9952.248329192202, -13992.48260170014, 0.014328125, -0.107125, 0.9878281250000001, 192.0, 0.0, 0.0, 0.0, 0.0, 0.0, 0.0, 0.0, 0.0, 0.0, 1.645920989501421E9, 0.0, 2022-02-27 11:16:29.501
214.0, -2515.9570593782737, -5666.927178731821, -2257.369727774826, -10974.88534151141, -998.0947969072815, -70.2515328230301, -5524.591270040425, -2086.5353449029144, -5027.711990798949, -7629.477397141147, -4251.03357446594, -3637.701706612314, -4595.742177455685, -3443.8003234625253, -10399.082052598245, -15208.775127980129, 0.0151640625, -0.1045625, 0.9879140625, 192.0, 0.0, 64.0, 126.0, 104.0, 15.0, 112.0, 0.0, 0.0, 0.0, 1.645920989509053E9, 0.0, 2022-02-27 11:16:29.509
216.0, -2414.323677339992, -5577.877828821877, -2115.8161301393666, -10818.624296024358, -870.5780947897548, 58.181590817164285, -5291.0602439713775, -1750.1639425949984, -2346.7543538515993, -6931.343010824086, -4411.340285699402, -3491.253076941142, -4843.824189165138, -3524.445417457273, -10016.84487066804, -14153.169292589342, 0.0151640625, -0.1045625, 0.9879140625, 192.0, 0.0, 0.0, 0.0, 0.0, 0.0, 0.0, 0.0, 0.0, 0.0, 1.645920989516118E9, 0.0, 2022-02-27 11:16:29.516
218.0, -2040.0884199247862, -5307.24290695702, -1909.5765840502484, -10600.627732351748, -553.7197653913219, 267.1256979853747, -5266.13804890371, -1801.2823821642855, -4018.061342008274, -7071.689614258959, -4091.1515463771284, -3498.338579933474, -4469.231303838647, -3286.3099320304314, -10163.427610805942, -14585.966120477453, 0.0151640625, -0.1045625, 0.9879140625, 192.0, 0.0, 0.0, 0.0, 0.0, 0.0, 0.0, 0.0, 0.0, 0.0, 1.645920989524097E9, 0.0, 2022-02-27 11:16:29.524
220.0, -2699.86721275654, -5790.398215102937, -2332.0022025110966, -11072.562464781102, -1141.74945852154, -165.2017432691745, -5465.202685022675, -2004.3032770518396, -3916.517366947814, -7561.617500974835, -4473.83576319644, -3641.0321165361547, -4848.518055500753, -3628.1128082409873, -10308.579839298707, -14944.175177118204, 0.0151640625, -0.1045625, 0.9879140625, 192.0, 0.0, 0.0, 0.0, 0.0, 0.0, 0.0, 0.0, 0.0, 0.0, 1.645920989531085E9, 0.0, 2022-02-27 11:16:29.531
222.0, -2045.5645973163364, -5297.274028929953, -1872.718557443447, -10545.865958436247, -534.4078581819366, 304.274297270095, -5152.278262648376, -1614.4665020068292, -2512.5372424766115, -6683.193943881267, -4185.16298355615, -3413.714875425682, -4609.421445062333, -3327.683011017205, -9939.3960761304, -13990.783869121537, 0.0151640625, -0.1045625, 0.9879140625, 192.0, 0.0, 0.0, 0.0, 0.0, 0.0, 0.0, 0.0, 0.0, 0.0, 1.645920989538662E9, 0.0, 2022-02-27 11:16:29.538
224.0, -2496.645152168888, -5644.64248950988, -2237.0296403204966, -10959.797914004079, -981.2639333324354, -61.7131664411028, -5505.704045975691, -2058.2380364224955, -5020.492377339885, -7616.133405701328, -4231.922832956652, -3624.760046572691, -4572.6528254333525, -3437.0053931481116, -10387.123869314655, -15208.126927390926, 0.016, -0.10200000000000001, 0.992, 192.0, 0.0, 64.0, 126.0, 104.0, 15.5, 0.0, 0.0, 0.0, 0.0, 1.64592098954679E9, 0.0, 2022-02-27 11:16:29.546
226.0, -2416.245927363149, -5573.3404246974505, -2111.9492783485985, -10816.85850821239, -868.477030810956, 57.9357216281559, -5263.9475779470895, -1744.9112826480011, -2345.1673799952723, -6928.504339278262, -4405.484128652111, -3481.64182682536, -4826.456883723365, -3528.5134349481386, -10002.02566409417, -14155.382115290418, 0.016, -0.10200000000000001, 0.992, 192.0, 0.0, 0.0, 0.0, 0.0, 0.0, 0.0, 0.0, 0.0, 0.0, 1.645920989554704E9, 0.0, 2022-02-27 11:16:29.554
228.0, -2031.1700738871186, -5303.9795522665445, -1904.3686275921618, -10586.769650789458, -546.589558910079, 283.308360971017, -5244.255691081964, -1768.4700213038948, -3967.5016960503694, -7046.566253491194, -4084.3342643182596, -3486.313341416519, -4453.339213530924, -3272.0495190679458, -10138.304250038178, -14560.26161435385, 0.016, -0.10200000000000001, 0.992, 192.0, 0.0, 0.0, 0.0, 0.0, 0.0, 0.0, 0.0, 0.0, 0.0, 1.645920989561216E9, 0.0, 2022-02-27 11:16:29.561
230.0, -2704.516375603244, -5804.077482709585, -2347.8719410743643, -11070.461400802304, -1152.6794615601852, -170.49910670508228, -5455.367917462339, -1992.6580181906247, -3977.8505537331766, -7579.208323861161, -4472.36054806239, -3641.926186314367, -4837.923328628937, -3629.9680030307777, -10309.160984654545, -14961.34131685988, 0.016, -0.10200000000000001, 0.992, 192.0, 0.0, 0.0, 0.0, 0.0, 0.0, 0.0, 0.0, 0.0, 0.0, 1.645920989570875E9, 0.0, 2022-02-27 11:16:29.570
232.0, -2047.2186264060292, -5307.712293590581, -1881.8157174367568, -10545.463627036052, -540.2416634847717, 307.0012100936425, -5151.741820781448, -1617.3722287860191, -2480.462489183246, -6688.290141617077, -4199.222230818538, -3422.096779596422, -4622.2513463796795, -3340.6917262901934, -9939.44077961931, -13985.844133596915, 0.016, -0.10200000000000001, 0.992, 192.0, 0.0, 0.0, 0.0, 0.0, 0.0, 0.0, 0.0, 0.0, 0.0, 1.645920989584506E9, 0.0, 2022-02-27 11:16:29.584
234.0, -2485.558686919056, -5645.245986610173, -2234.839169363877, -10954.947585457276, -978.4923170199772, -52.303082025418526, -5486.794470166501, -2059.713251556546, -5006.4331300774975, -7599.12372817084, -4225.306716597881, -3619.797959303613, -4564.114459051426, -3428.6905442107377, -10382.430002979041, -15200.10265113147, 0.016, -0.10200000000000001, 0.992, 192.0, 0.0, 64.0, 126.0, 104.0, 15.5, 0.0, 0.0, 0.0, 0.0, 1.645920989590922E9, 0.0, 2022-02-27 11:16:29.590
236.0, -2413.854290706431, -5578.235456733162, -2120.0182580969645, -10818.490185557626, -875.4507750810117, 56.54991347192687, -5273.894104229701, -1737.7363726778476, -2344.943862550719, -6928.236118344798, -4402.936029784207, -3480.3677773914073, -4829.720238413839, -3525.607708168949, -10008.619428708485, -14168.033202652123, 0.016, -0.10200000000000001, 0.992, 192.0, 0.0, 0.0, 0.0, 0.0, 0.0, 0.0, 0.0, 0.0, 0.0, 1.64592098959905E9, 0.0, 2022-02-27 11:16:29.599
238.0, -2024.3974953171607, -5301.565563865372, -1900.6805897570362, -10585.741470544514, -547.7294978772995, 281.050834781031, -5226.7319234290035, -1773.2309428728752, -3941.327803293205, -7038.989012120845, -4078.6569212266118, -3477.7079198012257, -4455.21676006517, -3267.0203765655015, -10141.768770428751, -14557.780570719311, 0.016, -0.10200000000000001, 0.992, 192.0, 0.0, 0.0, 0.0, 0.0, 0.0, 0.0, 0.0, 0.0, 0.0, 1.645920989607016E9, 0.0, 2022-02-27 11:16:29.607
240.0, -2699.219012167336, -5797.170793672895, -2340.8087898264876, -11068.159171123407, -1153.0817929603807, -161.96074032315497, -5462.520475688038, -1987.0477303323426, -3984.0419869472967, -7571.8545999353655, -4465.632672981343, -3645.234244493752, -4836.135189072513, -3623.5307006276494, -10314.056016690258, -14970.05849719745, 0.016, -0.10200000000000001, 0.992, 192.0, 0.0, 0.0, 0.0, 0.0, 0.0, 0.0, 0.0, 0.0, 0.0, 1.645920989613606E9, 0.0, 2022-02-27 11:16:29.613
242.0, -2038.5237978129148, -5295.552944606894, -1874.4396417665055, -10541.552071756372, -549.4952856892688, 310.1528060618408, -5149.461942847007, -1603.827071646103, -2462.2458174521707, -6663.703222716239, -4183.553657955367, -3405.7576543995924, -4607.588602016998, -3322.251537114565, -9942.63707907642, -13986.425278952753, 0.016, -0.10200000000000001, 0.992, 192.0, 0.0, 0.0, 0.0, 0.0, 0.0, 0.0, 0.0, 0.0, 0.0, 1.645920989621633E9, 0.0, 2022-02-27 11:16:29.621
244.0, -2470.650073367366, -5625.956431145243, -2232.53693968498, -10943.056457407052, -979.922828665117, -55.409974504706206, -5482.055900341976, -2042.7482775149679, -4998.319446840221, -7584.237466363606, -4214.220251348049, -3610.5443370991156, -4560.5605316830315, -3418.3416865279305, -10386.833296636736, -15192.279540572114, 0.016, -0.106, 0.992, 192.0, 0.0, 64.0, 126.0, 88.0, 15.5, 0.0, 0.0, 0.0, 0.0, 1.645920989629665E9, 0.0, 2022-02-27 11:16:29.629
246.0, -2415.7318372406767, -5573.67570086428, -2122.0299150979417, -10813.99748492211, -892.1475281891261, 43.3623842432957, -5272.195371651098, -1748.755782694314, -2368.2567320176045, -6928.32552532262, -4399.426805904724, -3466.576751062483, -4829.273203524734, -3528.356972736952, -10015.190841578345, -14179.365537090962, 0.016, -0.106, 0.992, 192.0, 0.0, 0.0, 0.0, 0.0, 0.0, 0.0, 0.0, 0.0, 0.0, 1.645920989636726E9, 0.0, 2022-02-27 11:16:29.636
248.0, -2018.4072278031383, -5290.344988148808, -1895.5396885323155, -10574.56559831686, -556.6701956594223, 286.54936391703654, -5251.922339430134, -1757.271797331786, -3916.852643114644, -7011.451662951907, -4069.448002511025, -3465.3027016285305, -4452.489847241623, -3267.5344666879737, -10139.846520405594, -14546.44823628047, 0.016, -0.106, 0.992, 192.0, 0.0, 0.0, 0.0, 0.0, 0.0, 0.0, 0.0, 0.0, 0.0, 1.645920989643176E9, 0.0, 2022-02-27 11:16:29.643
250.0, -2689.786576007197, -5794.488584338258, -2338.9759467811523, -11061.565406509091, -1163.8329820433835, -168.37569098182811, -5452.417487194239, -2001.2410880614625, -3984.26550439185, -7565.909035910254, -4456.624919965854, -3636.6511746229144, -4832.044819837191, -3615.305258668096, -10307.685769520494, -14970.72904953111, 0.016, -0.106, 0.992, 192.0, 0.0, 0.0, 0.0, 0.0, 0.0, 0.0, 0.0, 0.0, 0.0, 1.645920989651314E9, 0.0, 2022-02-27 11:16:29.651
252.0, -2040.647213536169, -5306.617058112271, -1879.781708691324, -10542.781417701413, -560.2241230278162, 302.66497166931293, -5138.040201430345, -1616.8357869190918, -2475.6121606364445, -6660.417516281309, -4179.262123019948, -3399.029779318545, -4607.879174694917, -3329.962888951646, -9933.338753383012, -13989.040433054022, 0.016, -0.106, 0.992, 192.0, 0.0, 0.0, 0.0, 0.0, 0.0, 0.0, 0.0, 0.0, 0.0, 1.645920989659474E9, 0.0, 2022-02-27 11:16:29.659
254.0, -2466.336186687492, -5634.986535905187, -2228.379515216293, -10939.815454461033, -968.5234389929103, -45.35168949981803, -5485.9451038771995, -2056.9863387329983, -5001.806318975248, -7579.007158161064, -4209.727550712532, -3611.0360754771327, -4550.211674000225, -3427.125922098866, -10376.819715120759, -15192.10072661647, 0.018000000000000002, -0.10400000000000001, 0.99, 192.0, 0.0, 72.0, 126.0, 96.0, 15.0, 120.0, 0.0, 0.0, 0.0, 1.645920989666284E9, 0.0, 2022-02-27 11:16:29.666
0.0, -2406.0311801470734, -5566.701956594224, -2123.795702909911, -10811.069406398465, -893.6003915787211, 50.045555835432516, -5276.71042403107, -1743.0784396026659, -2364.2781215045597, -6921.105911863556, -4392.430709890212, -3468.454297596729, -4819.3043254976665, -3531.3744582384184, -10012.151004332425, -14178.739688246214, 0.018000000000000002, -0.10400000000000001, 0.99, 192.0, 0.0, 0.0, 0.0, 0.0, 0.0, 0.0, 0.0, 0.0, 0.0, 1.645920989673867E9, 0.0, 2022-02-27 11:16:29.673
2.0, -2009.3994747876495, -5290.1214707042545, -1904.2568688698852, -10568.284758124919, -554.5691316806235, 287.55519241752535, -5241.349964302774, -1755.7295269643698, -3911.242355256362, -7011.138738529532, -4072.7113572015, -3468.6554632968264, -4446.857207638885, -3275.670501669705, -10130.347029012088, -14545.285945568794, 0.018000000000000002, -0.10400000000000001, 0.99, 192.0, 0.0, 0.0, 0.0, 0.0, 0.0, 0.0, 0.0, 0.0, 0.0, 1.645920989682015E9, 0.0, 2022-02-27 11:16:29.682
4.0, -2681.091747414082, -5782.217476632295, -2347.983699796641, -11057.13976110694, -1148.075002202392, -161.7819263675125, -5477.406737495272, -2011.6570009776356, -4012.1381297276175, -7560.075230607418, -4450.612300707377, -3624.313011683585, -4821.897127854482, -3613.338305156029, -10315.642990546583, -14984.274206671025, 0.018000000000000002, -0.10400000000000001, 0.99, 192.0, 0.0, 0.0, 0.0, 0.0, 0.0, 0.0, 0.0, 0.0, 0.0, 1.645920989689909E9, 0.0, 2022-02-27 11:16:29.689
6.0, -2043.5082368264482, -5298.1680987081645, -1887.6495227395922, -10547.810560203858, -572.9646173673412, 303.9613728477207, -5150.333660880764, -1616.4781590078069, -2445.973747488707, -6656.304795301533, -4189.20864930256, -3399.2309450186426, -4612.170709630336, -3326.967755194635, -9937.362067384967, -13980.569121905462, 0.018000000000000002, -0.10400000000000001, 0.99, 192.0, 0.0, 0.0, 0.0, 0.0, 0.0, 0.0, 0.0, 0.0, 0.0, 1.64592098969641E9, 0.0, 2022-02-27 11:16:29.696
8.0, -2451.1817039467937, -5626.068189867519, -2222.2327854910836, -10924.616268231424, -970.825668671807, -30.845407348323747, -5494.1034906033865, -2048.4479723510713, -5000.375807330109, -7558.0635736064405, -4219.02587640594, -3616.6463633354147, -4546.523636165099, -3421.828558662958, -10375.903293598092, -15184.4340782683, 0.012, -0.10200000000000001, 0.992, 192.0, 0.0, 48.0, 126.0, 104.0, 15.5, 0.0, 0.0, 0.0, 0.0, 1.645920989713429E9, 0.0, 2022-02-27 11:16:29.713
10.0, -2442.1515991868496, -5598.933172098777, -2137.854950172299, -10829.397836851816, -916.4215226675896, 38.914387096689595, -5277.336272875818, -1768.693538748448, -2426.103046667939, -6961.674328049938, -4411.58615488841, -3476.836201767469, -4831.418970992443, -3536.8506356299686, -10025.897327172439, -14211.015607239677, 0.012, -0.10200000000000001, 0.992, 192.0, 0.0, 0.0, 0.0, 0.0, 0.0, 0.0, 0.0, 0.0, 0.0, 1.645920989718627E9, 0.0, 2022-02-27 11:16:29.718
12.0, -2025.7162482400238, -5306.125319734254, -1893.1704036200529, -10566.988356946511, -552.3116054906375, 299.8039483790336, -5234.331516543808, -1747.5487884937274, -3858.805162764211, -7005.059064037689, -4078.4334037820586, -3466.1073644289213, -4451.1487425743035, -3266.126306787289, -10120.311095751655, -14511.311293996729, 0.012, -0.10200000000000001, 0.992, 192.0, 0.0, 0.0, 0.0, 0.0, 0.0, 0.0, 0.0, 0.0, 0.0, 1.645920989726135E9, 0.0, 2022-02-27 11:16:29.726
14.0, -2723.940041534906, -5825.15517773094, -2340.764086337577, -11063.107676876507, -1160.9272552641935, -157.08806003189804, -5478.770193907046, -2011.3664282997167, -4023.9174990555643, -7570.334681312404, -4464.380975291846, -3636.450008922817, -4820.377209231521, -3609.76202604318, -10314.726569023916, -14974.10416294386, 0.012, -0.10200000000000001, 0.992, 192.0, 0.0, 0.0, 0.0, 0.0, 0.0, 0.0, 0.0, 0.0, 0.0, 1.645920989734139E9, 0.0, 2022-02-27 11:16:29.734
16.0, -2115.927888861643, -5376.957997913122, -1887.4483570394943, -10549.688106738104, -568.2931027761821, 301.5920879354582, -5156.569797583795, -1613.058342106145, -2462.3352244299917, -6667.3689088069095, -4205.324257054836, -3408.506918967595, -4606.873346194428, -3321.290412102987, -9937.026791218137, -13974.645909624805, 0.012, -0.10200000000000001, 0.992, 192.0, 0.0, 0.0, 0.0, 0.0, 0.0, 0.0, 0.0, 0.0, 0.0, 1.645920989742259E9, 0.0, 2022-02-27 11:16:29.742
18.0, -2570.584722827044, -5742.856054646499, -2228.468922194114, -10940.061323650041, -973.2396570729801, -36.008660317499675, -5475.059804327465, -2050.3031671408617, -5020.917060484536, -7598.274361881538, -4241.534083072434, -3638.2381484792413, -4550.61400540042, -3414.2066138036985, -10379.211351777478, -15174.018165352127, 0.014, -0.10200000000000001, 0.992, 192.0, 0.0, 56.0, 126.0, 104.0, 15.5, 0.0, 0.0, 0.0, 0.0, 1.645920989748808E9, 0.0, 2022-02-27 11:16:29.748
20.0, -2579.4360136313458, -5741.5149499791805, -2137.0726391163635, -10827.386179850839, -898.115443958693, 58.47216349508328, -5265.132220403221, -1756.4894862758501, -2443.0233172206067, -6983.154354471488, -4448.399478006301, -3519.863309843935, -4829.496720969287, -3522.2549465006527, -10020.421149780888, -14190.072022685055, 0.014, -0.10200000000000001, 0.992, 192.0, 0.0, 0.0, 0.0, 0.0, 0.0, 0.0, 0.0, 0.0, 0.0, 1.645920989756729E9, 0.0, 2022-02-27 11:16:29.756
22.0, -2200.9092212807204, -5472.019967081544, -1901.3511420906952, -10577.270159395954, -534.0278785261963, 314.15376831934077, -5227.603641462761, -1743.6148814695935, -3938.1091520916407, -7043.191140078443, -4130.535320107379, -3516.8234725980133, -4448.734754173131, -3246.6355856222613, -10124.937906853904, -14514.440538220471, 0.014, -0.10200000000000001, 0.992, 192.0, 0.0, 0.0, 0.0, 0.0, 0.0, 0.0, 0.0, 0.0, 0.0, 1.645920989763909E9, 0.0, 2022-02-27 11:16:29.763
24.0, -2906.8667181571386, -6000.303447282726, -2346.2849672180378, -11079.513857306703, -1141.9953277105485, -149.95785355065507, -5452.417487194239, -1999.9446868830548, -4105.657828528622, -7619.84379528091, -4512.839557270951, -3684.9979978797437, -4810.408331204454, -3603.525889340149, -10311.999656200369, -14983.134267703805, 0.014, -0.10200000000000001, 0.992, 192.0, 0.0, 0.0, 0.0, 0.0, 0.0, 0.0, 0.0, 0.0, 0.0, 1.645920989771917E9, 0.0, 2022-02-27 11:16:29.771
26.0, -2275.9663791616417, -5519.450368815705, -1899.4959473009048, -10567.323633113341, -553.362137480037, 314.77961716408936, -5129.7030007485155, -1595.3557604975415, -2512.291373287603, -6709.658409316351, -4261.0248042374615, -3465.0344806950666, -4608.370913072934, -3320.195176624677, -9924.15218641188, -13971.606072378883, 0.014, -0.10200000000000001, 0.992, 192.0, 0.0, 0.0, 0.0, 0.0, 0.0, 0.0, 0.0, 0.0, 0.0, 1.645920989778411E9, 0.0, 2022-02-27 11:16:29.778
28.0, -2667.8595146965404, -5819.4107794059255, -2230.8158553619214, -10936.753265470656, -947.4680957160111, -18.753113598002624, -5472.198781037186, -2052.292472397384, -5069.353290719187, -7602.074158438941, -4283.376548692769, -3670.3576052615176, -4547.3506507099455, -3405.645895677316, -10367.499037682896, -15170.486589728189, 0.016, -0.10200000000000001, 0.992, 192.0, 0.0, 64.0, 126.0, 104.0, 15.5, 0.0, 0.0, 0.0, 0.0, 1.645920989788144E9, 0.0, 2022-02-27 11:16:29.788
30.0, -2647.8547034090407, -5789.079462180074, -2155.736345736545, -10844.440560870238, -910.1183307311929, 49.55381745741576, -5278.453860098584, -1762.4574020454172, -2504.915297617352, -7004.232049492843, -4486.464498813689, -3537.6105949414487, -4840.627889708029, -3523.6631064013372, -10023.2151178378, -14209.540392105628, 0.016, -0.10200000000000001, 0.992, 192.0, 0.0, 0.0, 0.0, 0.0, 0.0, 0.0, 0.0, 0.0, 0.0, 1.645920989794478E9, 0.0, 2022-02-27 11:16:29.794
32.0, -2187.2970089074383, -5469.293054257996, -1900.5464792903042, -10574.431487850128, -535.167817493417, 315.8525008979441, -5219.422902992118, -1736.4846749883504, -3907.420206954504, -7043.1017331006215, -4145.555692381346, -3516.6223068979157, -4463.956292147194, -3258.5043619280295, -10119.417025973444, -14497.833192090178, 0.016, -0.10200000000000001, 0.992, 192.0, 0.0, 0.0, 0.0, 0.0, 0.0, 0.0, 0.0, 0.0, 0.0, 1.64592098980147E9, 0.0, 2022-02-27 11:16:29.801
34.0, -2849.5121418848207, -5952.269548448271, -2351.492923676124, -11074.708232248811, -1151.6065778263305, -143.18527498069705, -5480.267760785551, -2012.7522364559456, -4158.139724509683, -7628.471568640658, -4502.4459960992335, -3676.9066663869226, -4812.3752847165215, -3604.4870143517273, -10318.414606859042, -15007.318855204447, 0.016, -0.10200000000000001, 0.992, 192.0, 0.0, 0.0, 0.0, 0.0, 0.0, 0.0, 0.0, 0.0, 0.0, 1.645920989808972E9, 0.0, 2022-02-27 11:16:29.808
36.0, -2197.310590423416, -5452.663356383247, -1897.4395868110166, -10564.261444122963, -579.4689750038356, 304.2966490145503, -5182.855449063236, -1626.0223538902228, -2463.9221982863187, -6689.27361837311, -4250.251263410004, -3436.379544303363, -4627.504006326676, -3325.581947038406, -9932.690552793807, -13973.036584024023, 0.015, -0.10300000000000001, 0.992, 192.0, 0.0, 56.0, 126.0, 96.0, 15.5, 0.0, 0.0, 0.0, 0.0, 1.645920989817194E9, 0.0, 2022-02-27 11:16:29.817
38.0, -2569.2212664152703, -5738.609223199991, -2219.796445345455, -10936.97678291521, -968.210514570536, -21.435322932639473, -5476.17739155023, -2052.493638097482, -5025.141540186589, -7577.286073838005, -4251.838237266331, -3641.702668869814, -4545.093124519959, -3395.252334505598, -10372.684642396527, -15165.412743736833, 0.015, -0.10300000000000001, 0.992, 192.0, 0.0, 0.0, 0.0, 0.0, 0.0, 0.0, 0.0, 0.0, 0.0, 1.645920989830686E9, 0.0, 2022-02-27 11:16:29.830
40.0, -2533.0114403976727, -5699.918353547854, -2135.0386303709306, -10836.528043333059, -913.247574954936, 45.374041244273336, -5251.162380118654, -1768.9841114263668, -2461.1282302294053, -6975.308892167675, -4454.054469353494, -3504.21708872522, -4838.6162327070515, -3517.4940249316724, -10021.874013170484, -14206.85818277099, 0.015, -0.10300000000000001, 0.992, 192.0, 0.0, 0.0, 0.0, 0.0, 0.0, 0.0, 0.0, 0.0, 0.0, 1.645920989838697E9, 0.0, 2022-02-27 11:16:29.838
42.0, -2096.2360019965176, -5389.944361441656, -1886.5319355168267, -10565.311976112363, -544.6449571424672, 313.39380900786034, -5229.883519397202, -1722.1348550480432, -3866.1141832010967, -7015.296162998219, -4113.369180365704, -3487.0956524724547, -4459.195370578214, -3246.903806555725, -10109.85047934657, -14494.34631995515, 0.015, -0.10300000000000001, 0.992, 192.0, 0.0, 0.0, 0.0, 0.0, 0.0, 0.0, 0.0, 0.0, 0.0, 1.645920989846771E9, 0.0, 2022-02-27 11:16:29.846
44.0, -2765.089603077126, -5876.832410911609, -2336.785475824532, -11072.830685714565, -1164.0788512323918, -159.65851064425834, -5479.284284029518, -2018.2731173364066, -4109.435273341569, -7595.368635102348, -4475.690957986231, -3651.984471319255, -4809.693075381884, -3604.464662607272, -10317.65464754756, -14999.696910345187, 0.015, -0.10300000000000001, 0.992, 192.0, 0.0, 0.0, 0.0, 0.0, 0.0, 0.0, 0.0, 0.0, 0.0, 1.645920989854688E9, 0.0, 2022-02-27 11:16:29.854
46.0, -2126.2096913110845, -5391.956018442634, -1889.035330895821, -10563.322670855841, -577.1443935804837, 303.1567100473297, -5131.804064727315, -1627.2964033241753, -2438.687078796277, -6670.051118141547, -4223.876204952741, -3413.2007853032096, -4614.361180586956, -3335.193197154188, -9922.028770688627, -13975.785848592026, 0.0135, -0.10450000000000001, 0.994, 192.0, 0.0, 48.0, 126.0, 88.0, 15.5, 16.0, 0.0, 0.0, 0.0, 1.645920989862758E9, 0.0, 2022-02-27 11:16:29.862
48.0, -2494.2758672566256, -5668.894132243888, -2205.6477911052457, -10923.789253686578, -950.9996713399496, -10.997058272011074, -5458.787734364001, -2035.6851262670907, -5002.186298630989, -7561.863370163843, -4235.700277769599, -3621.563747115582, -4539.013450028116, -3397.8227851179586, -10366.493209182407, -15168.698450171763, 0.0135, -0.10450000000000001, 0.994, 192.0, 0.0, 0.0, 0.0, 0.0, 0.0, 0.0, 0.0, 0.0, 0.0, 1.645920989869321E9, 0.0, 2022-02-27 11:16:29.869
50.0, -2499.8414516259973, -5660.623986795425, -2149.3884503112376, -10845.960479493198, -933.0065170534274, 48.57034070138225, -5300.33621792033, -1769.4534980599283, -2478.361425204447, -6981.120345726054, -4454.277986798047, -3503.211260224731, -4842.8407124091045, -3535.777751896114, -10029.741827218751, -14225.119557990976, 0.0135, -0.10450000000000001, 0.994, 192.0, 0.0, 0.0, 0.0, 0.0, 0.0, 0.0, 0.0, 0.0, 0.0, 1.645920989877357E9, 0.0, 2022-02-27 11:16:29.877
52.0, -2043.4411815930823, -5335.875491604268, -1885.0343686383212, -10561.13219989922, -538.8558553285427, 314.35493401943853, -5246.781438205414, -1741.402058768518, -3803.194022559407, -6973.81132528917, -4108.652962285633, -3464.118059172399, -4464.448030525212, -3243.26047220951, -10113.247944503779, -14477.493104635849, 0.0135, -0.10450000000000001, 0.994, 192.0, 0.0, 0.0, 0.0, 0.0, 0.0, 0.0, 0.0, 0.0, 0.0, 1.645920989883434E9, 0.0, 2022-02-27 11:16:29.883
54.0, -2730.6455648714978, -5843.3047942286485, -2345.4803044176465, -11074.551770037624, -1161.6648628312187, -161.64781590078067, -5486.928580633233, -2025.000992417454, -4163.370032712225, -7605.561030573968, -4472.1593823622925, -3648.408192206406, -4812.643505649985, -3604.0623312070766, -10329.098740708678, -15029.06710255946, 0.0135, -0.10450000000000001, 0.994, 192.0, 0.0, 0.0, 0.0, 0.0, 0.0, 0.0, 0.0, 0.0, 0.0, 1.645920989891034E9, 0.0, 2022-02-27 11:16:29.891
56.0, -2103.3662084777607, -5374.164029856209, -1896.2772960993407, -10565.870769723746, -580.5865622266009, 298.3510849894387, -5148.187893413055, -1609.7726356712146, -2401.896107422842, -6677.427193811798, -4239.388315604725, -3418.4310935057515, -4630.096808683492, -3339.3059181339645, -9920.330038110023, -13965.057011253479, 0.012750000000000001, -0.10225000000000001, 0.993, 192.0, 0.0, 48.0, 126.0, 112.0, 15.5, 0.0, 0.0, 0.0, 0.0, 1.645920989898903E9, 0.0, 2022-02-27 11:16:29.898
58.0, -2445.616119577422, -5633.779541704601, -2191.1638606982065, -10904.969084855209, -929.3631827072123, 12.807549572890947, -5485.207496310174, -2025.5374342843813, -4980.907437909536, -7548.005288601553, -4224.189129375116, -3610.2314126767415, -4527.926984778283, -3383.808241344481, -10351.450485163985, -15148.89480458436, 0.012750000000000001, -0.10225000000000001, 0.993, 192.0, 0.0, 0.0, 0.0, 0.0, 0.0, 0.0, 0.0, 0.0, 0.0, 1.645920989907033E9, 0.0, 2022-02-27 11:16:29.907
60.0, -2476.7744513481202, -5638.8310359515, -2145.409839798193, -10851.883691773855, -912.3088016878131, 48.883265123756544, -5286.8357642693245, -1777.4777743193836, -2489.1573177763603, -6999.694645368415, -4442.789190148019, -3490.873097285402, -4825.540462200697, -3517.0693417870216, -10020.912888158904, -14238.575308153071, 0.012750000000000001, -0.10225000000000001, 0.993, 192.0, 0.0, 0.0, 0.0, 0.0, 0.0, 0.0, 0.0, 0.0, 0.0, 1.645920989913635E9, 0.0, 2022-02-27 11:16:29.913
62.0, -2010.0476753768535, -5300.202107453598, -1872.1150603431536, -10551.699763739081, -518.4040091519367, 324.5473294910586, -5231.157568831154, -1742.2290733133643, -3746.822923043123, -6957.360441370063, -4090.1457178766395, -3447.600120019927, -4438.698820912698, -3234.0962569828343, -10087.610493613542, -14460.751648038824, 0.012750000000000001, -0.10225000000000001, 0.993, 192.0, 0.0, 0.0, 0.0, 0.0, 0.0, 0.0, 0.0, 0.0, 0.0, 1.645920989921554E9, 0.0, 2022-02-27 11:16:29.921
64.0, -2712.9876867518055, -5815.0074857482305, -2344.4074206837918, -11076.943406694343, -1149.75138303654, -161.0666705449427, -5462.833400110412, -2011.612297488725, -4137.598471355256, -7595.055710679974, -4462.88340841334, -3641.367392702984, -4797.444319420376, -3595.6133718029705, -10312.357284111653, -15015.566648908454, 0.012750000000000001, -0.10225000000000001, 0.993, 192.0, 0.0, 0.0, 0.0, 0.0, 0.0, 0.0, 0.0, 0.0, 0.0, 1.645920989929607E9, 0.0, 2022-02-27 11:16:29.929
66.0, -2088.904629815177, -5344.7714858974805, -1895.5620402767709, -10570.721098270547, -567.1755155534167, 296.63000066638006, -5133.256928116909, -1609.0350281041895, -2399.303305066026, -6666.854818684437, -4227.296021854403, -3411.2785352800533, -4618.920936455838, -3328.621784284328, -9907.455433303767, -13959.983165262123, 0.013375000000000001, -0.10312500000000001, 0.9924999999999999, 192.0, 0.0, 56.0, 126.0, 96.0, 15.5, 0.0, 0.0, 0.0, 0.0, 1.645920989936604E9, 0.0, 2022-02-27 11:16:29.936
68.0, -2439.335279385481, -5616.0769600959975, -2196.2600584340166, -10912.9263058813, -930.0784385297821, -5.900860536201065, -5486.190973066208, -2038.54614955737, -4984.282551322288, -7545.5018932225585, -4225.306716597881, -3601.4248253613505, -4527.904633033828, -3383.7858896000257, -10351.361078186164, -15149.43124645129, 0.013375000000000001, -0.10312500000000001, 0.9924999999999999, 192.0, 0.0, 0.0, 0.0, 0.0, 0.0, 0.0, 0.0, 0.0, 0.0, 1.645920989944285E9, 0.0, 2022-02-27 11:16:29.944
70.0, -2454.4674103817238, -5611.49485248266, -2142.124133363263, -10843.390028880838, -912.8228918102851, 39.94256734163372, -5290.233229426531, -1766.950102680934, -2465.5985791204666, -6982.95318877139, -4447.416001250267, -3480.5689430915054, -4832.916537870949, -3529.541615193083, -10025.3161818166, -14229.791072582135, 0.013375000000000001, -0.10312500000000001, 0.9924999999999999, 192.0, 0.0, 0.0, 0.0, 0.0, 0.0, 0.0, 0.0, 0.0, 0.0, 1.645920989959179E9, 0.0, 2022-02-27 11:16:29.959
72.0, -2003.7221316960017, -5287.483964858528, -1879.7593569468686, -10558.85232196478, -526.2047679668389, 318.93704163277647, -5240.120618357732, -1747.7052507049145, -3776.729557124324, -6968.826886275636, -4097.588848780257, -3450.6623090103044, -4459.195370578214, -3244.7580390880157, -10105.983627555803, -14473.29097667825, 0.013375000000000001, -0.10312500000000001, 0.9924999999999999, 192.0, 0.0, 0.0, 0.0, 0.0, 0.0, 0.0, 0.0, 0.0, 0.0, 1.645920989965814E9, 0.0, 2022-02-27 11:16:29.965
74.0, -2701.834166268607, -5806.3797123884815, -2343.3568886943926, -11077.412793327903, -1160.7931447974618, -158.18329551020807, -5497.545659249504, -2028.711381997035, -4172.847172361276, -7605.113995684862, -4456.401402521301, -3640.8980060694225, -4803.501642167765, -3589.7348630112247, -10330.32808665372, -15032.665733416765, 0.013375000000000001, -0.10312500000000001, 0.9924999999999999, 192.0, 0.0, 0.0, 0.0, 0.0, 0.0, 0.0, 0.0, 0.0, 0.0, 1.645920989973934E9, 0.0, 2022-02-27 11:16:29.973
76.0, -2085.2389437245065, -5344.39150624174, -1896.165537377064, -10573.336252371819, -575.5797714686122, 290.5726779189918, -5159.87785576318, -1613.7065426953486, -2381.8689443908866, -6661.55745524853, -4222.490396796513, -3397.1969362732098, -4632.220224406747, -3323.0114964260456, -9922.520509066642, -13959.357316417376, 0.013687500000000002, -0.1035625, 0.99125, 192.0, 0.0, 56.0, 126.0, 96.0, 15.0, 120.0, 0.0, 0.0, 0.0, 1.645920989983279E9, 0.0, 2022-02-27 11:16:29.983
78.0, -2434.6861165387772, -5613.819433906011, -2199.5681166134023, -10915.429701260293, -933.0065170534274, -9.119511737765281, -5488.828478911934, -2045.0505071938644, -4974.112507595123, -7539.578680941901, -4213.817919947854, -3595.3004473805963, -4530.206862712725, -3375.7839650850256, -10355.80907533277, -15142.099874269948, 0.013687500000000002, -0.1035625, 0.99125, 192.0, 0.0, 0.0, 0.0, 0.0, 0.0, 0.0, 0.0, 0.0, 0.0, 1.645920989989443E9, 0.0, 2022-02-27 11:16:29.989
80.0, -2460.435326151291, -5620.0108671201315, -2150.550741022914, -10856.53285462056, -920.08720875826, 17.36730544177359, -5318.2399652290305, -1799.3601321411293, -2485.8045561080644, -6993.905543554491, -4451.64048095232, -3483.318207659508, -4844.2488723097895, -3525.1606732798427, -10035.642687754953, -14244.766741367192, 0.013687500000000002, -0.1035625, 0.99125, 192.0, 0.0, 0.0, 0.0, 0.0, 0.0, 0.0, 0.0, 0.0, 0.0, 1.64592098999658E9, 0.0, 2022-02-27 11:16:29.996
82.0, -1999.96703862751, -5295.307075417885, -1878.977045890933, -10562.85328422228, -523.522558632202, 314.824320653, -5247.116714372243, -1735.4788464878616, -3755.4730481473266, -6960.37792687153, -4105.7025320175335, -3456.1831898907653, -4458.681280455742, -3251.552969402429, -10107.369435712033, -14467.971261497887, 0.013687500000000002, -0.1035625, 0.99125, 192.0, 0.0, 0.0, 0.0, 0.0, 0.0, 0.0, 0.0, 0.0, 0.0, 1.64592099000467E9, 0.0, 2022-02-27 11:16:30.004
84.0, -2694.547497576177, -5804.43511062087, -2341.7475630936106, -11083.380709097471, -1146.7786010239843, -164.5311909355153, -5510.353208822395, -2055.354661387761, -4180.06678582034, -7594.7427862576, -4459.016556622571, -3636.8076368341017, -4802.495813667276, -3608.063293464577, -10334.932546011514, -15037.918393363761, 0.013687500000000002, -0.1035625, 0.99125, 192.0, 0.0, 0.0, 0.0, 0.0, 0.0, 0.0, 0.0, 0.0, 0.0, 1.645920990011439E9, 0.0, 2022-02-27 11:16:30.011
86.0, -2075.985321520009, -5336.903671849212, -1895.7632059768684, -10576.979586718035, -581.8606116605534, 300.3850937348716, -5171.500762879939, -1603.5812024570946, -2368.3237872509703, -6655.947167390248, -4218.467082794557, -3391.8548693483913, -4624.397113847389, -3324.106731904356, -9923.43693058931, -13963.447685652696, 0.014843750000000001, -0.10478124999999999, 0.990625, 192.0, 0.0, 64.0, 126.0, 88.0, 15.0, 120.0, 0.0, 0.0, 0.0, 1.645920990018557E9, 0.0, 2022-02-27 11:16:30.018
88.0, -2410.501529038135, -5591.087709794964, -2186.5370495959583, -10908.187736056774, -915.1921767225476, 14.707447851592047, -5472.958740348666, -2016.4402742910713, -4951.425486972987, -7521.563174910924, -4204.9666291435515, -3577.9778454277334, -4519.008638740616, -3375.560447640473, -10350.176435730033, -15134.23206022168, 0.014843750000000001, -0.10478124999999999, 0.990625, 192.0, 0.0, 0.0, 0.0, 0.0, 0.0, 0.0, 0.0, 0.0, 0.0, 1.64592099002619E9, 0.0, 2022-02-27 11:16:30.026
90.0, -2476.2603612256485, -5627.766922446122, -2160.5866742833464, -10861.025555256076, -929.5867001517654, 37.6626894071924, -5311.62384887026, -1775.4437655739507, -2497.650980669377, -6994.687854610426, -4449.517065229066, -3476.3891668783626, -4840.2926135412, -3527.351144236463, -10034.32393483209, -14253.930956593867, 0.014843750000000001, -0.10478124999999999, 0.990625, 192.0, 0.0, 0.0, 0.0, 0.0, 0.0, 0.0, 0.0, 0.0, 0.0, 1.645920990034233E9, 0.0, 2022-02-27 11:16:30.034
92.0, -2004.4373875185715, -5292.311941660874, -1882.8215459372457, -10555.074877151834, -522.0026400092412, 321.7533614341452, -5228.721228685526, -1728.8403783846354, -3714.859928472034, -6952.063077934155, -4107.580078551779, -3444.090896140444, -4463.2410363246245, -3251.821190335893, -10092.214952971335, -14441.752665251812, 0.014843750000000001, -0.10478124999999999, 0.990625, 192.0, 0.0, 0.0, 0.0, 0.0, 0.0, 0.0, 0.0, 0.0, 0.0, 1.645920990042201E9, 0.0, 2022-02-27 11:16:30.042
94.0, -2688.847802740074, -5797.818994262099, -2352.0070137985963, -11077.323386350083, -1157.5074383625315, -154.45055418617181, -5515.382351324839, -2035.7298297560014, -4201.278591308426, -7600.286018882516, -4455.909664143284, -3627.7775320741575, -4800.260639221745, -3588.594924044004, -10336.430112890019, -15046.188538812226, 0.014843750000000001, -0.10478124999999999, 0.990625, 192.0, 0.0, 0.0, 0.0, 0.0, 0.0, 0.0, 0.0, 0.0, 0.0, 1.645920990048825E9, 0.0, 2022-02-27 11:16:30.048
96.0, -2090.357493204772, -5341.686945162648, -1916.6620870425807, -10584.28860715492, -589.102576864073, 287.17521276178513, -5156.97212898399, -1624.8600631785469, -2359.8748278468643, -6649.353402775932, -4226.893690454208, -3390.938447825724, -4634.656564552375, -3335.260252387554, -9920.799424743584, -13966.174598476244, 0.014421875, -0.104390625, 0.9873125, 192.0, 0.0, 56.0, 126.0, 96.0, 15.0, 96.0, 0.0, 0.0, 0.0, 1.645920990056796E9, 0.0, 2022-02-27 11:16:30.056
98.0, -2425.7677705011097, -5602.375340744894, -2204.731369582578, -10911.316980280517, -926.7703803503967, -0.40233140019552716, -5470.3882897363055, -2031.3935913316718, -4956.812257386716, -7512.913049806721, -4214.019085647951, -3592.729996768236, -4535.973612782194, -3380.835459331925, -10352.322203197742, -15134.075598010493, 0.014421875, -0.104390625, 0.9873125, 192.0, 0.0, 0.0, 0.0, 0.0, 0.0, 0.0, 0.0, 0.0, 0.0, 1.645920990064718E9, 0.0, 2022-02-27 11:16:30.064
100.0, -2481.2224484947265, -5630.44913178076, -2173.8412587453436, -10872.96138679521, -944.763534636919, 27.962032313589134, -5319.893994318723, -1789.5477163252494, -2520.06978035805, -7004.120290770566, -4462.391670035323, -3498.003303766645, -4856.00588989328, -3532.9390803502897, -10040.291850601656, -14264.235110787764, 0.014421875, -0.104390625, 0.9873125, 192.0, 0.0, 0.0, 0.0, 0.0, 0.0, 0.0, 0.0, 0.0, 0.0, 1.645920990078602E9, 0.0, 2022-02-27 11:16:30.078
102.0, -2005.5549747413368, -5292.423700383151, -1888.364778562162, -10563.970871445044, -531.8597593140315, 316.2548322981396, -5254.917473187145, -1728.2815847732527, -3709.339047591573, -6944.999926686279, -4114.665581544111, -3453.9033119563237, -4474.685129485742, -3261.4547921961303, -10096.171211739924, -14445.083075175653, 0.014421875, -0.104390625, 0.9873125, 192.0, 0.0, 0.0, 0.0, 0.0, 0.0, 0.0, 0.0, 0.0, 0.0, 1.64592099008649E9, 0.0, 2022-02-27 11:16:30.086
104.0, -2702.3706081355344, -5811.207689190828, -2350.5765021534567, -11090.91324697891, -1157.5297901069869, -169.76149913805713, -5492.583571980425, -2077.259370953962, -4219.204690361582, -7614.255859167083, -4464.537437503032, -3636.33825020054, -4807.010866047248, -3600.642514305415, -10335.558394856262, -15058.839626173929, 0.014421875, -0.104390625, 0.9873125, 192.0, 0.0, 0.0, 0.0, 0.0, 0.0, 0.0, 0.0, 0.0, 0.0, 1.645920990094582E9, 0.0, 2022-02-27 11:16:30.094
106.0, -2097.8229758528446, -5349.398296999729, -1917.5785085652483, -10593.676339826148, -606.4028270724806, 280.60379989192484, -5185.202382231043, -1600.2507925332538, -2360.143048780328, -6662.138600604368, -4233.889786468719, -3395.475851950151, -4639.976279732738, -3345.989089726101, -9919.525375309631, -13971.963700290169, 0.014, -0.10400000000000001, 0.988, 192.0, 0.0, 56.0, 126.0, 96.0, 15.0, 112.0, 0.0, 0.0, 0.0, 1.645920990101173E9, 0.0, 2022-02-27 11:16:30.101
108.0, -2422.0350291770733, -5602.956486100732, -2199.7692823135, -10912.993361114664, -934.4593804430224, 2.190470956620092, -5465.783830378513, -2022.1176173827193, -4953.057164318224, -7521.026733043997, -4217.394199060703, -3591.768871756658, -4542.835598329973, -3394.179450771743, -10347.76244732886, -15131.683961353776, 0.014, -0.10400000000000001, 0.988, 192.0, 0.0, 0.0, 0.0, 0.0, 0.0, 0.0, 0.0, 0.0, 0.0, 1.645920990109079E9, 0.0, 2022-02-27 11:16:30.109
110.0, -2485.715149130243, -5632.5725475040135, -2173.617741300791, -10878.705785120224, -952.988976596472, 20.38479094324004, -5326.621869399771, -1789.2794953917858, -2533.5478822646, -7009.90939258449, -4463.97864389165, -3493.443547897762, -4860.073907384147, -3554.5532172385715, -10036.737923233262, -14275.589796971059, 0.014, -0.10400000000000001, 0.988, 192.0, 0.0, 0.0, 0.0, 0.0, 0.0, 0.0, 0.0, 0.0, 0.0, 1.64592099011711E9, 0.0, 2022-02-27 11:16:30.117
112.0, -2002.7610066844234, -5290.702616060093, -1880.295798813796, -10560.528702798927, -528.8646255570204, 325.2402335691731, -5229.883519397202, -1707.2709449852641, -3686.830840925079, -6934.785179470204, -4118.219508912505, -3448.0248031645783, -4482.55294353401, -3257.319719471898, -10086.358795924043, -14428.38632206754, 0.014, -0.10400000000000001, 0.988, 192.0, 0.0, 0.0, 0.0, 0.0, 0.0, 0.0, 0.0, 0.0, 0.0, 1.645920990124243E9, 0.0, 2022-02-27 11:16:30.124
114.0, -2701.4094831239563, -5810.693599068356, -2345.860284073387, -11091.941427223854, -1156.7474790510512, -161.15607752276392, -5513.840080957423, -2041.161303658641, -4259.549589103412, -7616.6474958238, -4460.312957800979, -3637.43348567885, -4800.350046199566, -3592.5511828125937, -10329.366961642143, -15063.22056808717, 0.014, -0.10400000000000001, 0.988, 192.0, 0.0, 0.0, 0.0, 0.0, 0.0, 0.0, 0.0, 0.0, 0.0, 1.645920990130898E9, 0.0, 2022-02-27 11:16:30.130
116.0, -2106.0037143234867, -5360.82003841639, -1913.4657875854716, -10597.073804983354, -599.9655246693521, 280.8943725698439, -5190.723263111504, -1622.7142957108374, -2349.727135864155, -6664.865513427915, -4238.337783615325, -3395.453500205696, -4642.434971622822, -3344.737392036604, -9914.67504676283, -13967.359240932376, 0.012, -0.108, 0.994, 192.0, 0.0, 48.0, 126.0, 80.0, 15.5, 8.0, 0.0, 0.0, 0.0, 1.645920990138718E9, 0.0, 2022-02-27 11:16:30.138
118.0, -2403.0360463900624, -5590.148936527841, -2179.9879884705533, -10901.683378420279, -904.4856911284556, 16.942622297122753, -5480.1336503188195, -2017.1778818580965, -4942.238920001855, -7510.744930594556, -4209.459329779069, -3590.4277670893393, -4528.642240600853, -3379.807279086981, -10344.990831016401, -15124.352589172435, 0.012, -0.108, 0.994, 192.0, 0.0, 0.0, 0.0, 0.0, 0.0, 0.0, 0.0, 0.0, 0.0, 1.645920990146608E9, 0.0, 2022-02-27 11:16:30.146
120.0, -2493.426500967324, -5639.903919685355, -2179.228029159073, -10891.379224226383, -961.1026598337484, 5.543232624916151, -5346.380811498262, -1797.683751306981, -2579.011330486695, -7039.100770843122, -4464.537437503032, -3501.5348793905832, -4859.649224239495, -3553.122705593432, -10052.026516440692, -14301.853096706045, 0.012, -0.108, 0.994, 192.0, 0.0, 0.0, 0.0, 0.0, 0.0, 0.0, 0.0, 0.0, 0.0, 1.645920990154878E9, 0.0, 2022-02-27 11:16:30.154
122.0, -2002.2469165619514, -5284.779403779436, -1881.458089525472, -10566.697784268592, -515.7441515617552, 331.94575690576517, -5227.693048440582, -1731.5449394637276, -3645.8153898495902, -6924.056342131656, -4111.0445989423515, -3446.7954572195363, -4483.178792378759, -3262.93000733018, -10085.062394745635, -14419.132699863041, 0.012, -0.108, 0.994, 192.0, 0.0, 0.0, 0.0, 0.0, 0.0, 0.0, 0.0, 0.0, 0.0, 1.645920990161308E9, 0.0, 2022-02-27 11:16:30.161
124.0, -2712.227727440325, -5813.040532236163, -2353.3257667214593, -11104.234886674272, -1165.8669907888163, -161.67016764523598, -5498.350322049895, -2051.4654578525374, -4278.839144568342, -7612.333609143926, -4467.085536370938, -3647.447067194828, -4815.035142306703, -3608.063293464577, -10337.413589646052, -15072.585949013943, 0.012, -0.108, 0.994, 192.0, 0.0, 0.0, 0.0, 0.0, 0.0, 0.0, 0.0, 0.0, 0.0, 1.645920990169273E9, 0.0, 2022-02-27 11:16:30.169
126.0, -2123.505130231992, -5369.537218753961, -1919.5454620773153, -10620.118453516776, -608.4368358179136, 267.0586427520088, -5170.45023089054, -1617.1040078525555, -2360.925359836264, -6676.220199611212, -4253.715783800577, -3409.9150788682796, -4665.345509689511, -3361.970587011646, -9919.905354965373, -13966.979261276634, 0.012, -0.108, 0.99, 192.0, 0.0, 48.0, 126.0, 80.0, 15.0, 120.0, 0.0, 0.0, 0.0, 1.645920990177496E9, 0.0, 2022-02-27 11:16:30.177
128.0, -2416.33533434097, -5603.381169245383, -2183.0054739720194, -10920.525898996104, -917.3155924458018, 6.102026236298828, -5480.267760785551, -2037.6967832680684, -4951.73841139536, -7530.392113970771, -4218.534138027923, -3605.6716568078587, -4537.806455827529, -3400.1473665413105, -10344.119112982646, -15124.12907172788, 0.012, -0.108, 0.99, 192.0, 0.0, 0.0, 0.0, 0.0, 0.0, 0.0, 0.0, 0.0, 0.0, 1.645920990184109E9, 0.0, 2022-02-27 11:16:30.184
130.0, -2498.723864403232, -5655.4607338262485, -2174.2659418899943, -10902.398634242849, -948.6750899165977, 13.031067017444018, -5333.81913111438, -1806.9597252559336, -2568.4836588482453, -7050.813084937702, -4469.879504427851, -3512.509585918139, -4854.10599161458, -3562.6669004758483, -10051.445371084854, -14309.698559009857, 0.012, -0.108, 0.99, 192.0, 0.0, 0.0, 0.0, 0.0, 0.0, 0.0, 0.0, 0.0, 0.0, 1.645920990191981E9, 0.0, 2022-02-27 11:16:30.191
132.0, -2002.2692683064067, -5287.796889280902, -1881.8380691812122, -10571.302243626385, -519.7451138192552, 353.26932111612814, -5243.339269559297, -1691.5129651442726, -3653.2138172642967, -6935.455731803862, -4125.86380551622, -3460.675890526282, -4481.167135377781, -3270.9319318451803, -10084.682415089896, -14419.244458585317, 0.012, -0.108, 0.99, 192.0, 0.0, 0.0, 0.0, 0.0, 0.0, 0.0, 0.0, 0.0, 0.0, 1.645920990206137E9, 0.0, 2022-02-27 11:16:30.206
134.0, -2708.025599482727, -5802.937543742364, -2360.1877522692384, -11104.547811096647, -1154.400545883244, -160.12789727781978, -5504.944086664211, -2042.5694635593254, -4311.875022873285, -7636.764065833577, -4465.252693325602, -3652.766782375191, -4801.802909589161, -3589.0643106775656, -10347.181301973022, -15082.688937507743, 0.012, -0.108, 0.99, 192.0, 0.0, 0.0, 0.0, 0.0, 0.0, 0.0, 0.0, 0.0, 0.0, 1.645920990213629E9, 0.0, 2022-02-27 11:16:30.213
136.0, -2130.769447179967, -5377.650901991236, -1932.9118052615888, -10624.901726830212, -644.6913653244216, 276.0216922785869, -5162.180085442077, -1617.3498770415638, -2349.3918596973253, -6673.202714109745, -4261.829467037853, -3420.889785395835, -4661.232788709734, -3352.6946130626934, -9921.4923288217, -13971.136685745321, 0.012, -0.112, 0.992, 192.0, 0.0, 48.0, 126.0, 64.0, 15.5, 0.0, 0.0, 0.0, 0.0, 1.645920990221556E9, 0.0, 2022-02-27 11:16:30.221
138.0, -2402.3878458008585, -5588.338445226961, -2187.2970089074383, -10911.942829125266, -918.1202552461929, 30.308965481396378, -5456.619615151837, -2023.2352046054848, -4956.454629475431, -7511.639000372768, -4220.232870606526, -3613.76298830068, -4537.0241447715935, -3385.7528431120927, -10339.67111583604, -15121.178641459781, 0.012, -0.112, 0.992, 192.0, 0.0, 0.0, 0.0, 0.0, 0.0, 0.0, 0.0, 0.0, 0.0, 1.645920990229769E9, 0.0, 2022-02-27 11:16:30.229
140.0, -2527.714076961765, -5673.878571257422, -2205.021942260497, -10923.789253686578, -988.7741194694186, -8.784235570935676, -5334.444979959128, -1814.1569869705424, -2639.2045783048366, -7084.2512946428415, -4478.17200162077, -3535.1966065402758, -4876.457736069887, -3568.1654296118536, -10064.543493335665, -14341.773312303223, 0.012, -0.112, 0.992, 192.0, 0.0, 0.0, 0.0, 0.0, 0.0, 0.0, 0.0, 0.0, 0.0, 1.645920990236275E9, 0.0, 2022-02-27 11:16:30.236
142.0, -2007.2984108088508, -5299.263334186475, -1892.3880925641172, -10577.896008240701, -533.1561604924393, 318.1323788323854, -5224.094417583277, -1737.4457999999286, -3616.0875697240317, -6943.971746441334, -4126.690820061066, -3469.482477841673, -4490.979551193661, -3271.088394056367, -10076.032289985693, -14412.09190035962, 0.012, -0.112, 0.992, 192.0, 0.0, 0.0, 0.0, 0.0, 0.0, 0.0, 0.0, 0.0, 0.0, 1.645920990244213E9, 0.0, 2022-02-27 11:16:30.244
144.0, -2712.317134418146, -5810.090101968062, -2374.7610896540987, -11105.397177385948, -1181.1779357407017, -160.79844961147901, -5511.381389067339, -2031.326536098306, -4348.934215180185, -7657.931167832753, -4468.761917205085, -3662.489791213249, -4802.361703200544, -3595.479261336239, -10348.634165362617, -15097.664606292798, 0.012, -0.112, 0.992, 192.0, 0.0, 0.0, 0.0, 0.0, 0.0, 0.0, 0.0, 0.0, 0.0, 1.645920990252321E9, 0.0, 2022-02-27 11:16:30.252
146.0, -2133.1610838366846, -5373.739346711558, -1944.579415867259, -10619.358494205297, -625.2900511372151, 272.3336544434612, -5177.379271671685, -1628.726914969315, -2341.211121226683, -6686.881981716393, -4268.199714207615, -3418.542852228028, -4675.806126094595, -3346.1232001928333, -9925.560346312564, -13968.38742117732, 0.008, -0.11, 0.992, 192.0, 0.0, 32.0, 126.0, 72.0, 15.5, 0.0, 0.0, 0.0, 0.0, 1.645920990259428E9, 0.0, 2022-02-27 11:16:30.259
148.0, -2407.0593603920174, -5587.8690585934, -2194.7177880666004, -10909.43943374627, -926.6586216281202, 23.871663078267943, -5469.98595833611, -2021.0223819044093, -4936.382762954565, -7506.63220961478, -4214.734341470521, -3601.7601015281803, -4533.358458680923, -3362.1046974783776, -10343.783836815815, -15113.914324511807, 0.008, -0.11, 0.992, 192.0, 0.0, 0.0, 0.0, 0.0, 0.0, 0.0, 0.0, 0.0, 0.0, 1.64592099026579E9, 0.0, 2022-02-27 11:16:30.265
150.0, -2507.195175551793, -5649.73868724569, -2200.1269102247848, -10907.003093600642, -993.4903375494883, -5.073845991354704, -5340.278785261963, -1821.622469618615, -2612.606002403021, -7070.817896225202, -4475.400385308312, -3513.001324296156, -4870.132192389035, -3561.549313253083, -10065.549321836153, -14330.396274375473, 0.008, -0.11, 0.992, 192.0, 0.0, 0.0, 0.0, 0.0, 0.0, 0.0, 0.0, 0.0, 0.0, 1.645920990273908E9, 0.0, 2022-02-27 11:16:30.273
152.0, -1997.5530502263368, -5284.131203190232, -1889.0800343847318, -10564.015574933956, -538.6323378839896, 320.72518118920107, -5263.142915146699, -1737.5575587222052, -3613.7853400451354, -6936.126284137522, -4115.850224000243, -3451.377564832874, -4493.9970366951275, -3269.9931585780573, -10090.80679307065, -14423.37953130955, 0.008, -0.11, 0.992, 192.0, 0.0, 0.0, 0.0, 0.0, 0.0, 0.0, 0.0, 0.0, 0.0, 1.645920990281907E9, 0.0, 2022-02-27 11:16:30.281
154.0, -2702.705884302364, -5802.781081531177, -2369.396670984825, -11102.96083724032, -1200.9368778391931, -178.34456900889506, -5531.296793377018, -2066.0834987263083, -4347.079020390394, -7653.0361357970405, -4453.40626876429, -3654.040831809143, -4799.970066543826, -3591.9923892012107, -10361.978156802435, -15114.60722858992, 0.008, -0.11, 0.992, 192.0, 0.0, 0.0, 0.0, 0.0, 0.0, 0.0, 0.0, 0.0, 0.0, 1.645920990289879E9, 0.0, 2022-02-27 11:16:30.289
156.0, -2128.2437000565174, -5372.130021110776, -1947.3510321797173, -10621.638372139738, -651.4639438943797, 259.213180448196, -5184.442422919563, -1642.9426244428903, -2327.2859844310265, -6668.173571607301, -4256.040365223928, -3406.6293724333495, -4669.435878924833, -3358.327252665431, -9930.20950915927, -13984.19010450722, 0.012, -0.108, 0.99, 192.0, 0.0, 48.0, 126.0, 80.0, 15.0, 120.0, 0.0, 0.0, 0.0, 1.645920990296401E9, 0.0, 2022-02-27 11:16:30.296
158.0, -2382.6736071912774, -5570.993491529643, -2183.6536745612234, -10896.944808595754, -914.2981069443354, 28.14084626923159, -5467.437859468206, -2024.5316057838925, -4923.061123259202, -7493.645846086246, -4203.8490419207865, -3591.210078145275, -4530.22921445718, -3368.6537586037825, -10346.935432784014, -15117.55765885802, 0.012, -0.108, 0.99, 192.0, 0.0, 0.0, 0.0, 0.0, 0.0, 0.0, 0.0, 0.0, 0.0, 1.645920990304542E9, 0.0, 2022-02-27 11:16:30.304
160.0, -2521.433236769824, -5655.863065226444, -2211.213375474617, -10922.11287285243, -996.6642852621419, -14.796854829413276, -5354.0474598464325, -1833.6030046466597, -2649.687546454376, -7083.960721964922, -4472.606417251399, -3522.858443600946, -4872.68029125694, -3565.460868532761, -10077.865133031028, -14361.621661379537, 0.012, -0.108, 0.99, 192.0, 0.0, 0.0, 0.0, 0.0, 0.0, 0.0, 0.0, 0.0, 0.0, 1.645920990311739E9, 0.0, 2022-02-27 11:16:30.311
162.0, -1994.2449920469514, -5277.828011253835, -1887.6718744840473, -10569.067069180855, -553.4962479467688, 310.33162001748326, -5249.240130095498, -1742.497294246828, -3564.9691301547446, -6922.022333386223, -4116.163148422617, -3444.7838002185586, -4497.4615570857, -3266.036899809468, -10089.152763980957, -14411.398996281505, 0.012, -0.108, 0.99, 192.0, 0.0, 0.0, 0.0, 0.0, 0.0, 0.0, 0.0, 0.0, 0.0, 1.645920990326338E9, 0.0, 2022-02-27 11:16:30.326
164.0, -2696.514451088244, -5797.059034950618, -2361.3947464698253, -11102.267933162206, -1199.1487382827686, -183.75369116707935, -5547.054773218009, -2074.1971819635846, -4353.583378026889, -7647.89523457232, -4445.359640760379, -3637.5228926566715, -4800.774729344217, -3592.059444434577, -10368.393107461108, -15122.005656004627, 0.012, -0.108, 0.99, 192.0, 0.0, 0.0, 0.0, 0.0, 0.0, 0.0, 0.0, 0.0, 0.0, 1.645920990334093E9, 0.0, 2022-02-27 11:16:30.334
166.0, -2115.682019672635, -5362.2058465726195, -1934.8787587736558, -10624.34293321883, -658.3929846755249, 245.39980237481623, -5210.281039509898, -1649.4246303349294, -2310.633934811823, -6683.283350859088, -4245.847969752308, -3402.248430520109, -4672.989806293226, -3355.2650636750536, -9935.305706895078, -13987.72168013116, 0.016, -0.11, 0.988, 192.0, 0.0, 64.0, 126.0, 72.0, 15.0, 112.0, 0.0, 0.0, 0.0, 1.645920990341421E9, 0.0, 2022-02-27 11:16:30.341
168.0, -2369.1955052847275, -5561.985738514154, -2173.5059825785142, -10894.888448105867, -917.6061651237209, 11.399389672206603, -5474.7915833940015, -2036.065105922831, -4891.589867066129, -7485.755680293522, -4185.453556234069, -3581.3306070960293, -4531.726781335686, -3372.319444694453, -10343.537967626808, -15112.103833210926, 0.016, -0.11, 0.988, 192.0, 0.0, 0.0, 0.0, 0.0, 0.0, 0.0, 0.0, 0.0, 0.0, 1.645920990348755E9, 0.0, 2022-02-27 11:16:30.348
170.0, -2497.785091136109, -5645.4248005658155, -2198.9422677686534, -10911.652256447347, -1008.2871923789016, -22.396447944217677, -5362.116439594798, -1846.3211472417292, -2637.707011426331, -7079.736242262869, -4462.212856079681, -3500.730216590192, -4876.7706604922605, -3561.638720230904, -10081.106135977047, -14364.505036414272, 0.016, -0.11, 0.988, 192.0, 0.0, 0.0, 0.0, 0.0, 0.0, 0.0, 0.0, 0.0, 0.0, 1.645920990356696E9, 0.0, 2022-02-27 11:16:30.356
172.0, -1987.5618204548146, -5270.876618728235, -1884.6320372381256, -10565.624900534738, -557.1395822929838, 316.9700881207095, -5256.258577854464, -1736.6187854550822, -3553.5920922269934, -6909.751225680259, -4111.357523364726, -3437.385372803852, -4498.154461163815, -3263.578207919384, -10090.225647714811, -14409.052063113699, 0.016, -0.11, 0.988, 192.0, 0.0, 0.0, 0.0, 0.0, 0.0, 0.0, 0.0, 0.0, 0.0, 1.64592099036485E9, 0.0, 2022-02-27 11:16:30.364
174.0, -2687.909029472951, -5788.721834268789, -2365.0380808160403, -11099.138688938463, -1187.302313721456, -184.1113190783643, -5542.1150376933865, -2073.973664519032, -4414.782454345519, -7639.133350745839, -4446.857207638885, -3638.5510729016155, -4794.337426941089, -3590.204249644786, -10372.48347669643, -15139.261202724125, 0.016, -0.109, 0.99, 192.0, 0.0, 64.0, 126.0, 80.0, 15.5, 0.0, 0.0, 0.0, 0.0, 1.645920990371637E9, 0.0, 2022-02-27 11:16:30.371
176.0, -2132.445828014115, -5371.504172266027, -1948.4015641691167, -10631.316677488885, -672.9216185714745, 230.22296788966275, -5218.707647169548, -1645.8483512220803, -2311.8632807568647, -6680.824658969004, -4270.926627031163, -3391.966628070668, -4688.3454547340225, -3376.4098139297744, -9944.179349443835, -13996.550619191006, 0.016, -0.109, 0.99, 192.0, 0.0, 0.0, 0.0, 0.0, 0.0, 0.0, 0.0, 0.0, 0.0, 1.645920990378494E9, 0.0, 2022-02-27 11:16:30.378
178.0, -2364.076955804462, -5567.484267650159, -2166.8451627308327, -10885.232494501173, -926.4351041835671, 15.37800018525126, -5500.965476151166, -2017.3343440692836, -4861.280901584733, -7475.317415632894, -4186.861716134753, -3573.663958747859, -4525.80356905503, -3376.3651104408636, -10347.918909540047, -15091.182600400758, 0.016, -0.109, 0.99, 192.0, 0.0, 0.0, 0.0, 0.0, 0.0, 0.0, 0.0, 0.0, 0.0, 1.645920990386433E9, 0.0, 2022-02-27 11:16:30.386
180.0, -2513.967754121751, -5663.864989741443, -2199.366950913304, -10914.088596592976, -1021.0947419517926, -26.844445090823783, -5369.380756542773, -1829.4679319224279, -2655.387241290479, -7095.896553504057, -4464.090402613927, -3500.730216590192, -4873.149677890501, -3568.2324848452195, -10090.002130270259, -14367.41076319346, 0.016, -0.109, 0.99, 192.0, 0.0, 0.0, 0.0, 0.0, 0.0, 0.0, 0.0, 0.0, 0.0, 1.645920990396075E9, 0.0, 2022-02-27 11:16:30.396
182.0, -1989.1711460555966, -5270.004900694478, -1882.195697092497, -10560.729868499026, -557.296044504171, 310.5551374620363, -5246.8037899498695, -1727.141645806032, -3537.5882431969935, -6911.114682092033, -4116.833700756276, -3439.0394018935444, -4499.69673153123, -3275.335225502876, -10085.420022656921, -14393.316435017161, 0.016, -0.109, 0.99, 192.0, 0.0, 0.0, 0.0, 0.0, 0.0, 0.0, 0.0, 0.0, 0.0, 1.645920990401062E9, 0.0, 2022-02-27 11:16:30.401
184.0, -2679.348311346568, -5771.2204183602835, -2361.238284258638, -11089.505087078225, -1205.4966337080757, -176.15409805227497, -5570.4123461738045, -2080.925057044632, -4386.842773776385, -7633.03132450954, -4442.006879092083, -3628.2916221966298, -4791.52110713972, -3588.6172757884597, -10368.95190107249, -15126.5207083846, 0.012, -0.1085, 0.99, 192.0, 0.0, 32.0, 126.0, 80.0, 15.0, 120.0, 0.0, 0.0, 0.0, 1.645920990408989E9, 0.0, 2022-02-27 11:16:30.408
186.0, -2125.7850081664337, -5363.591654728849, -1956.9622822954993, -10621.705427373103, -677.9507610739186, 234.1568749137968, -5203.55316442885, -1632.3926010599855, -2316.020705225552, -6660.7974959370495, -4259.817810036875, -3383.674130877749, -4684.769175621173, -3371.961816783168, -9944.20170118829, -13983.519552173562, 0.012, -0.1085, 0.99, 192.0, 0.0, 0.0, 0.0, 0.0, 0.0, 0.0, 0.0, 0.0, 0.0, 1.645920990417143E9, 0.0, 2022-02-27 11:16:30.417
188.0, -2350.84472308692, -5544.216101672185, -2170.510848821503, -10878.72813686468, -928.9608513070168, 18.373133942262406, -5459.972376820133, -2016.9320126690882, -4887.611256553085, -7468.678947529668, -4198.015236617951, -3562.2869208201078, -4542.299156463046, -3382.802412843992, -10340.676944336528, -15084.924111953273, 0.012, -0.1085, 0.99, 192.0, 0.0, 0.0, 0.0, 0.0, 0.0, 0.0, 0.0, 0.0, 0.0, 1.645920990423796E9, 0.0, 2022-02-27 11:16:30.423
190.0, -2489.0232073096286, -5634.070114382519, -2198.986971257564, -10912.143994825363, -1030.147198456192, -43.80941913240184, -5386.479841051083, -1869.2093335639638, -2673.6709682549204, -7086.844096999657, -4462.816353179974, -3488.4144053953178, -4878.11176515958, -3581.71058675177, -10092.527877393708, -14375.166818519452, 0.012, -0.1085, 0.99, 192.0, 0.0, 0.0, 0.0, 0.0, 0.0, 0.0, 0.0, 0.0, 0.0, 1.645920990431669E9, 0.0, 2022-02-27 11:16:30.431
192.0, -1968.1158027786976, -5254.872769698235, -1879.267618568852, -10562.316842355352, -570.908256877453, 304.1401868033632, -5263.478191313528, -1732.2825470307528, -3510.185004494787, -6891.556905693639, -4104.38377909467, -3414.5418899705282, -4497.930943719261, -3280.6772924276943, -10088.37045292502, -14390.522466960248, 0.012, -0.1085, 0.99, 192.0, 0.0, 0.0, 0.0, 0.0, 0.0, 0.0, 0.0, 0.0, 0.0, 1.645920990439937E9, 0.0, 2022-02-27 11:16:30.439
194.0, -2672.9557124323505, -5772.025081160675, -2363.3616999818923, -11099.496316849747, -1212.7385989115953, -194.34841803889492, -5551.48041862016, -2085.6859786136124, -4407.4734339086335, -7632.092551242417, -4434.519044699556, -3626.1682064733754, -4792.035197262192, -3606.0069329746884, -10375.992700575913, -15128.018275263104, 0.013000000000000001, -0.10425000000000001, 0.989, 192.0, 0.0, 56.0, 126.0, 112.0, 15.0, 112.0, 0.0, 0.0, 0.0, 1.645920990453316E9, 0.0, 2022-02-27 11:16:30.453
196.0, -2128.5342727344364, -5365.9162361522, -1954.1012590052198, -10634.155349034709, -696.6368194385552, 210.7769502135456, -5218.595888447272, -1664.8696857535465, -2306.1635859207613, -6679.505906046142, -4263.0141094939845, -3376.0074825295787, -4687.943123333826, -3390.0667297919667, -9938.166730185358, -13988.548694676007, 0.013000000000000001, -0.10425000000000001, 0.989, 192.0, 0.0, 0.0, 0.0, 0.0, 0.0, 0.0, 0.0, 0.0, 0.0, 1.645920990461437E9, 0.0, 2022-02-27 11:16:30.461
198.0, -2330.4822838881355, -5523.719552006669, -2154.8199242138776, -10866.792305325545, -912.599374365732, 23.35757295579588, -5481.117127074853, -2012.7969399448564, -4864.544256275208, -7449.054115897909, -4186.057053334362, -3554.9779003832223, -4538.208787227725, -3390.5361164255282, -10342.733304826415, -15075.424620559768, 0.013000000000000001, -0.10425000000000001, 0.989, 192.0, 0.0, 0.0, 0.0, 0.0, 0.0, 0.0, 0.0, 0.0, 0.0, 1.645920990470743E9, 0.0, 2022-02-27 11:16:30.470
200.0, -2502.7471784051872, -5631.4549602812485, -2210.8780993077876, -10919.453015262248, -1041.367774172756, -43.407087732206314, -5422.756722302047, -1838.2521674933635, -2710.7972157951854, -7093.996655225355, -4458.100135099904, -3497.5786206219937, -4875.161334891479, -3579.140136139409, -10098.85342107456, -14403.844106655612, 0.013000000000000001, -0.10425000000000001, 0.989, 192.0, 0.0, 0.0, 0.0, 0.0, 0.0, 0.0, 0.0, 0.0, 0.0, 1.645920990476602E9, 0.0, 2022-02-27 11:16:30.476
202.0, -1979.7834133843678, -5259.812505222858, -1884.4532232824831, -10559.165246387154, -568.8518963875647, 299.89335535685484, -5213.142062800177, -1709.2378984973311, -3475.2715796555976, -6880.917475332913, -4112.609221054223, -3420.6886196957375, -4514.270068916091, -3284.6111994518283, -10072.098382961558, -14364.37092594754, 0.013000000000000001, -0.10425000000000001, 0.989, 192.0, 0.0, 0.0, 0.0, 0.0, 0.0, 0.0, 0.0, 0.0, 0.0, 1.645920990484093E9, 0.0, 2022-02-27 11:16:30.484
204.0, -2679.3706630910237, -5777.076575407574, -2360.7465458806214, -11097.752880782233, -1206.7259796531177, -191.71091219316867, -5538.404648113805, -2072.006711006965, -4429.042867308005, -7644.631879881845, -4431.814483620463, -3629.632726863948, -4791.699921095362, -3602.3859503729286, -10372.595235418707, -15137.495414912155, 0.0125, -0.10412500000000001, 0.9884999999999999, 192.0, 0.0, 48.0, 126.0, 96.0, 15.0, 112.0, 0.0, 0.0, 0.0, 1.645920990492004E9, 0.0, 2022-02-27 11:16:30.492
206.0, -2137.9890606390313, -5368.486686764561, -1958.4598491740048, -10635.988192080045, -695.7203979158876, 225.28323236503988, -5204.491937695973, -1639.925138941424, -2300.1733184067393, -6676.019033911113, -4267.395051407225, -3388.032721046534, -4694.179260036857, -3386.222229745654, -9934.389285372412, -13982.33490971743, 0.0125, -0.10412500000000001, 0.9884999999999999, 192.0, 0.0, 0.0, 0.0, 0.0, 0.0, 0.0, 0.0, 0.0, 0.0, 1.645920990500035E9, 0.0, 2022-02-27 11:16:30.500
208.0, -2339.668850859267, -5532.704953277702, -2159.647901016224, -10864.803000069023, -905.5585748623104, 36.83567486234604, -5480.625388696836, -2008.5724602428033, -4857.43640153842, -7435.352496546805, -4186.4146812456465, -3552.8544846599684, -4525.445941143745, -3380.2766657205425, -10333.926717511025, -15069.166132112281, 0.0125, -0.10412500000000001, 0.9884999999999999, 192.0, 0.0, 0.0, 0.0, 0.0, 0.0, 0.0, 0.0, 0.0, 0.0, 1.645920990506038E9, 0.0, 2022-02-27 11:16:30.506
210.0, -2523.489597259712, -5654.49960881467, -2217.181291244184, -10918.760111184134, -1015.6185645602424, -29.258433491996946, -5345.978480098067, -1837.425152948517, -2720.095541488593, -7112.615658356626, -4480.943617933228, -3503.904164302846, -4877.39650933701, -3582.0011594296884, -10093.265484960733, -14390.813039638168, 0.0125, -0.10412500000000001, 0.9884999999999999, 192.0, 0.0, 0.0, 0.0, 0.0, 0.0, 0.0, 0.0, 0.0, 0.0, 1.645920990513701E9, 0.0, 2022-02-27 11:16:30.513
212.0, -1989.3052565223286, -5264.685185514115, -1880.0052261358771, -10553.599662017783, -554.0997450470621, 314.1761200637961, -5223.93795537209, -1712.0095148097892, -3491.3424839189634, -6891.802774882648, -4129.037753228874, -3430.277518067064, -4501.820147254485, -3275.8940191142583, -10066.912778247926, -14364.348574203084, 0.0125, -0.10412500000000001, 0.9884999999999999, 192.0, 0.0, 0.0, 0.0, 0.0, 0.0, 0.0, 0.0, 0.0, 0.0, 1.645920990521971E9, 0.0, 2022-02-27 11:16:30.521
214.0, -2683.7739567487192, -5782.128069654474, -2356.946749323219, -11095.182430169873, -1171.2761129470007, -163.45830720166055, -5532.839063744434, -2066.6646440821464, -4456.624919965854, -7643.424885681258, -4431.166283031259, -3631.9573082873, -4769.750508040251, -3584.9068862088784, -10366.180284760034, -15143.195109748258, 0.01125, -0.1070625, 0.98825, 192.0, 0.0, 40.0, 126.0, 72.0, 15.0, 112.0, 0.0, 0.0, 0.0, 1.645920990529842E9, 0.0, 2022-02-27 11:16:30.529
216.0, -2158.8208864713774, -5385.697529995147, -1955.0176805278875, -10637.306945002907, -679.8730110970749, 227.51840681057058, -5202.41322546163, -1657.828886250125, -2278.7156437296444, -6671.414574553321, -4274.0558712549055, -3390.223192003154, -4688.390158222933, -3375.1134127513665, -9930.656544048376, -13981.373784705853, 0.01125, -0.1070625, 0.98825, 192.0, 0.0, 0.0, 0.0, 0.0, 0.0, 0.0, 0.0, 0.0, 0.0, 1.645920990536336E9, 0.0, 2022-02-27 11:16:30.536
218.0, -2339.17711248125, -5529.575709053959, -2140.5595112513915, -10847.77097079408, -882.2233536509698, 55.342919271340286, -5458.1171820303425, -1994.6696751916022, -4831.441322736898, -7437.341801803327, -4185.855887634264, -3557.9730341402337, -4508.950353735728, -3361.255331189076, -10322.527327838818, -15054.704553449697, 0.01125, -0.1070625, 0.98825, 192.0, 0.0, 0.0, 0.0, 0.0, 0.0, 0.0, 0.0, 0.0, 0.0, 1.645920990544278E9, 0.0, 2022-02-27 11:16:30.544
220.0, -2562.5380948231336, -5681.344053905494, -2235.4873699530804, -10937.647335248868, -1035.9139485256612, -43.69766041012531, -5374.655768234225, -1846.9469960864778, -2792.381083057056, -7143.572824427227, -4493.594705294932, -3516.0858650309883, -4878.961131448881, -3577.6202175164485, -10110.208107257857, -14424.720635976868, 0.01125, -0.1070625, 0.98825, 192.0, 0.0, 0.0, 0.0, 0.0, 0.0, 0.0, 0.0, 0.0, 0.0, 1.645920990552342E9, 0.0, 2022-02-27 11:16:30.552
222.0, -2014.0262858898982, -5280.823145010847, -1891.3375605747178, -10546.491807280994, -560.6041026835564, 320.72518118920107, -5226.8436821512805, -1703.4935001723172, -3421.158006329299, -6869.2945682161535, -4143.432276658092, -3421.225061562665, -4509.732664791663, -3264.516981186507, -10061.078972945092, -14329.189280174885, 0.01125, -0.1070625, 0.98825, 192.0, 0.0, 0.0, 0.0, 0.0, 0.0, 0.0, 0.0, 0.0, 0.0, 1.645920990558875E9, 0.0, 2022-02-27 11:16:30.558
224.0, -2716.0275239977273, -5802.781081531177, -2373.956426853708, -11087.761651010711, -1194.0525405469587, -164.75470838006837, -5528.368714853373, -2064.7200423145346, -4499.540269320044, -7660.143990533828, -4458.033079866538, -3636.695878111825, -4778.3335779110885, -3574.245104103697, -10375.612720920173, -15136.690752111765, 0.011625, -0.10653125, 0.987125, 192.0, 0.0, 48.0, 126.0, 88.0, 15.0, 104.0, 0.0, 0.0, 0.0, 1.645920990573933E9, 0.0, 2022-02-27 11:16:30.573
226.0, -2185.799442028933, -5397.54395455646, -1969.970997568488, -10642.827825883369, -680.8788395975638, 238.13548542684146, -5198.948705071057, -1641.825037220125, -2294.205402637172, -6693.408691097342, -4304.1636710362045, -3400.929677597246, -4698.716664161285, -3380.187258742721, -9933.964602227761, -13970.332022944931, 0.011625, -0.10653125, 0.987125, 192.0, 0.0, 0.0, 0.0, 0.0, 0.0, 0.0, 0.0, 0.0, 0.0, 1.645920990581996E9, 0.0, 2022-02-27 11:16:30.581
228.0, -2355.359775466892, -5539.209310914196, -2150.416630556182, -10860.086781988954, -876.7918797483302, 62.56253273040447, -5446.986013291599, -1994.1555850691302, -4830.010811091758, -7434.5031302575035, -4196.696483695088, -3562.532790009116, -4510.626734569876, -3346.972566482135, -10322.728493538916, -15035.906736362784, 0.011625, -0.10653125, 0.987125, 192.0, 0.0, 0.0, 0.0, 0.0, 0.0, 0.0, 0.0, 0.0, 0.0, 1.645920990588649E9, 0.0, 2022-02-27 11:16:30.588
230.0, -2547.428315571346, -5666.413088609349, -2221.1375500127733, -10934.451035791759, -1019.9771547290272, -12.0252385169552, -5374.678119978681, -1831.7031063679585, -2756.1712570394584, -7130.050019031766, -4489.683150015253, -3516.6223068979157, -4864.231331852833, -3567.9419121673004, -10096.104156506557, -14402.748871177302, 0.011625, -0.10653125, 0.987125, 192.0, 0.0, 0.0, 0.0, 0.0, 0.0, 0.0, 0.0, 0.0, 0.0, 1.645920990596514E9, 0.0, 2022-02-27 11:16:30.596
232.0, -2014.0486376343536, -5281.516049088961, -1885.3696448051508, -10559.858150465268, -549.942320578375, 327.49775975915907, -5195.953571314046, -1674.5256393582392, -3440.738134472148, -6878.1011555315445, -4140.414791156625, -3430.8139599339916, -4498.243868141636, -3264.0922980418563, -10055.736906020273, -14327.669361551925, 0.011625, -0.10653125, 0.987125, 192.0, 0.0, 0.0, 0.0, 0.0, 0.0, 0.0, 0.0, 0.0, 0.0, 1.645920990604857E9, 0.0, 2022-02-27 11:16:30.604
234.0, -2712.2724309292357, -5799.473023351792, -2365.306301749504, -11101.843250017555, -1180.7085491071402, -169.11329854885324, -5509.436787299727, -2063.7589173029564, -4506.111682189904, -7659.585196922446, -4457.2507688106025, -3647.0447357946323, -4773.5726563421085, -3578.246066361197, -10363.542778914307, -15138.255374223636, 0.008812500000000001, -0.107265625, 0.9885625, 192.0, 0.0, 24.0, 126.0, 80.0, 15.0, 120.0, 0.0, 0.0, 0.0, 1.645920990611697E9, 0.0, 2022-02-27 11:16:30.611
236.0, -2182.4913838495477, -5397.007512689533, -1966.685291133558, -10647.789913152446, -684.2539530103151, 245.2880436525397, -5192.421995690107, -1638.5169790407394, -2289.958571190664, -6699.80129001156, -4300.632095412266, -3393.508898438084, -4691.273533257668, -3369.838401059914, -9921.648791032887, -13967.381592676831, 0.008812500000000001, -0.107265625, 0.9885625, 192.0, 0.0, 0.0, 0.0, 0.0, 0.0, 0.0, 0.0, 0.0, 0.0, 1.645920990619281E9, 0.0, 2022-02-27 11:16:30.619
238.0, -2334.0585630009846, -5523.116054906375, -2131.1717785801625, -10842.451255613716, -865.2583796093917, 69.87155316728987, -5427.808216548946, -1979.2469715174404, -4823.126473799524, -7436.42538028066, -4196.78589067291, -3556.1401910948985, -4513.532461349066, -3345.609110070361, -10312.178470156012, -15023.188593767714, 0.008812500000000001, -0.107265625, 0.9885625, 192.0, 0.0, 0.0, 0.0, 0.0, 0.0, 0.0, 0.0, 0.0, 0.0, 1.645920990626262E9, 0.0, 2022-02-27 11:16:30.626
240.0, -2565.712042535787, -5682.841620783999, -2223.864462836321, -10944.77754173011, -1032.561186857365, -30.778352114957826, -5361.959977383612, -1828.4844551663944, -2810.3965890880336, -7158.570844956737, -4492.544173305532, -3515.7729406086137, -4869.483991799831, -3564.5891504990045, -10100.19452574188, -14420.652618486003, 0.008812500000000001, -0.107265625, 0.9885625, 192.0, 0.0, 0.0, 0.0, 0.0, 0.0, 0.0, 0.0, 0.0, 0.0, 1.64592099063419E9, 0.0, 2022-02-27 11:16:30.634
242.0, -2012.1040358667417, -5274.877580985735, -1872.6738539545363, -10560.685165010114, -546.231930998794, 334.1585796068406, -5216.405417490651, -1686.3497121750966, -3391.4748896926512, -6859.951539033836, -4144.572215625312, -3429.383448288852, -4506.89399324584, -3268.428536466186, -10045.097475659548, -14304.602361274048, 0.008812500000000001, -0.107265625, 0.9885625, 192.0, 0.0, 0.0, 0.0, 0.0, 0.0, 0.0, 0.0, 0.0, 0.0, 1.645920990641228E9, 0.0, 2022-02-27 11:16:30.641
244.0, -2701.6777040574198, -5795.963799472309, -2355.1809615112497, -11102.156174439928, -1181.5802671408971, -168.75567063756833, -5543.076162704964, -2076.342949431294, -4526.675287088787, -7667.542417948534, -4448.332422772935, -3648.117619528487, -4764.050813204148, -3573.4627930477614, -10367.00729930488, -15141.541080658566, 0.012, -0.108, 0.994, 192.0, 0.0, 48.0, 126.0, 80.0, 15.5, 8.0, 0.0, 0.0, 0.0, 1.645920990648748E9, 0.0, 2022-02-27 11:16:30.648
