%OpenBCI Raw EEG Data
%Number of channels = 16
%Sample Rate = 125 Hz
%Board = OpenBCI_GUI$BoardCytonSerialDaisy
Sample Index, EXG Channel 0, EXG Channel 1, EXG Channel 2, EXG Channel 3, EXG Channel 4, EXG Channel 5, EXG Channel 6, EXG Channel 7, EXG Channel 8, EXG Channel 9, EXG Channel 10, EXG Channel 11, EXG Channel 12, EXG Channel 13, EXG Channel 14, EXG Channel 15, Accel Channel 0, Accel Channel 1, Accel Channel 2, Other, Other, Other, Other, Other, Other, Other, Analog Channel 0, Analog Channel 1, Analog Channel 2, Timestamp, Other, Timestamp (Formatted)
204.0, -2245.0986200688626, -5383.462355549616, -1987.0924338212533, -10715.448643618662, -929.2737757293911, 72.7772799464798, -5321.860947830791, -1678.0572149821778, -2402.14197661185, -6882.3256352335975, -4399.762082071553, -3437.675945481771, -4872.903808701492, -3591.634761289926, -10065.66108055843, -14160.366554303951, 0.0, 0.0, 0.0, 192.0, 0.0, 0.0, 0.0, 0.0, 0.0, 0.0, 0.0, 0.0, 0.0, 1.645921028927439E9, 0.0, 2022-02-27 11:17:08.927
206.0, -2414.52484304009, -5519.360961837883, -2164.6546917742126, -10916.949619883255, -1115.5979175088307, -92.15624238923102, -5583.197544002241, -2013.5345475118813, -4929.990164040347, -7627.555147117991, -4321.776845666986, -3601.8495085060013, -4702.672922929874, -3574.3568628259736, -10459.565873094305, -15218.319322862546, 0.016, -0.114, 0.998, 192.0, 0.0, 64.0, 126.0, 56.0, 15.5, 24.0, 0.0, 0.0, 0.0, 1.645921028927441E9, 0.0, 2022-02-27 11:17:08.927
0.0, -1524.925413718869, -3004.946172827026, -1374.386414812376, -5711.541260664614, -888.7500630319195, -239.70010753871293, -2936.3933725825996, -1130.3947723382441, -1855.820638635235, -3850.8255899936667, -2340.2499962151046, -1820.9072137960452, -2548.9482341943067, -1932.6435843281251, -5204.737806884981, -7521.384360955282, 0.016, -0.108, 0.998, 192.0, 0.0, 64.0, 126.0, 80.0, 15.5, 24.0, 0.0, 0.0, 0.0, 1.645921029042221E9, 0.0, 2022-02-27 11:17:09.042
2.0, -2513.587774466011, -5585.209201003218, -2303.794301008499, -10944.017582418632, -1257.48679131112, -57.35457627231792, -5456.776077363023, -1747.3252710491743, -2143.308775819394, -7010.825814107158, -4706.360960765, -3534.503702462161, -5061.329014459731, -3797.3825690010276, -10179.766736002772, -14270.225378301786, 0.016, -0.108, 0.998, 192.0, 0.0, 0.0, 0.0, 0.0, 0.0, 0.0, 0.0, 0.0, 0.0, 1.645921029049776E9, 0.0, 2022-02-27 11:17:09.049
4.0, -2148.539084021936, -5315.401293683207, -2106.674266657146, -10751.256138236064, -948.4739242164999, 132.67995508670273, -5491.42128126875, -1850.456219965961, -4351.616424514821, -7314.027227643398, -4345.581453511889, -3557.637757973404, -4596.256267578157, -3487.5203356171055, -10380.328939000243, -14969.29853788597, 0.016, -0.108, 0.998, 192.0, 0.0, 0.0, 0.0, 0.0, 0.0, 0.0, 0.0, 0.0, 0.0, 1.64592102905629E9, 0.0, 2022-02-27 11:17:09.056
6.0, -2902.1952035659797, -5892.478632030325, -2609.9908483017502, -11271.291824733236, -1622.1555020994547, -352.91169320484323, -5721.42073171386, -2077.7734610764337, -3878.2288286958733, -7793.181573531816, -4821.830072621116, -3721.9230797199107, -5107.328904548754, -3947.362774296138, -10517.70276042256, -15210.96559893675, 0.016, -0.108, 0.998, 192.0, 0.0, 0.0, 0.0, 0.0, 0.0, 0.0, 0.0, 0.0, 0.0, 1.645921029064265E9, 0.0, 2022-02-27 11:17:09.064
8.0, -2083.093176256797, -5273.603531551782, -2012.4616637780266, -10642.313735760896, -871.248647123414, 222.95865094168795, -5336.099009048821, -1644.2166738768428, -2542.2203591132593, -6806.374407574464, -4428.864053352363, -3464.408631850318, -4768.834086517583, -3541.7903711545914, -10129.47531097833, -14202.47724085775, 0.01, -0.108, 0.994, 192.0, 0.0, 40.0, 126.0, 80.0, 15.5, 8.0, 0.0, 0.0, 0.0, 1.645921029072331E9, 0.0, 2022-02-27 11:17:09.072
10.0, -2729.5279776487328, -5774.416717817392, -2538.3758590669468, -11199.408614564969, -1491.0848726135341, -282.41429119280474, -5804.43511062087, -2191.7226543095894, -5380.422518303695, -7961.043174391172, -4538.789932583562, -3732.9871932252877, -4768.632920817486, -3720.8725477305115, -10649.354535264318, -15669.265767248366, 0.01, -0.108, 0.994, 192.0, 0.0, 0.0, 0.0, 0.0, 0.0, 0.0, 0.0, 0.0, 0.0, 1.645921029079494E9, 0.0, 2022-02-27 11:17:09.079
12.0, -2532.6091089974775, -5604.811680890522, -2313.36084763537, -10948.197358631774, -1268.841477494416, -66.60819847681505, -5472.444650226194, -1769.0511666597329, -2172.366043611293, -7032.7081719289035, -4705.377484008966, -3541.991536854689, -5063.00539529388, -3794.65565617748, -10186.069927939168, -14286.095116865054, 0.01, -0.108, 0.994, 192.0, 0.0, 0.0, 0.0, 0.0, 0.0, 0.0, 0.0, 0.0, 0.0, 1.645921029086903E9, 0.0, 2022-02-27 11:17:09.086
14.0, -2142.5711682523693, -5324.945488565622, -2099.409949709171, -10734.93936478369, -938.2591770004245, 145.97924303761042, -5484.402833509784, -1859.0169380923437, -4320.391037510757, -7306.584096739781, -4342.608671499333, -3561.6834237198145, -4599.094939123981, -3477.283236656575, -10371.477648195942, -14950.813645221431, 0.01, -0.108, 0.994, 192.0, 0.0, 0.0, 0.0, 0.0, 0.0, 0.0, 0.0, 0.0, 0.0, 1.645921029094872E9, 0.0, 2022-02-27 11:17:09.094
16.0, -2901.9493343769714, -5891.45045178538, -2612.4942436807446, -11265.860350830597, -1615.5617374851392, -345.13328613439637, -5730.51789170717, -2097.800624108389, -3969.35689084016, -7810.750044673687, -4817.359723730055, -3721.9454314643663, -5097.874116644159, -3939.7408294368784, -10533.974830386023, -15248.605936599486, 0.011, -0.11, 0.993, 192.0, 0.0, 48.0, 126.0, 64.0, 15.5, 0.0, 0.0, 0.0, 0.0, 1.645921029109862E9, 0.0, 2022-02-27 11:17:09.109
18.0, -2091.0727490273416, -5268.9320169606235, -2011.1205591107082, -10633.39538972323, -865.5936557762213, 221.12580789635277, -5323.045590286922, -1623.6083654890497, -2503.0601028275614, -6790.1693928443665, -4444.018536093061, -3462.3969748493405, -4775.919589509916, -3545.500760734172, -10121.093406807591, -14185.065231927067, 0.011, -0.11, 0.993, 192.0, 0.0, 0.0, 0.0, 0.0, 0.0, 0.0, 0.0, 0.0, 0.0, 1.645921029116505E9, 0.0, 2022-02-27 11:17:09.116
20.0, -2713.546480363188, -5755.909473408398, -2522.8637484149635, -11187.338672559104, -1472.8234973935482, -272.2889509545506, -5787.0678051790965, -2193.1084624658183, -5371.973558899589, -7946.0004503727505, -4530.966822024206, -3718.2797453736957, -4752.651423531941, -3711.373056337006, -10644.705372417615, -15658.380467698631, 0.011, -0.11, 0.993, 192.0, 0.0, 0.0, 0.0, 0.0, 0.0, 0.0, 0.0, 0.0, 0.0, 1.645921029124526E9, 0.0, 2022-02-27 11:17:09.124
22.0, -2527.4458560283015, -5607.2703727806065, -2306.543565576502, -10954.858178479455, -1265.421660592754, -73.7607567025133, -5469.047185068987, -1778.9306377089786, -2172.4554505891147, -7043.459361011906, -4697.934353105349, -3539.085810075499, -5062.37954644913, -3791.1240805535417, -10187.098108184113, -14299.908494938434, 0.011, -0.11, 0.993, 192.0, 0.0, 0.0, 0.0, 0.0, 0.0, 0.0, 0.0, 0.0, 0.0, 1.645921029131841E9, 0.0, 2022-02-27 11:17:09.131
24.0, -2127.439037256126, -5321.503319919506, -2088.03291178142, -10728.636172847293, -930.0337350408715, 142.7382400915909, -5501.546621507004, -1846.4329059640058, -4273.452374154613, -7287.808631397323, -4320.771017166498, -3556.117839350443, -4591.741215198185, -3491.0742629854994, -10368.594273161207, -14935.279182824992, 0.011, -0.11, 0.993, 192.0, 0.0, 0.0, 0.0, 0.0, 0.0, 0.0, 0.0, 0.0, 0.0, 1.645921029139234E9, 0.0, 2022-02-27 11:17:09.139
26.0, -2906.978476879415, -5907.499004304291, -2614.5059006817223, -11274.219903256882, -1618.1992433308653, -364.35578636596045, -5720.884289846932, -2091.0503972828865, -3954.940015666487, -7818.148472088394, -4809.469557937331, -3730.7743705242124, -5101.808023668293, -3952.347213309671, -10534.310106552854, -15241.185157440324, 0.0125, -0.109, 0.9924999999999999, 192.0, 0.0, 56.0, 126.0, 80.0, 15.5, 0.0, 0.0, 0.0, 0.0, 1.645921029147275E9, 0.0, 2022-02-27 11:17:09.147
28.0, -2099.9240398316433, -5284.779403779436, -2018.5413382698703, -10640.480892715561, -866.9794639324504, 214.5320432820372, -5326.219537999576, -1634.9630516723457, -2508.111597074461, -6813.661076266894, -4443.2809285260355, -3468.8789807413796, -4782.491002379776, -3555.9166736503453, -10125.072017320635, -14182.09244991451, 0.0125, -0.109, 0.9924999999999999, 192.0, 0.0, 0.0, 0.0, 0.0, 0.0, 0.0, 0.0, 0.0, 0.0, 1.645921029155301E9, 0.0, 2022-02-27 11:17:09.155
30.0, -2716.385151909012, -5758.077592620563, -2525.613012982966, -11183.337710301605, -1456.3726134744422, -278.01099753510925, -5790.778194758677, -2189.95686649762, -5387.955056185134, -7952.817732431618, -4536.979441282683, -3725.7675797662237, -4754.976004955292, -3716.9386407063776, -10644.794779395435, -15652.591365884706, 0.0125, -0.109, 0.9924999999999999, 192.0, 0.0, 0.0, 0.0, 0.0, 0.0, 0.0, 0.0, 0.0, 0.0, 1.645921029161225E9, 0.0, 2022-02-27 11:17:09.161
32.0, -2539.3146323340693, -5612.29951528305, -2311.304487145482, -10954.277033123617, -1263.4100035917763, -68.39633803323962, -5490.6389702128145, -1782.7304342663806, -2187.766395541, -7054.67993672847, -4708.260859043701, -3547.825342157524, -5066.000529050891, -3800.7129789248684, -10189.087413440635, -14294.25350359124, 0.0125, -0.109, 0.9924999999999999, 192.0, 0.0, 0.0, 0.0, 0.0, 0.0, 0.0, 0.0, 0.0, 0.0, 1.645921029168785E9, 0.0, 2022-02-27 11:17:09.168
34.0, -2118.297173773906, -5315.580107638849, -2077.7287575875234, -10722.467091377628, -916.1309499896706, 147.8344378274009, -5485.878048643834, -1850.7244408994247, -4255.928606501652, -7280.119631304698, -4324.660220701721, -3557.570702740038, -4593.618761732431, -3492.0800914859883, -10359.944148057002, -14912.435699991669, 0.0125, -0.109, 0.9924999999999999, 192.0, 0.0, 0.0, 0.0, 0.0, 0.0, 0.0, 0.0, 0.0, 0.0, 1.645921029176852E9, 0.0, 2022-02-27 11:17:09.176
36.0, -2905.279744300812, -5898.759472222266, -2607.5545081561218, -11272.990557311841, -1612.7454176837705, -372.20124866977324, -5729.109731806485, -2094.3361037178165, -4009.590030859713, -7833.392361806913, -4795.320903697122, -3727.5110158337375, -5092.464994485974, -3951.319033064727, -10532.387856529696, -15257.434875659334, 0.013250000000000001, -0.1105, 0.98925, 192.0, 0.0, 56.0, 126.0, 64.0, 15.0, 104.0, 0.0, 0.0, 0.0, 1.645921029186527E9, 0.0, 2022-02-27 11:17:09.186
38.0, -2093.7549583619784, -5285.986397980023, -2008.7289224539904, -10636.43522696915, -862.7102807414867, 214.68850549322434, -5334.2661660034855, -1638.986365674301, -2463.586922119489, -6795.712625469283, -4430.205158019681, -3455.4679340681955, -4786.111984981535, -3564.9691301547446, -10107.302380478666, -14162.981708405223, 0.013250000000000001, -0.1105, 0.98925, 192.0, 0.0, 0.0, 0.0, 0.0, 0.0, 0.0, 0.0, 0.0, 0.0, 1.645921029191417E9, 0.0, 2022-02-27 11:17:09.191
40.0, -2672.1510496319593, -5737.536339466136, -2490.4760706992233, -11156.11328555504, -1427.963546271747, -248.99843323212068, -5779.132935897463, -2184.346578639338, -5371.459468777117, -7940.412514258924, -4500.836670498451, -3702.946448677355, -4741.3190890931, -3697.9396579193663, -10626.265183241985, -15635.693447076494, 0.013250000000000001, -0.1105, 0.98925, 192.0, 0.0, 0.0, 0.0, 0.0, 0.0, 0.0, 0.0, 0.0, 0.0, 1.645921029199531E9, 0.0, 2022-02-27 11:17:09.199
42.0, -2556.4360685868346, -5632.550195759559, -2322.480359373136, -10965.74347802919, -1284.711216057684, -83.68493124066964, -5472.802278137479, -1795.6497425615482, -2217.8518435778433, -7084.094832431654, -4696.280324015656, -3542.438571743795, -5069.085069785723, -3823.556461758192, -10185.958169216892, -14318.460442836338, 0.013250000000000001, -0.1105, 0.98925, 192.0, 0.0, 0.0, 0.0, 0.0, 0.0, 0.0, 0.0, 0.0, 0.0, 1.645921029208987E9, 0.0, 2022-02-27 11:17:09.208
44.0, -2113.5362522049254, -5308.740473835525, -2073.8395540522997, -10709.950114482655, -903.9492492615283, 158.29505423248463, -5485.833345154923, -1822.5165393968273, -4188.49339347999, -7262.215883995997, -4319.13933982126, -3542.5056269771612, -4591.115366353437, -3494.2258589536978, -10338.128845468622, -14873.923644295175, 0.013250000000000001, -0.1105, 0.98925, 192.0, 0.0, 0.0, 0.0, 0.0, 0.0, 0.0, 0.0, 0.0, 0.0, 1.645921029215048E9, 0.0, 2022-02-27 11:17:09.215
46.0, -2907.7160844464406, -5905.397940325492, -2611.287249480158, -11270.08483053265, -1612.9689351283237, -353.8504664719661, -5719.632592157435, -2082.579086134325, -4021.682324610034, -7823.803463435586, -4800.104177010558, -3725.342896621573, -5084.328959504242, -3941.551320737758, -10531.94082164059, -15250.170558711357, 0.013625000000000002, -0.11025, 0.989625, 192.0, 0.0, 56.0, 126.0, 72.0, 15.0, 120.0, 0.0, 0.0, 0.0, 1.645921029229066E9, 0.0, 2022-02-27 11:17:09.229
48.0, -2097.6888653861124, -5288.355682892285, -2010.6288207326916, -10638.268070014487, -864.3866615756348, 224.50092130910414, -5328.342953722829, -1624.9718219008234, -2450.108820212939, -6781.027529362146, -4439.794056391008, -3455.356175345919, -4776.880714521493, -3566.064365633055, -10105.201316499868, -14151.403504777374, 0.013625000000000002, -0.11025, 0.989625, 192.0, 0.0, 0.0, 0.0, 0.0, 0.0, 0.0, 0.0, 0.0, 0.0, 1.6459210292371E9, 0.0, 2022-02-27 11:17:09.237
50.0, -2679.035386924194, -5744.867711647476, -2494.8346608680085, -11154.593366932078, -1427.2706421936325, -246.33857564193914, -5758.658737976401, -2153.9035026912097, -5374.409899045218, -7925.2803832626805, -4505.575240322976, -3704.175794622397, -4729.159740109413, -3704.9357539338775, -10628.902689087712, -15629.837290029203, 0.013625000000000002, -0.11025, 0.989625, 192.0, 0.0, 0.0, 0.0, 0.0, 0.0, 0.0, 0.0, 0.0, 0.0, 1.645921029244227E9, 0.0, 2022-02-27 11:17:09.244
52.0, -2550.2222836282594, -5631.700829470257, -2319.574632593946, -10965.02822220662, -1271.1884106622233, -75.43713753666134, -5481.564161963959, -1782.0375301882661, -2218.7906168449663, -7074.729451504881, -4699.968361850782, -3541.768019410136, -5064.324148216742, -3816.2921448102175, -10188.081584940146, -14321.83555624909, 0.013625000000000002, -0.11025, 0.989625, 192.0, 0.0, 0.0, 0.0, 0.0, 0.0, 0.0, 0.0, 0.0, 0.0, 1.645921029251704E9, 0.0, 2022-02-27 11:17:09.251
54.0, -2103.969705578054, -5312.540270392928, -2063.580103347314, -10703.758681268535, -889.1747461765702, 178.7916038980012, -5460.195894264686, -1803.2269839318974, -4165.202875757561, -7245.832055310257, -4307.024694326484, -3538.638775186393, -4580.565342970532, -3491.856574041435, -10332.04917097678, -14862.680716834155, 0.013625000000000002, -0.11025, 0.989625, 192.0, 0.0, 0.0, 0.0, 0.0, 0.0, 0.0, 0.0, 0.0, 0.0, 1.645921029261374E9, 0.0, 2022-02-27 11:17:09.261
56.0, -2904.8997646450716, -5916.305591619682, -2618.462159450312, -11276.633891658055, -1610.823167660614, -353.0905071604857, -5740.553824967602, -2095.096063029297, -4071.817287423288, -7842.578928778044, -4786.380205914999, -3728.047457700665, -5074.71770938846, -3950.357908053149, -10537.014667631945, -15276.791486357628, 0.014812500000000001, -0.108125, 0.9898125, 192.0, 0.0, 64.0, 126.0, 88.0, 15.0, 120.0, 0.0, 0.0, 0.0, 1.64592102926691E9, 0.0, 2022-02-27 11:17:09.266
58.0, -2101.9133450881654, -5303.443110399618, -2023.4140185611272, -10652.953166121622, -862.5985220192101, 213.12388338135284, -5333.997945070022, -1632.6384702489938, -2420.8950902098527, -6788.1130323544785, -4445.225530293647, -3465.7497365176364, -4781.842801790572, -3575.0050634151776, -10103.301418221166, -14153.571623989537, 0.014812500000000001, -0.108125, 0.9898125, 192.0, 0.0, 0.0, 0.0, 0.0, 0.0, 0.0, 0.0, 0.0, 0.0, 1.645921029274497E9, 0.0, 2022-02-27 11:17:09.274
60.0, -2663.411517549934, -5739.3468307670155, -2495.460509712757, -11154.325145998615, -1411.7361797971942, -231.56407255698116, -5755.507142008203, -2157.8597614597993, -5376.153335112731, -7918.016066314705, -4508.74918803563, -3718.3468006070616, -4717.760350437206, -3699.3254660755956, -10622.599497151316, -15630.396083640586, 0.014812500000000001, -0.108125, 0.9898125, 192.0, 0.0, 0.0, 0.0, 0.0, 0.0, 0.0, 0.0, 0.0, 0.0, 1.645921029281254E9, 0.0, 2022-02-27 11:17:09.281
62.0, -2574.6080368289995, -5659.014661194642, -2347.402554440803, -10987.469373639748, -1290.7461870606169, -92.44681506715001, -5488.157926578275, -1797.7955100292577, -2266.0645563679404, -7100.344550650662, -4727.393952297443, -3565.1702958548426, -5071.923741331547, -3827.8256449491555, -10199.950361245914, -14352.211576963851, 0.014812500000000001, -0.108125, 0.9898125, 192.0, 0.0, 0.0, 0.0, 0.0, 0.0, 0.0, 0.0, 0.0, 0.0, 1.645921029289333E9, 0.0, 2022-02-27 11:17:09.289
64.0, -2110.3176010033612, -5317.412950684185, -2073.1466499741855, -10709.190155171174, -885.4867083414446, 174.0977375623867, -5448.014193536544, -1805.015123488322, -4129.037753228874, -7226.09546495622, -4323.989668368062, -3547.467714246239, -4581.5711714710205, -3488.3249984174968, -10328.204670930467, -14848.08502770484, 0.014812500000000001, -0.108125, 0.9898125, 192.0, 0.0, 0.0, 0.0, 0.0, 0.0, 0.0, 0.0, 0.0, 0.0, 1.645921029296484E9, 0.0, 2022-02-27 11:17:09.296
66.0, -2920.1883578525017, -5929.113141192573, -2627.2463950212473, -11284.680519661966, -1608.632696703994, -344.6191960119243, -5738.810388900089, -2091.4303769386265, -4103.400302338637, -7848.882120714441, -4794.337426941089, -3742.464332874338, -5071.409651209075, -3942.6242044716128, -10540.099208366777, -15289.040242319137, 0.01440625, -0.1070625, 0.98990625, 192.0, 0.0, 56.0, 126.0, 88.0, 15.0, 120.0, 0.0, 0.0, 0.0, 1.645921029304031E9, 0.0, 2022-02-27 11:17:09.304
68.0, -2119.70533367459, -5316.585936139338, -2027.4596843075378, -10657.468218501595, -867.6500162661096, 240.57182557246992, -5308.651066857704, -1603.4023885014522, -2418.6375640198667, -6787.263666065177, -4444.264405282069, -3470.4659545977065, -4783.854458791549, -3556.8330951730127, -10104.486060677298, -14143.736856429203, 0.01440625, -0.1070625, 0.98990625, 192.0, 0.0, 0.0, 0.0, 0.0, 0.0, 0.0, 0.0, 0.0, 0.0, 1.645921029311978E9, 0.0, 2022-02-27 11:17:09.311
70.0, -2661.645729737965, -5749.695688449823, -2488.2185445092377, -11153.520483198225, -1403.8907174933813, -215.38140957133885, -5758.882255420954, -2164.632340029757, -5374.476954278583, -7919.334819237569, -4498.534440819555, -3711.395408081461, -4715.927507391872, -3691.0329688826764, -10619.537308160938, -15617.1862026675, 0.01440625, -0.1070625, 0.98990625, 192.0, 0.0, 0.0, 0.0, 0.0, 0.0, 0.0, 0.0, 0.0, 0.0, 1.645921029320021E9, 0.0, 2022-02-27 11:17:09.320
72.0, -2556.905455220396, -5648.084658155997, -2330.7058013326887, -10978.685138068813, -1278.8327072659383, -73.24666658004125, -5484.156964320775, -1782.104585421632, -2230.055896050441, -7090.263913901319, -4706.182146809358, -3547.5571212240607, -5059.4961714143965, -3822.2824123242394, -10195.278846654755, -14333.346704643573, 0.01440625, -0.1070625, 0.98990625, 192.0, 0.0, 0.0, 0.0, 0.0, 0.0, 0.0, 0.0, 0.0, 0.0, 1.645921029326627E9, 0.0, 2022-02-27 11:17:09.326
74.0, -2086.960028047565, -5307.578183123849, -2057.5004288554705, -10696.49436432056, -875.0931471697268, 201.74684545360154, -5466.432030967717, -1780.7634807543136, -4107.647133785144, -7223.592069577226, -4309.9751245945845, -3534.123722806421, -4579.33599702549, -3480.9712744917006, -10323.846080761681, -14830.6506670297, 0.01440625, -0.1070625, 0.98990625, 192.0, 0.0, 0.0, 0.0, 0.0, 0.0, 0.0, 0.0, 0.0, 0.0, 1.645921029334682E9, 0.0, 2022-02-27 11:17:09.334
76.0, -2914.868642672139, -5929.537824337223, -2621.8819763519737, -11286.37925224057, -1604.631734446494, -342.27226284411705, -5722.270098003161, -2086.93767630311, -4136.413828899125, -7855.9005684734075, -4782.334540168588, -3731.3108123911397, -5058.758563847371, -3939.293794547772, -10545.37422005823, -15296.773945900673, 0.014203125, -0.11053125, 0.984953125, 192.0, 0.0, 56.0, 126.0, 56.0, 15.0, 80.0, 0.0, 0.0, 0.0, 1.645921029342786E9, 0.0, 2022-02-27 11:17:09.342
78.0, -2119.861795885777, -5321.123340263765, -2025.157454628641, -10657.19999756813, -860.2962923403136, 227.94308995522144, -5304.67245634466, -1616.925193896913, -2390.0049793726184, -6781.899247395903, -4450.522893729555, -3462.553437060528, -4782.312188424134, -3561.9963481421887, -10088.795136069672, -14131.80102489007, 0.014203125, -0.11053125, 0.984953125, 192.0, 0.0, 0.0, 0.0, 0.0, 0.0, 0.0, 0.0, 0.0, 0.0, 1.64592102935632E9, 0.0, 2022-02-27 11:17:09.356
80.0, -2655.4766482683003, -5747.013479115186, -2482.787070606598, -11148.692506395879, -1390.5020225646524, -214.1967671152076, -5748.064011104586, -2160.296101605428, -5366.564436741404, -7903.286266718658, -4487.447975569722, -3709.4508063138496, -4696.995579838226, -3677.6666256984026, -10604.09225274232, -15610.972417708925, 0.014203125, -0.11053125, 0.984953125, 192.0, 0.0, 0.0, 0.0, 0.0, 0.0, 0.0, 0.0, 0.0, 0.0, 1.645921029364192E9, 0.0, 2022-02-27 11:17:09.364
82.0, -2563.678033790354, -5661.294539129083, -2338.2606909585825, -10983.31194917106, -1277.938637487726, -70.20682933411949, -5482.838211397911, -1793.235754160375, -2246.35031775836, -7098.154079694043, -4706.472719487277, -3556.967205639745, -5055.986947534913, -3821.9247844129545, -10192.06019545319, -14343.002658248266, 0.014203125, -0.11053125, 0.984953125, 192.0, 0.0, 0.0, 0.0, 0.0, 0.0, 0.0, 0.0, 0.0, 0.0, 1.645921029372354E9, 0.0, 2022-02-27 11:17:09.372
84.0, -2088.681112370624, -5308.449901157606, -2060.294396912384, -10695.600294542348, -876.5013070704111, 202.2385838316183, -5467.706080401669, -1796.3426466396627, -4099.913430203608, -7219.948735231011, -4303.783691380464, -3546.0148508566444, -4579.5148109811325, -3484.1005187154437, -10329.90340350907, -14833.22111764206, 0.014203125, -0.11053125, 0.984953125, 192.0, 0.0, 0.0, 0.0, 0.0, 0.0, 0.0, 0.0, 0.0, 0.0, 1.645921029379455E9, 0.0, 2022-02-27 11:17:09.379
86.0, -2921.6188694976413, -5943.641775088522, -2628.6992584108425, -11289.150868553028, -1617.9310223974016, -345.13328613439637, -5727.478054461248, -2102.695656144101, -4166.119297280228, -7868.864580257486, -4777.193638943868, -3744.78891429769, -5069.532104674829, -3940.612547470635, -10562.026269677433, -15312.017835619192, 0.014, -0.10400000000000001, 0.984, 192.0, 0.0, 56.0, 126.0, 96.0, 15.0, 96.0, 0.0, 0.0, 0.0, 1.645921029387004E9, 0.0, 2022-02-27 11:17:09.387
88.0, -2130.680040202146, -5332.500378191517, -2031.7512192429567, -10656.037706856456, -877.3506733597128, 231.29585162351748, -5326.487758933039, -1628.6375079914937, -2382.5394967245456, -6779.708776439283, -4446.410172749779, -3460.832352737469, -4794.225668218812, -3552.4968567486835, -10104.32959846611, -14129.387036488895, 0.014, -0.10400000000000001, 0.984, 192.0, 0.0, 0.0, 0.0, 0.0, 0.0, 0.0, 0.0, 0.0, 0.0, 1.645921029394978E9, 0.0, 2022-02-27 11:17:09.394
90.0, -2667.546590274166, -5757.161171097895, -2484.8210793520307, -11140.981154558796, -1396.8499179899595, -207.37948505633892, -5741.8055226571, -2141.319470562872, -5392.380701587284, -7909.589458655055, -4496.992170452138, -3703.460538799827, -4707.880879387961, -3680.34883503304, -10615.737511603536, -15598.2319233694, 0.014, -0.10400000000000001, 0.984, 192.0, 0.0, 0.0, 0.0, 0.0, 0.0, 0.0, 0.0, 0.0, 0.0, 1.645921029402303E9, 0.0, 2022-02-27 11:17:09.402
92.0, -2592.0871009930493, -5677.83483002601, -2347.916644563275, -10990.263341696662, -1296.2447161966224, -78.70049222713617, -5475.931522361222, -1794.5321553387828, -2289.466832812647, -7124.819710829224, -4733.853606445027, -3569.1712581123425, -5077.936360590024, -3835.2464241083176, -10204.376006648065, -14347.741228072791, 0.014, -0.10400000000000001, 0.984, 192.0, 0.0, 0.0, 0.0, 0.0, 0.0, 0.0, 0.0, 0.0, 0.0, 1.645921029408593E9, 0.0, 2022-02-27 11:17:09.408
94.0, -2092.7491298614896, -5310.930944792145, -2049.967890974032, -10684.178553125686, -867.7841267328414, 212.0062961585875, -5445.041411523987, -1794.979190227889, -4065.871723398176, -7206.068301924265, -4324.771979423997, -3545.6572229453595, -4586.712072695741, -3487.341521661463, -10323.287287150299, -14801.772213193442, 0.014, -0.10400000000000001, 0.984, 192.0, 0.0, 0.0, 0.0, 0.0, 0.0, 0.0, 0.0, 0.0, 0.0, 1.645921029416608E9, 0.0, 2022-02-27 11:17:09.416
96.0, -2912.991096137893, -5933.002344727796, -2615.4446739488453, -11286.178086540473, -1612.276031050209, -347.2567018576505, -5732.462493474781, -2114.363266749772, -4211.78391120242, -7880.934522263351, -4775.494906365265, -3736.5858240825924, -5050.5778253767285, -3932.6106229556353, -10560.483999310018, -15321.98671364626, 0.016, -0.106, 0.986, 192.0, 0.0, 64.0, 126.0, 88.0, 15.0, 104.0, 0.0, 0.0, 0.0, 1.645921029424692E9, 0.0, 2022-02-27 11:17:09.424
98.0, -2122.253432542495, -5320.139863507732, -2023.7716464724122, -10663.614948226805, -889.9347054880507, 220.36584858487234, -5312.964953537578, -1619.2944788091754, -2348.4530864302023, -6787.911866654381, -4431.412152220268, -3457.5019428136284, -4787.967179771326, -3563.739784209703, -10098.607551885552, -14121.161594529343, 0.016, -0.106, 0.986, 192.0, 0.0, 0.0, 0.0, 0.0, 0.0, 0.0, 0.0, 0.0, 0.0, 1.645921029431916E9, 0.0, 2022-02-27 11:17:09.431
100.0, -2629.570976444599, -5722.292449747616, -2465.8668000539305, -11136.466102178825, -1390.546726053563, -197.8799936628334, -5754.925996652365, -2150.886017189743, -5364.038689617955, -7890.501068890223, -4463.665719469276, -3707.059169657132, -4691.742919891229, -3669.9999773502327, -10612.988247035533, -15595.70617624595, 0.016, -0.106, 0.986, 192.0, 0.0, 0.0, 0.0, 0.0, 0.0, 0.0, 0.0, 0.0, 0.0, 1.645921029439277E9, 0.0, 2022-02-27 11:17:09.439
102.0, -2585.6721503343765, -5676.761946292156, -2353.9739673106633, -10997.684120855823, -1318.0823705294574, -96.1795563911863, -5510.174394866753, -1813.0841032366877, -2292.0596351694626, -7124.88676606259, -4710.674847444874, -3553.279167804619, -5073.488363443418, -3827.7138862268794, -10218.614067866096, -14369.623585894537, 0.016, -0.106, 0.986, 192.0, 0.0, 0.0, 0.0, 0.0, 0.0, 0.0, 0.0, 0.0, 0.0, 1.645921029447282E9, 0.0, 2022-02-27 11:17:09.447
104.0, -2075.582990119814, -5298.212802197076, -2050.3031671408617, -10685.027919414988, -867.4935540549224, 211.0675228914646, -5446.538978402493, -1795.5826873281824, -4015.423836162548, -7182.174287101542, -4304.968333836596, -3522.2325947561976, -4584.342787783478, -3462.441678338251, -10321.745016782883, -14791.512762488457, 0.016, -0.106, 0.986, 192.0, 0.0, 0.0, 0.0, 0.0, 0.0, 0.0, 0.0, 0.0, 0.0, 1.64592102945531E9, 0.0, 2022-02-27 11:17:09.455
106.0, -2919.3389915632, -5934.499911606302, -2634.6895259248645, -11294.671749433488, -1622.982516644301, -350.78827748158903, -5743.548958724614, -2101.1757375211405, -4245.915024985674, -7881.806240297108, -4770.845743518561, -3742.1961119408743, -5049.013203264857, -3919.8924803605655, -10565.021403434444, -15338.571708032097, 0.012, -0.10400000000000001, 0.99, 192.0, 0.0, 48.0, 126.0, 96.0, 15.0, 120.0, 0.0, 0.0, 0.0, 1.645921029461954E9, 0.0, 2022-02-27 11:17:09.461
108.0, -2142.6158717412795, -5337.328354993863, -2043.8882164821885, -10669.180532596176, -894.0474264678272, 220.8575869628891, -5314.753093094003, -1619.2050718313542, -2349.123638763862, -6781.586322973529, -4449.78528616253, -3457.7254602581816, -4795.5891246305855, -3556.8330951730127, -10099.434566430398, -14112.109138024944, 0.012, -0.10400000000000001, 0.99, 192.0, 0.0, 0.0, 0.0, 0.0, 0.0, 0.0, 0.0, 0.0, 0.0, 1.645921029477196E9, 0.0, 2022-02-27 11:17:09.477
110.0, -2644.479589996289, -5734.138874308929, -2471.4770879122125, -11134.901480066954, -1375.5040020351414, -198.0588076184759, -5728.37212423946, -2141.2300635850506, -5377.583846757871, -7882.2532751862145, -4474.88629518584, -3701.538288776671, -4684.500954687709, -3651.2468637522297, -10604.516935886972, -15584.105620873646, 0.012, -0.10400000000000001, 0.99, 192.0, 0.0, 0.0, 0.0, 0.0, 0.0, 0.0, 0.0, 0.0, 0.0, 1.645921029484257E9, 0.0, 2022-02-27 11:17:09.484
112.0, -2609.9014413239292, -5687.468431886248, -2363.518162193079, -11006.89303957141, -1300.6703615987733, -91.61980052230365, -5493.969380136655, -1804.0539984767436, -2318.211176182172, -7147.685545407003, -4729.450312787332, -3574.6921389928034, -5060.971386548446, -3818.9520024003987, -10203.616047336585, -14372.238739995808, 0.012, -0.10400000000000001, 0.99, 192.0, 0.0, 0.0, 0.0, 0.0, 0.0, 0.0, 0.0, 0.0, 0.0, 1.645921029491574E9, 0.0, 2022-02-27 11:17:09.491
114.0, -2090.581010649325, -5318.262316973486, -2040.803675747356, -10683.440945558661, -851.5567602582885, 211.64866824730257, -5429.819873549924, -1773.789736484258, -4001.2975336667937, -7192.590200017715, -4309.461034472112, -3541.70096417677, -4561.655767161342, -3462.285216127064, -10306.434071830998, -14780.985090850007, 0.012, -0.10400000000000001, 0.99, 192.0, 0.0, 0.0, 0.0, 0.0, 0.0, 0.0, 0.0, 0.0, 0.0, 1.645921029499538E9, 0.0, 2022-02-27 11:17:09.499
116.0, -2947.368079110155, -5963.4007171870135, -2620.451464706834, -11296.638702945555, -1609.5491182266617, -352.21878912672867, -5766.481848535758, -2112.8880516157215, -4273.742946832532, -7906.616676642499, -4758.306414879134, -3744.3642311530393, -5021.878185496114, -3910.4376924559706, -10562.294490610897, -15352.51919657221, 0.014, -0.11, 0.984, 192.0, 0.0, 56.0, 126.0, 72.0, 15.0, 96.0, 0.0, 0.0, 0.0, 1.645921029507549E9, 0.0, 2022-02-27 11:17:09.507
118.0, -2202.384436414771, -5408.6974750396585, -2040.803675747356, -10682.680986247182, -885.0396734523384, 207.22302284515177, -5306.281781945441, -1609.0797315931002, -2315.3948563808035, -6797.657227236895, -4444.957309360184, -3483.2288006816866, -4776.724252310307, -3560.7222987082364, -10092.505525649254, -14111.393882202374, 0.014, -0.11, 0.984, 192.0, 0.0, 0.0, 0.0, 0.0, 0.0, 0.0, 0.0, 0.0, 0.0, 1.64592102951578E9, 0.0, 2022-02-27 11:17:09.515
120.0, -2733.2160154838584, -5842.433076194892, -2465.464468653735, -11133.806244588643, -1358.069641360002, -194.6389907168139, -5723.186519525829, -2131.7752756804557, -5369.000776887033, -7916.607906414021, -4468.985434649639, -3734.887091503989, -4668.452402168799, -3649.7492968737242, -10598.325502672853, -15577.154228348045, 0.014, -0.11, 0.984, 192.0, 0.0, 0.0, 0.0, 0.0, 0.0, 0.0, 0.0, 0.0, 0.0, 1.645921029522278E9, 0.0, 2022-02-27 11:17:09.522
122.0, -2775.192591570925, -5856.87230311302, -2380.1925635567386, -11023.500385701704, -1302.838480810938, -100.49344307106055, -5488.716720189657, -1801.9082310090341, -2380.9748746126743, -7196.971141930955, -4766.733022538784, -3613.606526089493, -5075.768241377859, -3825.277546081251, -10214.07666374167, -14381.425306966938, 0.014, -0.11, 0.984, 192.0, 0.0, 0.0, 0.0, 0.0, 0.0, 0.0, 0.0, 0.0, 0.0, 1.645921029529306E9, 0.0, 2022-02-27 11:17:09.529
124.0, -2299.2568968840715, -5508.319200076962, -2048.8503037512664, -10686.704300249135, -834.9047106390847, 222.06458116347568, -5412.050236707954, -1750.7003844619258, -4027.94081305752, -7233.471540626471, -4372.24708464707, -3588.796089744102, -4585.14745058387, -3458.5524748030275, -10294.453536802952, -14750.720828857522, 0.014, -0.11, 0.984, 192.0, 0.0, 0.0, 0.0, 0.0, 0.0, 0.0, 0.0, 0.0, 0.0, 1.645921029537359E9, 0.0, 2022-02-27 11:17:09.537
126.0, -3189.683340750139, -6181.218466903981, -2647.3406132865684, -11312.91077290902, -1605.2575832912426, -346.4743908017148, -5725.712266649279, -2116.1961097951066, -4397.750425070575, -7962.808962203141, -4849.635642723518, -3811.3524092855946, -5039.245490937888, -3902.167547007507, -10560.036964420911, -15355.424923351398, 0.014, -0.108, 0.988, 192.0, 0.0, 56.0, 126.0, 80.0, 15.0, 112.0, 0.0, 0.0, 0.0, 1.645921029543738E9, 0.0, 2022-02-27 11:17:09.543
128.0, -2415.1506918848386, -5600.184869788274, -2054.3041293983615, -10692.538105551972, -879.8987722276179, 223.1598166417857, -5323.202052498109, -1595.6910366643713, -2394.3859212858583, -6847.099285972034, -4537.538234894066, -3538.728182164214, -4807.547307914175, -3561.6610719753594, -10085.107098234546, -14102.006149531146, 0.014, -0.108, 0.988, 192.0, 0.0, 0.0, 0.0, 0.0, 0.0, 0.0, 0.0, 0.0, 0.0, 1.645921029551966E9, 0.0, 2022-02-27 11:17:09.551
130.0, -2894.4391482399883, -5981.37151972908, -2473.4440414242795, -11137.20370974585, -1336.388449238354, -173.65070267328056, -5713.530565921136, -2120.4205894971597, -5440.593414377381, -7937.707953179831, -4539.214615728213, -3768.4594116758603, -4684.389195965433, -3633.7230960992692, -10597.699653828104, -15564.41373400852, 0.014, -0.108, 0.988, 192.0, 0.0, 0.0, 0.0, 0.0, 0.0, 0.0, 0.0, 0.0, 0.0, 1.645921029559871E9, 0.0, 2022-02-27 11:17:09.559
132.0, -2861.537380401776, -5921.424141099947, -2382.763014169099, -11028.194252037318, -1282.5654485899745, -82.70145448463613, -5480.446574741194, -1813.2852689367855, -2426.9077094683303, -7226.274278911863, -4802.898145067471, -3648.9893375622437, -5078.852782112692, -3798.589563201614, -10213.182593963456, -14389.315472759661, 0.014, -0.108, 0.988, 192.0, 0.0, 0.0, 0.0, 0.0, 0.0, 0.0, 0.0, 0.0, 0.0, 1.64592102956703E9, 0.0, 2022-02-27 11:17:09.567
134.0, -2324.3579059073813, -5544.305508650006, -2041.3624693587387, -10693.454527074638, -836.2234635619478, 218.95768868418799, -5411.446739607661, -1742.4749425023726, -4029.460731680481, -7222.407427121095, -4375.979825971106, -3598.2955811376073, -4583.314607538535, -3468.2307801521756, -10298.65566476055, -14749.603241634757, 0.014, -0.108, 0.988, 192.0, 0.0, 0.0, 0.0, 0.0, 0.0, 0.0, 0.0, 0.0, 0.0, 1.645921029574511E9, 0.0, 2022-02-27 11:17:09.574
136.0, -3142.8564361162707, -6165.214617873981, -2636.5894242035656, -11321.315028824214, -1605.9728391138124, -358.6337397854018, -5746.655851203901, -2112.865699871266, -4424.326649227935, -7983.774898502219, -4819.505491197764, -3810.525394740748, -5019.575955817218, -3918.841948371166, -10566.764839501959, -15378.938958518382, 0.018000000000000002, -0.10400000000000001, 0.984, 192.0, 0.0, 72.0, 126.0, 96.0, 15.0, 96.0, 0.0, 0.0, 0.0, 1.64592102958245E9, 0.0, 2022-02-27 11:17:09.582
138.0, -2357.9972813126187, -5559.795267557534, -2052.0689549528306, -10703.06577719042, -895.3661793906903, 193.83432791642284, -5330.734590379548, -1604.4529204908515, -2327.8671297868646, -6828.167358418389, -4519.478025374177, -3522.79138836758, -4815.459825451354, -3579.5648192840604, -10088.90689479195, -14103.459012920739, 0.018000000000000002, -0.10400000000000001, 0.984, 192.0, 0.0, 0.0, 0.0, 0.0, 0.0, 0.0, 0.0, 0.0, 0.0, 1.645921029590471E9, 0.0, 2022-02-27 11:17:09.590
140.0, -2779.5288299952545, -5886.667178471945, -2447.2477969226597, -11114.6731513349, -1345.865588887404, -182.9043248777777, -5719.520833435158, -2122.3428395203164, -5387.776242229491, -7899.128842249971, -4502.22247865468, -3737.390486882983, -4673.570951649064, -3638.1934449903306, -10592.514049114472, -15556.769437404804, 0.018000000000000002, -0.10400000000000001, 0.984, 192.0, 0.0, 0.0, 0.0, 0.0, 0.0, 0.0, 0.0, 0.0, 0.0, 1.64592102960415E9, 0.0, 2022-02-27 11:17:09.604
142.0, -2811.0671414216927, -5880.587503980101, -2392.486023007157, -11048.623746469468, -1345.3067952760214, -124.00747823804359, -5524.703028762702, -1818.3591149281401, -2451.8746080249084, -7235.5726046052705, -4796.013807775236, -3622.5919273605264, -5097.874116644159, -3839.582662532647, -10239.73646637636, -14430.174461623963, 0.018000000000000002, -0.10400000000000001, 0.984, 192.0, 0.0, 0.0, 0.0, 0.0, 0.0, 0.0, 0.0, 0.0, 0.0, 1.645921029612105E9, 0.0, 2022-02-27 11:17:09.612
144.0, -2228.088942538374, -5440.056972510454, -2036.579196045303, -10684.826753714891, -836.5587397287775, 209.2123281016741, -5416.967620488122, -1767.0618614032105, -3938.8244079142105, -7173.680624208525, -4370.838924746386, -3566.7796214556247, -4603.967619415238, -3461.0782219264775, -10298.074519404712, -14727.922049513109, 0.018000000000000002, -0.10400000000000001, 0.984, 192.0, 0.0, 0.0, 0.0, 0.0, 0.0, 0.0, 0.0, 0.0, 0.0, 1.64592102962064E9, 0.0, 2022-02-27 11:17:09.620
146.0, -3072.56019980433, -6083.250770956371, -2638.936357371373, -11318.76692995631, -1620.3673625430301, -378.07975746151897, -5759.686918221345, -2128.020182611964, -4428.6628876522645, -7947.945052140361, -4816.4880056962975, -3798.857784135078, -5045.079296240723, -3910.2141750114174, -10585.205028677587, -15401.223647740324, 0.018000000000000002, -0.108, 0.99, 192.0, 0.0, 72.0, 126.0, 80.0, 15.0, 120.0, 0.0, 0.0, 0.0, 1.645921029627021E9, 0.0, 2022-02-27 11:17:09.627
148.0, -2287.254010111572, -5486.146269577297, -2053.11948694223, -10701.277637633997, -911.1241592316818, 191.24152555960723, -5329.952279323612, -1612.5889554725834, -2312.7126470461667, -6798.953628415303, -4508.838595013452, -3481.999454736645, -4827.596822690585, -3556.698984706281, -10098.85342107456, -14109.672797879315, 0.018000000000000002, -0.108, 0.99, 192.0, 0.0, 0.0, 0.0, 0.0, 0.0, 0.0, 0.0, 0.0, 0.0, 1.645921029634939E9, 0.0, 2022-02-27 11:17:09.634
150.0, -2705.611611081554, -5809.128976956485, -2431.3780583593916, -11115.075482735096, -1337.8189608834937, -184.04426384499834, -5758.4799240207585, -2147.734421221545, -5366.653843719226, -7881.426260641368, -4484.050510412516, -3718.503262818249, -4673.950931304805, -3638.4616659237945, -10600.605380607294, -15573.242673068366, 0.018000000000000002, -0.108, 0.99, 192.0, 0.0, 0.0, 0.0, 0.0, 0.0, 0.0, 0.0, 0.0, 0.0, 1.645921029642724E9, 0.0, 2022-02-27 11:17:09.642
152.0, -2723.068323501149, -5798.131918684473, -2369.016691329085, -11043.95223187831, -1342.9151586193036, -132.3223271754178, -5548.775857541068, -1843.3930687180841, -2405.2265173466826, -7206.6941507690135, -4760.98862421377, -3599.860203249479, -5086.228857782943, -3832.2512903513066, -10242.821007111193, -14447.139435665542, 0.018000000000000002, -0.108, 0.99, 192.0, 0.0, 0.0, 0.0, 0.0, 0.0, 0.0, 0.0, 0.0, 0.0, 1.645921029649426E9, 0.0, 2022-02-27 11:17:09.649
154.0, -2150.260168344995, -5379.550800269938, -2014.8309486902892, -10686.458431060128, -844.2924433103137, 207.73711296762383, -5411.066759951921, -1767.1736201254869, -3871.0762704701747, -7151.0383070753, -4336.618403985311, -3550.865179403446, -4587.71790119623, -3453.5680357894944, -10296.398138570565, -14730.96188675903, 0.017, -0.10600000000000001, 0.992, 192.0, 0.0, 64.0, 126.0, 96.0, 15.5, 8.0, 0.0, 0.0, 0.0, 1.645921029656353E9, 0.0, 2022-02-27 11:17:09.656
156.0, -3003.8062338598056, -6024.465683038912, -2623.8489298640407, -11322.074988135695, -1631.2973655816754, -389.38974015590435, -5780.406985331415, -2152.0036044125086, -4423.387875960812, -7944.18995907187, -4783.407423902443, -3767.7441558532905, -5021.140577929089, -3916.830291370188, -10588.04370022341, -15427.665761430952, 0.017, -0.10600000000000001, 0.992, 192.0, 0.0, 0.0, 0.0, 0.0, 0.0, 0.0, 0.0, 0.0, 0.0, 1.645921029664417E9, 0.0, 2022-02-27 11:17:09.664
158.0, -2236.113218797829, -5423.851957780356, -2046.9504054725655, -10706.954980725644, -935.8451885992514, 180.26681903205147, -5367.614968730804, -1624.5247870117173, -2259.895474898276, -6776.713642682272, -4494.958161706706, -3480.054852969033, -4823.618212177541, -3579.497764050694, -10106.05068278917, -14117.071225294021, 0.017, -0.10600000000000001, 0.992, 192.0, 0.0, 0.0, 0.0, 0.0, 0.0, 0.0, 0.0, 0.0, 0.0, 1.645921029672354E9, 0.0, 2022-02-27 11:17:09.672
160.0, -2642.71380218432, -5748.578101227057, -2420.828034976487, -11109.420491387904, -1343.0492690860356, -176.6011329413811, -5752.914339651387, -2117.984249351531, -5339.652936417215, -7849.17269339236, -4469.991263150127, -3708.713198746824, -4669.793506836118, -3622.8825000384454, -10604.33812193133, -15560.658640940028, 0.017, -0.10600000000000001, 0.992, 192.0, 0.0, 0.0, 0.0, 0.0, 0.0, 0.0, 0.0, 0.0, 0.0, 1.645921029678993E9, 0.0, 2022-02-27 11:17:09.678
162.0, -2691.0159219522384, -5761.8103339446, -2375.3869384988475, -11042.409961510893, -1344.3456702644432, -118.3524868908509, -5506.911040176277, -1832.038382534788, -2417.274107608093, -7204.3472176012065, -4765.615435316019, -3592.1041479234873, -5088.620494439661, -3839.850883466111, -10241.83753035516, -14449.978107211366, 0.017, -0.10600000000000001, 0.992, 192.0, 0.0, 0.0, 0.0, 0.0, 0.0, 0.0, 0.0, 0.0, 0.0, 1.645921029687799E9, 0.0, 2022-02-27 11:17:09.687
164.0, -2106.808377123878, -5320.631601885749, -2016.3061638243396, -10664.73253544957, -841.2973095533025, 226.64668877681362, -5412.363161130329, -1755.662471731004, -3854.4018691065157, -7130.586460898693, -4341.044049387461, -3535.1071995624543, -4599.206697846258, -3456.2725968685863, -10288.37386231111, -14712.901677239142, 0.0145, -0.10500000000000001, 0.993, 192.0, 0.0, 48.0, 126.0, 96.0, 15.5, 8.0, 0.0, 0.0, 0.0, 1.645921029694978E9, 0.0, 2022-02-27 11:17:09.694
166.0, -2976.6488643466073, -5970.642682390533, -2624.5641856866105, -11306.406415272524, -1627.631679491005, -364.9145799773431, -5779.267046364194, -2143.2417205860284, -4454.4344490092335, -7933.327011266591, -4778.46768837782, -3757.3505946815726, -5032.0258774788235, -3901.429939440482, -10594.033967737434, -15424.760034651761, 0.0145, -0.10500000000000001, 0.993, 192.0, 0.0, 0.0, 0.0, 0.0, 0.0, 0.0, 0.0, 0.0, 0.0, 1.645921029702203E9, 0.0, 2022-02-27 11:17:09.702
168.0, -2228.1783495161953, -5395.867573722312, -2049.029117706909, -10696.181439898186, -927.4185809396006, 185.65358944578045, -5355.656785447215, -1629.0621911361447, -2256.363899274337, -6773.3161775250655, -4496.522783818577, -3466.9343789737677, -4832.715372170851, -3572.211095358264, -10098.786365841195, -14105.001283288157, 0.0145, -0.10500000000000001, 0.993, 192.0, 0.0, 0.0, 0.0, 0.0, 0.0, 0.0, 0.0, 0.0, 0.0, 1.645921029709608E9, 0.0, 2022-02-27 11:17:09.709
170.0, -2630.934432856373, -5720.951345080298, -2416.7153139967104, -11101.776194784188, -1342.2669580300997, -167.14634503678622, -5748.667508204879, -2124.198034310107, -5342.91629110769, -7839.784960721131, -4469.3430625609235, -3698.4760997862936, -4677.437803439832, -3619.440331392328, -10594.637464837726, -15550.086265812668, 0.0145, -0.10500000000000001, 0.993, 192.0, 0.0, 0.0, 0.0, 0.0, 0.0, 0.0, 0.0, 0.0, 0.0, 1.645921029724882E9, 0.0, 2022-02-27 11:17:09.724
172.0, -2688.57958180661, -5750.410944272393, -2379.56671471199, -11054.546958750125, -1360.1707053388006, -134.445742898672, -5571.261712463107, -1844.3765454741176, -2449.3488609014585, -7220.6639910535805, -4772.075089463602, -3600.3295898830406, -5109.519375505373, -3849.8644649820885, -10252.722829904895, -14466.33958415265, 0.0145, -0.10500000000000001, 0.993, 192.0, 0.0, 0.0, 0.0, 0.0, 0.0, 0.0, 0.0, 0.0, 0.0, 1.64592102973125E9, 0.0, 2022-02-27 11:17:09.731
174.0, -2078.265199454451, -5296.894049274212, -1998.7376926824682, -10663.436134271162, -839.1962455745037, 226.892557965822, -5439.587585876892, -1760.1998758554312, -3821.2095285903847, -7122.5174811503275, -4327.990630625562, -3524.5348244350944, -4603.833508948506, -3458.708937014215, -10291.816030957227, -14704.452717835036, 0.01225, -0.10450000000000001, 0.9915, 192.0, 0.0, 40.0, 126.0, 96.0, 15.0, 120.0, 0.0, 0.0, 0.0, 1.645921029739246E9, 0.0, 2022-02-27 11:17:09.739
176.0, -2944.8423319867056, -5952.2471967038155, -2611.0860837800606, -11310.720301952399, -1635.27597609472, -367.8426585009883, -5799.428319862881, -2156.183380625651, -4475.243923097125, -7942.111246837527, -4749.70099326384, -3750.2650916892403, -5020.760598273349, -3898.6359713835686, -10596.71617707207, -15446.932965151425, 0.01225, -0.10450000000000001, 0.9915, 192.0, 0.0, 0.0, 0.0, 0.0, 0.0, 0.0, 0.0, 0.0, 0.0, 1.645921029747327E9, 0.0, 2022-02-27 11:17:09.747
178.0, -2190.158032197718, -5371.3030065659295, -2039.194350146574, -10696.293198620462, -933.7441246204526, 179.84213588740062, -5382.612989260315, -1640.2380633637981, -2230.0335443059857, -6775.350186270498, -4470.684167228243, -3468.409594107818, -4829.854348880572, -3576.569685527049, -10103.413176943443, -14113.807870603547, 0.01225, -0.10450000000000001, 0.9915, 192.0, 0.0, 0.0, 0.0, 0.0, 0.0, 0.0, 0.0, 0.0, 0.0, 1.645921029754438E9, 0.0, 2022-02-27 11:17:09.754
180.0, -2584.4204526448793, -5683.64628358439, -2403.7065987237215, -11080.922017207387, -1328.3418212344434, -170.5438101939929, -5758.256406576205, -2146.192150854129, -5315.62481112776, -7817.410864521368, -4439.615242435365, -3684.081576357076, -4665.189047478324, -3622.9495552718113, -10599.890124784724, -15557.55174846074, 0.01225, -0.10450000000000001, 0.9915, 192.0, 0.0, 0.0, 0.0, 0.0, 0.0, 0.0, 0.0, 0.0, 0.0, 1.645921029761942E9, 0.0, 2022-02-27 11:17:09.761
182.0, -2662.6515582384536, -5726.963964338775, -2382.2265723021715, -11045.315688290082, -1362.6964524622504, -141.8218185689233, -5568.020709517087, -1849.8303711212125, -2454.780334804098, -7211.432720593539, -4754.998356699748, -3581.509421051672, -5103.43970101353, -3843.941252701432, -10262.781114909783, -14486.299691951239, 0.01225, -0.10450000000000001, 0.9915, 192.0, 0.0, 0.0, 0.0, 0.0, 0.0, 0.0, 0.0, 0.0, 0.0, 1.645921029769982E9, 0.0, 2022-02-27 11:17:09.769
184.0, -2072.6549115961684, -5288.154517192187, -2010.002971887943, -10656.30592778992, -838.637451963121, 232.36873535737223, -5427.495292126571, -1756.0871548756547, -3810.525394740748, -7110.64870484456, -4331.075171360394, -3515.4823679306946, -4616.037561421104, -3467.8955039853463, -10294.341778080676, -14703.849220734743, 0.012125, -0.10625000000000001, 0.98975, 192.0, 0.0, 48.0, 126.0, 80.0, 15.0, 112.0, 0.0, 0.0, 0.0, 1.645921029776897E9, 0.0, 2022-02-27 11:17:09.776
186.0, -2943.277709874834, -5954.638833360534, -2626.777008387686, -11309.580362985178, -1629.151598113966, -373.497649848181, -5797.081386695074, -2162.6877382621456, -4515.387656138856, -7940.926604381395, -4765.056641704637, -3751.8073620566565, -5033.054057723768, -3904.425073197493, -10612.988247035533, -15458.131189123535, 0.012125, -0.10625000000000001, 0.98975, 192.0, 0.0, 0.0, 0.0, 0.0, 0.0, 0.0, 0.0, 0.0, 0.0, 1.645921029784046E9, 0.0, 2022-02-27 11:17:09.784
188.0, -2211.369837685804, -5393.006550432033, -2057.0086904774535, -10710.419501116217, -942.3942497246563, 167.92865609272195, -5359.545988982438, -1655.0349181932115, -2226.278451237494, -6780.781660173137, -4498.445033841734, -3475.1374691888655, -4854.597729992596, -3582.895229207901, -10105.871868833527, -14109.002245545656, 0.012125, -0.10625000000000001, 0.98975, 192.0, 0.0, 0.0, 0.0, 0.0, 0.0, 0.0, 0.0, 0.0, 0.0, 1.645921029791504E9, 0.0, 2022-02-27 11:17:09.791
190.0, -2576.9326182523514, -5689.211867953762, -2400.979685900174, -11081.391403840948, -1310.7509983481168, -159.12206877733098, -5741.313784279083, -2134.0104501259866, -5319.335200707341, -7807.6431521944, -4443.929129115239, -3696.956181163333, -4668.0947742575145, -3615.528776112649, -10598.996055006512, -15546.286469255267, 0.012125, -0.10625000000000001, 0.98975, 192.0, 0.0, 0.0, 0.0, 0.0, 0.0, 0.0, 0.0, 0.0, 0.0, 1.645921029799683E9, 0.0, 2022-02-27 11:17:09.799
192.0, -2683.3045701151577, -5748.354583782504, -2394.430624774769, -11064.515836777191, -1371.8159642000157, -159.8373245999008, -5557.515389623093, -1850.1432955435869, -2504.0659313280503, -7247.4860843999495, -4768.990548728771, -3605.7834155301352, -5113.341523807231, -3855.608863307102, -10271.878274903092, -14499.084889779675, 0.012125, -0.10625000000000001, 0.98975, 192.0, 0.0, 0.0, 0.0, 0.0, 0.0, 0.0, 0.0, 0.0, 0.0, 1.645921029807737E9, 0.0, 2022-02-27 11:17:09.807
194.0, -2059.8250102788224, -5286.209915424575, -1998.9612101270213, -10653.958994622111, -824.9134808675625, 225.6855637652354, -5424.343696158373, -1741.983204124356, -3767.1630104974524, -7104.412568141529, -4335.5678719959105, -3528.245214014675, -4611.500157296677, -3461.569960304494, -10285.08815587618, -14670.366307540693, 0.0110625, -0.106125, 0.988875, 192.0, 0.0, 40.0, 126.0, 88.0, 15.0, 112.0, 0.0, 0.0, 0.0, 1.645921029814369E9, 0.0, 2022-02-27 11:17:09.814
196.0, -2937.3992010830884, -5951.800161814709, -2627.849892121541, -11317.00114214434, -1630.760923714748, -378.593847583991, -5784.05031967763, -2153.8140957133887, -4603.945267670782, -7970.967348929328, -4759.46870559081, -3764.8607808185557, -5012.758673758349, -3890.455232912926, -10618.19620349362, -15481.712279523885, 0.0110625, -0.106125, 0.988875, 192.0, 0.0, 0.0, 0.0, 0.0, 0.0, 0.0, 0.0, 0.0, 0.0, 1.645921029822382E9, 0.0, 2022-02-27 11:17:09.822
198.0, -2205.290163193961, -5384.892867194756, -2057.411021877649, -10716.946210497166, -939.0414880563603, 171.95197009467722, -5352.281672034464, -1637.3993918179742, -2206.9441922836536, -6796.897267925414, -4512.1913566817475, -3484.681664071282, -4864.34309057511, -3597.982656715233, -10112.219764258834, -14102.520239653617, 0.0110625, -0.106125, 0.988875, 192.0, 0.0, 0.0, 0.0, 0.0, 0.0, 0.0, 0.0, 0.0, 0.0, 1.645921029830354E9, 0.0, 2022-02-27 11:17:09.830
200.0, -2556.3466616090136, -5669.274111899628, -2383.4559182472135, -11067.801543212121, -1292.0425882390248, -147.25329247156293, -5739.838569145032, -2117.1125313177745, -5291.730796305036, -7797.920143356341, -4431.903890598284, -3691.770576449702, -4654.214340950768, -3599.0331887046327, -10590.86002002478, -15518.279733452766, 0.0110625, -0.106125, 0.988875, 192.0, 0.0, 0.0, 0.0, 0.0, 0.0, 0.0, 0.0, 0.0, 0.0, 1.645921029837494E9, 0.0, 2022-02-27 11:17:09.837
202.0, -2693.67577954242, -5758.792848443133, -2396.2634678201043, -11067.66743274539, -1373.805269456538, -159.32323447742874, -5581.454107934726, -1862.9061416275672, -2522.1484925923937, -7253.7669245918905, -4766.867133005516, -3609.2479359207077, -5115.040256385834, -3857.262892396795, -10276.974472638902, -14508.718491639913, 0.0110625, -0.106125, 0.988875, 192.0, 0.0, 0.0, 0.0, 0.0, 0.0, 0.0, 0.0, 0.0, 0.0, 1.645921029851982E9, 0.0, 2022-02-27 11:17:09.851
204.0, -2067.581065604814, -5298.257505685986, -1997.2401258039627, -10656.328279534375, -827.6850971800205, 217.795397972512, -5430.691591583681, -1749.6498524725262, -3736.6752310604134, -7096.656512815537, -4340.082924375883, -3527.4852547031946, -4622.810139991062, -3468.096669685444, -10285.244618087367, -14660.352726024716, 0.01453125, -0.1030625, 0.9854375, 192.0, 0.0, 72.0, 126.0, 112.0, 15.0, 88.0, 0.0, 0.0, 0.0, 1.645921029859868E9, 0.0, 2022-02-27 11:17:09.859
206.0, -2953.0454222018034, -5974.42012720348, -2630.554453200633, -11325.919488182008, -1624.502435267262, -385.7911092985999, -5782.776270243678, -2159.7149562495897, -4607.074511894526, -7977.181133887903, -4772.075089463602, -3770.4263651879273, -5021.90053724057, -3910.39298896706, -10618.017389537978, -15487.501381337808, 0.01453125, -0.1030625, 0.9854375, 192.0, 0.0, 0.0, 0.0, 0.0, 0.0, 0.0, 0.0, 0.0, 0.0, 1.645921029866572E9, 0.0, 2022-02-27 11:17:09.866
208.0, -2219.952907556642, -5406.8199285054125, -2064.2730074254287, -10730.916050781734, -940.8743311016955, 158.18329551020807, -5371.258303077019, -1662.8356770081136, -2212.8674045643097, -6798.752462715204, -4518.315734662501, -3483.83229778198, -4865.460677797875, -3599.994313716211, -10102.988493798792, -14104.420137932319, 0.01453125, -0.1030625, 0.9854375, 192.0, 0.0, 0.0, 0.0, 0.0, 0.0, 0.0, 0.0, 0.0, 0.0, 1.645921029874584E9, 0.0, 2022-02-27 11:17:09.874
210.0, -2548.367088838469, -5671.59869332298, -2380.1255083233727, -11074.149438637429, -1271.7695560180612, -147.38740293829477, -5727.232185272239, -2120.867624386266, -5303.0407789994215, -7807.263172538659, -4439.950518602195, -3692.821108439101, -4659.377593919944, -3618.0098197471884, -10585.629711822237, -15525.611105634107, 0.01453125, -0.1030625, 0.9854375, 192.0, 0.0, 0.0, 0.0, 0.0, 0.0, 0.0, 0.0, 0.0, 0.0, 1.645921029882589E9, 0.0, 2022-02-27 11:17:09.882
212.0, -2688.7583957622523, -5760.022194388175, -2403.550136512534, -11083.42541258638, -1374.8110979570267, -171.95197009467722, -5584.315131225006, -1857.6981851694807, -2559.587664555033, -7283.450041228538, -4773.215028430824, -3615.796997046113, -5115.710808719494, -3872.6408925820465, -10283.344719808665, -14533.484224496393, 0.01453125, -0.1030625, 0.9854375, 192.0, 0.0, 0.0, 0.0, 0.0, 0.0, 0.0, 0.0, 0.0, 0.0, 1.645921029889817E9, 0.0, 2022-02-27 11:17:09.889
214.0, -2056.807524777356, -5291.149650949198, -1996.2342973034738, -10656.529445234471, -805.8474428471856, 228.4348283332382, -5409.1668616732195, -1736.0376400992443, -3691.6141142385145, -7094.130765692087, -4333.198587083649, -3521.6290976559044, -4615.188195131802, -3471.8741144983906, -10269.352527779643, -14637.553946680302, 0.016265625000000002, -0.10253125, 0.98271875, 192.0, 0.0, 72.0, 126.0, 104.0, 15.0, 80.0, 0.0, 0.0, 0.0, 1.645921029897187E9, 0.0, 2022-02-27 11:17:09.897
216.0, -2941.7801429963283, -5957.27633920626, -2636.5000172257446, -11323.10316838064, -1614.2876880511867, -382.41599588584853, -5793.6392180489565, -2171.315511621894, -4649.006384492682, -7992.246209650781, -4758.932263723882, -3770.0910890210976, -5009.56237430124, -3902.882802830077, -10615.178717992154, -15493.648111063017, 0.016265625000000002, -0.10253125, 0.98271875, 192.0, 0.0, 0.0, 0.0, 0.0, 0.0, 0.0, 0.0, 0.0, 0.0, 1.645921029904171E9, 0.0, 2022-02-27 11:17:09.904
218.0, -2225.2502709925498, -5403.73538777058, -2075.582990119814, -10732.8830042938, -937.0074793109274, 153.28826347449584, -5352.482837734561, -1641.1991883753765, -2198.092901479352, -6797.321951070065, -4525.580051610476, -3491.0295594965887, -4862.912578929971, -3612.9136220113783, -10101.75914785375, -14099.703919852249, 0.016265625000000002, -0.10253125, 0.98271875, 192.0, 0.0, 0.0, 0.0, 0.0, 0.0, 0.0, 0.0, 0.0, 0.0, 1.64592102991226E9, 0.0, 2022-02-27 11:17:09.912
220.0, -2530.3962862964017, -5650.0069081791535, -2371.56479019699, -11052.512950004691, -1251.071840652447, -116.89962350125593, -5706.422711184348, -2081.3944436781935, -5286.165211935665, -7787.906561840363, -4439.883463368829, -3698.364341064017, -4640.356259388478, -3602.207136417286, -10571.145781415198, -15498.029052976259, 0.016265625000000002, -0.10253125, 0.98271875, 192.0, 0.0, 0.0, 0.0, 0.0, 0.0, 0.0, 0.0, 0.0, 0.0, 1.645921029919465E9, 0.0, 2022-02-27 11:17:09.919
222.0, -2706.5727360931323, -5771.555694527113, -2418.7046192532325, -11096.322369137093, -1380.3319788374877, -166.27462700302925, -5556.844837289434, -1862.1238305716313, -2613.0977407810383, -7314.518966021415, -4783.586237858086, -3628.1128082409873, -5106.345427792719, -3870.808049536711, -10280.729565707394, -14552.12557937212, 0.016265625000000002, -0.10253125, 0.98271875, 192.0, 0.0, 0.0, 0.0, 0.0, 0.0, 0.0, 0.0, 0.0, 0.0, 1.645921029927774E9, 0.0, 2022-02-27 11:17:09.927
224.0, -2043.575292059814, -5279.906723488179, -1988.098262321742, -10647.58874745235, -798.9854572994062, 246.8750175088665, -5407.713998283625, -1720.5925846806272, -3636.852340323012, -7074.193009637954, -4329.890528904263, -3527.1946820252756, -4602.1794798588135, -3467.44846909624, -10253.013402582814, -14609.569562622257, 0.02, -0.10200000000000001, 0.982, 192.0, 0.0, 80.0, 126.0, 104.0, 15.0, 88.0, 0.0, 0.0, 0.0, 1.645921029934107E9, 0.0, 2022-02-27 11:17:09.934
226.0, -2936.3263173492337, -5962.596054386622, -2627.8275403770854, -11318.275191578292, -1609.0126763597343, -369.72020503523413, -5797.19314541735, -2157.2115608705953, -4652.359146160978, -7985.943017714384, -4739.262728603212, -3769.7111093653575, -4986.27185657881, -3888.6000381231356, -10611.244810968019, -15492.150544184513, 0.02, -0.10200000000000001, 0.982, 192.0, 0.0, 0.0, 0.0, 0.0, 0.0, 0.0, 0.0, 0.0, 0.0, 1.645921029942124E9, 0.0, 2022-02-27 11:17:09.942
228.0, -2238.817779876921, -5421.616783334825, -2074.8006790638783, -10731.608954859848, -946.3952119821563, 157.6468536432807, -5359.657747704715, -1633.1302086270105, -2189.934514753165, -6800.473547038263, -4518.740417807152, -3479.6525215688375, -4856.408221293476, -3604.464662607272, -10093.891333805483, -14092.21608545972, 0.02, -0.10200000000000001, 0.982, 192.0, 0.0, 0.0, 0.0, 0.0, 0.0, 0.0, 0.0, 0.0, 0.0, 1.64592102995016E9, 0.0, 2022-02-27 11:17:09.950
230.0, -2559.6994232773095, -5683.445117884293, -2376.6162844438895, -11056.178636095363, -1263.1417826583126, -123.94042300467767, -5711.429501942337, -2095.31958047385, -5301.2749911874525, -7798.858916623464, -4446.588986705421, -3697.649085241447, -4639.238672165713, -3604.956400985289, -10572.822162249347, -15495.68211980845, 0.02, -0.10200000000000001, 0.982, 192.0, 0.0, 0.0, 0.0, 0.0, 0.0, 0.0, 0.0, 0.0, 0.0, 1.645921029957252E9, 0.0, 2022-02-27 11:17:09.957
232.0, -2746.0459168012044, -5809.352494401038, -2418.86108146442, -11088.7674795112, -1384.3999963283536, -165.8275921139231, -5578.1013462664305, -1881.9721796479441, -2622.351362985535, -7323.549070781359, -4805.602706146563, -3642.9096630704003, -5107.664180715583, -3873.4455553824373, -10286.630426243595, -14550.046867137775, 0.02, -0.10200000000000001, 0.982, 192.0, 0.0, 0.0, 0.0, 0.0, 0.0, 0.0, 0.0, 0.0, 0.0, 1.645921029971685E9, 0.0, 2022-02-27 11:17:09.971
234.0, -2114.5867841943245, -5342.692773663137, -1995.1167100807083, -10651.097971331832, -798.5384224103001, 246.69620355322405, -5405.568230815916, -1745.2465588148307, -3683.3216170455958, -7091.314445890719, -4363.14992465376, -3540.6504321873704, -4604.302895582067, -3462.441678338251, -10265.642138200063, -14618.666722615568, 0.018000000000000002, -0.1, 0.984, 192.0, 0.0, 72.0, 126.0, 112.0, 15.0, 96.0, 0.0, 0.0, 0.0, 1.645921029979782E9, 0.0, 2022-02-27 11:17:09.979
236.0, -3044.151132601635, -6067.626901582111, -2642.3338225285797, -11330.635706262077, -1618.8027404311588, -373.3635393814492, -5790.152345913929, -2151.9812526680535, -4729.249147087235, -8021.862271054062, -4781.932208768393, -3803.0375603482203, -4988.976417657902, -3896.557259149225, -10622.957125062601, -15505.919218768982, 0.018000000000000002, -0.1, 0.984, 192.0, 0.0, 0.0, 0.0, 0.0, 0.0, 0.0, 0.0, 0.0, 0.0, 1.645921029986777E9, 0.0, 2022-02-27 11:17:09.986
238.0, -2385.8028514150205, -5560.152895468819, -2093.933772317621, -10746.092885266888, -957.4593254875333, 152.34949020737295, -5355.992061614044, -1638.7851999742031, -2227.5301489269914, -6843.567710348095, -4565.299101507557, -3530.614498926938, -4862.6220062520515, -3617.853357536001, -10104.642522888485, -14082.806001044037, 0.018000000000000002, -0.1, 0.984, 192.0, 0.0, 0.0, 0.0, 0.0, 0.0, 0.0, 0.0, 0.0, 0.0, 1.645921029994326E9, 0.0, 2022-02-27 11:17:09.994
240.0, -2724.0741520016377, -5839.594404649068, -2377.845630388931, -11051.417714526382, -1239.4042300467765, -118.41954212421682, -5699.873650058943, -2098.9182113311545, -5350.314718522396, -7831.872443183952, -4487.693844758731, -3743.045478230176, -4642.479675111732, -3598.1391189264205, -10580.712328042071, -15479.141828911523, 0.018000000000000002, -0.1, 0.984, 192.0, 0.0, 0.0, 0.0, 0.0, 0.0, 0.0, 0.0, 0.0, 0.0, 1.645921030002653E9, 0.0, 2022-02-27 11:17:10.002
242.0, -2969.4292508875433, -6018.43071203598, -2447.9630527452296, -11121.088101993573, -1393.2736388771104, -186.54765922399275, -5572.021671774587, -1866.2812550403185, -2772.1751060694583, -7408.485699711526, -4865.952416175892, -3696.4420910408608, -5125.322058835275, -3883.168564220496, -10310.99382769988, -14584.870884999144, 0.018000000000000002, -0.1, 0.984, 192.0, 0.0, 0.0, 0.0, 0.0, 0.0, 0.0, 0.0, 0.0, 0.0, 1.645921030010435E9, 0.0, 2022-02-27 11:17:10.010
244.0, -2323.2850221735266, -5541.869168504378, -2009.4888817654708, -10662.206788326119, -795.8115095867527, 251.3006629110173, -5364.217503573597, -1695.8045000796915, -3705.3157335896176, -7134.587423156193, -4430.227509764136, -3605.76106378568, -4629.135683671914, -3476.903257000835, -10249.772399636793, -14579.6405767966, 0.016, -0.106, 0.988, 192.0, 0.0, 64.0, 126.0, 88.0, 15.0, 112.0, 0.0, 0.0, 0.0, 1.645921030016971E9, 0.0, 2022-02-27 11:17:10.016
246.0, -3201.9320967116473, -6214.99195277595, -2648.7264214427973, -11332.759121985331, -1604.4976239797622, -352.3976030823712, -5777.881238207965, -2136.3797350382492, -4831.016639592247, -8073.561855979187, -4827.418008734943, -3855.8994359850212, -4989.55756301374, -3886.7671950778004, -10617.883279071246, -15506.008625746803, 0.016, -0.106, 0.988, 192.0, 0.0, 0.0, 0.0, 0.0, 0.0, 0.0, 0.0, 0.0, 0.0, 1.645921030024E9, 0.0, 2022-02-27 11:17:10.024
248.0, -2514.683009944321, -5675.063213713553, -2105.4896242010145, -10755.122990026832, -953.4136597411227, 172.95779859516605, -5351.074677833877, -1624.3012695671644, -2284.415338565748, -6868.869885071503, -4613.3330003420115, -3571.7193569802475, -4876.614198281074, -3588.438461832817, -10096.595894884575, -14074.938186995769, 0.016, -0.106, 0.988, 192.0, 0.0, 0.0, 0.0, 0.0, 0.0, 0.0, 0.0, 0.0, 0.0, 1.645921030032099E9, 0.0, 2022-02-27 11:17:10.032
250.0, -2785.2061730869023, -5889.125870362029, -2383.053586847018, -11048.04260111363, -1240.812389947461, -98.4370825811723, -5695.157431978873, -2077.1699639761405, -5372.778221699979, -7825.971582647751, -4504.167080422292, -3763.8773040625224, -4643.4408001233105, -3592.6405897904147, -10564.104981911776, -15460.433418802431, 0.016, -0.106, 0.988, 192.0, 0.0, 0.0, 0.0, 0.0, 0.0, 0.0, 0.0, 0.0, 0.0, 1.645921030039288E9, 0.0, 2022-02-27 11:17:10.039
252.0, -2978.079375991747, -6002.382159517069, -2444.7444015436654, -11105.084252963574, -1391.3960923428647, -163.79358336849015, -5550.4522383752155, -1873.5455719882932, -2773.516210736777, -7388.74910935749, -4867.293520843211, -3691.9046869164335, -5123.82449195677, -3884.330854932172, -10294.073557147212, -14570.006974936365, 0.016, -0.106, 0.988, 192.0, 0.0, 0.0, 0.0, 0.0, 0.0, 0.0, 0.0, 0.0, 0.0, 1.645921030046559E9, 0.0, 2022-02-27 11:17:10.046
254.0, -2292.2608008695606, -5489.811955667968, -1997.933029882077, -10646.9628986076, -786.7814048268086, 258.34146241443904, -5375.214561845608, -1715.2281660113533, -3708.824957469101, -7101.104509962143, -4419.0963410253935, -3581.442365818306, -4622.273698124135, -3478.512582601617, -10245.950251334936, -14581.384012864115, 0.016, -0.11, 0.988, 192.0, 0.0, 64.0, 126.0, 72.0, 15.0, 112.0, 0.0, 0.0, 0.0, 1.645921030054688E9, 0.0, 2022-02-27 11:17:10.054
0.0, -3155.6192822002513, -6144.919233908562, -2639.4280957493897, -11322.678485235989, -1600.0272750887007, -363.6405305433906, -5784.00561618872, -2162.4865725620475, -4857.369346305054, -8041.710620130375, -4806.608534647052, -3828.6973629829126, -4967.965777869914, -3878.4076426515157, -10616.34100870383, -15520.850184065126, 0.016, -0.11, 0.988, 192.0, 0.0, 0.0, 0.0, 0.0, 0.0, 0.0, 0.0, 0.0, 0.0, 1.645921030062641E9, 0.0, 2022-02-27 11:17:10.062
2.0, -2445.303195155048, -5597.68147440928, -2092.6597228836686, -10750.786751602502, -950.3961742396563, 161.15607752276392, -5340.211730028597, -1629.375115558519, -2250.6642044382343, -6802.664017994884, -4586.868534906928, -3540.4939699761835, -4865.997119664803, -3608.376217886951, -10087.386976168988, -14076.614567829916, 0.016, -0.11, 0.988, 192.0, 0.0, 0.0, 0.0, 0.0, 0.0, 0.0, 0.0, 0.0, 0.0, 1.645921030069279E9, 0.0, 2022-02-27 11:17:10.069
4.0, -2691.127680674515, -5812.146462457951, -2361.1265255363614, -11041.314726032582, -1217.6112792028523, -97.7888819919684, -5665.943701975787, -2076.901743042677, -5333.014468313989, -7803.172803303338, -4474.416908552278, -3732.1601786804413, -4619.703247511774, -3582.247028618697, -10551.744467227993, -15451.49272102031, 0.016, -0.11, 0.988, 192.0, 0.0, 0.0, 0.0, 0.0, 0.0, 0.0, 0.0, 0.0, 0.0, 1.645921030077622E9, 0.0, 2022-02-27 11:17:10.077
6.0, -2894.1709273065244, -5947.978013512852, -2438.5529683295454, -11120.149328726451, -1386.3669498404206, -177.83047888642298, -5555.682546577757, -1869.9692928754441, -2762.2956350202126, -7391.721891370045, -4844.852369410082, -3688.149593847942, -5107.239497570932, -3876.9324275174654, -10290.117298378624, -14580.624053552636, 0.016, -0.11, 0.988, 192.0, 0.0, 0.0, 0.0, 0.0, 0.0, 0.0, 0.0, 0.0, 0.0, 1.645921030085352E9, 0.0, 2022-02-27 11:17:10.085
8.0, -2202.0938637368517, -5417.772283288513, -1982.778547141379, -10648.415761997196, -787.7648815828421, 256.083936224453, -5377.360329313317, -1708.7014566304038, -3617.4286743913503, -7076.606998039127, -4385.099337708872, -3577.441403560806, -4610.874308451928, -3461.212332393209, -10239.580004165175, -14560.954518431965, 0.014, -0.11, 0.99, 192.0, 0.0, 56.0, 126.0, 72.0, 15.0, 120.0, 0.0, 0.0, 0.0, 1.645921030098863E9, 0.0, 2022-02-27 11:17:10.098
10.0, -3072.6719585266064, -6087.765823336342, -2631.783799145675, -11322.05263639124, -1597.0321413316897, -368.49085909019226, -5776.584837029557, -2168.543895309436, -4849.546235745697, -8038.223747995347, -4773.505601108743, -3817.23091807734, -4945.3905159700535, -3867.7011570574236, -10622.28657272894, -15532.942477815448, 0.014, -0.11, 0.99, 192.0, 0.0, 0.0, 0.0, 0.0, 0.0, 0.0, 0.0, 0.0, 0.0, 1.645921030106908E9, 0.0, 2022-02-27 11:17:10.106
12.0, -2400.2197265886934, -5564.869113548889, -2098.2923624864056, -10761.068554051943, -971.2280000720025, 139.81016156794567, -5343.63154693026, -1640.1933598748876, -2196.1930032006508, -6825.239279894743, -4584.856877905951, -3526.1665017803316, -4870.690986000417, -3606.2975056526075, -10096.99822628477, -14084.124753966898, 0.014, -0.11, 0.99, 192.0, 0.0, 0.0, 0.0, 0.0, 0.0, 0.0, 0.0, 0.0, 0.0, 1.64592103011503E9, 0.0, 2022-02-27 11:17:10.115
14.0, -2610.4378831908566, -5739.883272633943, -2342.239301471627, -11034.542147462626, -1220.7405234265952, -96.55953604692651, -5684.942684762798, -2083.674321612635, -5283.0806712008325, -7771.545084899079, -4465.096231114416, -3726.013448955232, -4619.189157389303, -3569.1936098567976, -10549.017554404445, -15443.15552033848, 0.014, -0.11, 0.99, 192.0, 0.0, 0.0, 0.0, 0.0, 0.0, 0.0, 0.0, 0.0, 0.0, 1.645921030122004E9, 0.0, 2022-02-27 11:17:10.122
16.0, -2832.793037032251, -5895.362007065059, -2432.0262589485956, -11114.874317034999, -1411.9820489862025, -190.92860113723293, -5582.169363757296, -1889.907048929578, -2743.6766318889418, -7365.816219546345, -4818.678476652918, -3670.1117360725093, -5107.731235948949, -3887.147174733541, -10308.021045687325, -14606.395614909605, 0.014, -0.11, 0.99, 192.0, 0.0, 0.0, 0.0, 0.0, 0.0, 0.0, 0.0, 0.0, 0.0, 1.645921030129604E9, 0.0, 2022-02-27 11:17:10.129
18.0, -2122.0746185868525, -5356.953186625622, -1966.193552755541, -10639.810340381902, -783.1380704805936, 243.90223549631068, -5372.822925188891, -1716.8374916121354, -3551.51337999265, -7047.817951180691, -4353.493971049067, -3545.1431328228873, -4614.361180586956, -3462.3969748493405, -10236.853091341627, -14554.941899173487, 0.01, -0.108, 0.988, 192.0, 0.0, 40.0, 126.0, 80.0, 15.0, 112.0, 0.0, 0.0, 0.0, 1.645921030137635E9, 0.0, 2022-02-27 11:17:10.137
20.0, -3000.6769896360624, -6030.2547848528375, -2617.1210547829933, -11324.041941647762, -1607.6268682035052, -381.0525394740748, -5788.408909846415, -2176.836392502355, -4838.973860618336, -8017.771901818741, -4730.634955243463, -3799.6400951910136, -4942.730658379872, -3869.8245727806775, -10622.28657272894, -15547.605222178128, 0.01, -0.108, 0.988, 192.0, 0.0, 0.0, 0.0, 0.0, 0.0, 0.0, 0.0, 0.0, 0.0, 1.645921030144725E9, 0.0, 2022-02-27 11:17:10.144
22.0, -2333.6115281118787, -5501.054883128987, -2092.570315905847, -10761.672051152236, -985.3543025677566, 116.02790546749897, -5350.627642944771, -1651.5927495470942, -2155.4904765475367, -6818.690218769339, -4554.905540335839, -3507.771016093614, -4877.932951203937, -3632.2255292207637, -10094.695996605873, -14088.192771457765, 0.01, -0.108, 0.988, 192.0, 0.0, 0.0, 0.0, 0.0, 0.0, 0.0, 0.0, 0.0, 0.0, 1.645921030151217E9, 0.0, 2022-02-27 11:17:10.151
24.0, -2525.098922860494, -5664.088507185997, -2315.1489871917947, -11004.635513381423, -1200.2886772499892, -92.44681506715001, -5678.617141081946, -2064.921208014632, -5222.909775127146, -7720.471348818702, -4423.745503872097, -3687.2555240697297, -4609.667314251342, -3575.7203192377474, -10546.402400303174, -15427.576354453131, 0.01, -0.108, 0.988, 192.0, 0.0, 0.0, 0.0, 0.0, 0.0, 0.0, 0.0, 0.0, 0.0, 1.645921030159316E9, 0.0, 2022-02-27 11:17:10.159
26.0, -2799.7795104717625, -5855.687660656889, -2434.239081649671, -11126.698389851856, -1427.6282701049174, -217.63893576132486, -5588.293741738051, -1906.290877615318, -2795.7114929808968, -7381.8424203208, -4806.005037546759, -3642.283814225652, -5102.679741702049, -3882.0956804866414, -10320.158042926556, -14642.51603394938, 0.01, -0.108, 0.988, 192.0, 0.0, 0.0, 0.0, 0.0, 0.0, 0.0, 0.0, 0.0, 0.0, 1.645921030167294E9, 0.0, 2022-02-27 11:17:10.167
28.0, -2077.5275918874254, -5315.915383805679, -1954.8612183167004, -10634.490625201539, -789.8212420727303, 240.25890115009562, -5346.291404520441, -1703.33703796113, -3469.124849930388, -7011.67518039646, -4341.804008698941, -3517.0022865536557, -4612.930668941816, -3458.9101027143124, -10222.570326634685, -14521.324875512706, 0.012, -0.108, 0.988, 192.0, 0.0, 48.0, 126.0, 80.0, 15.0, 112.0, 0.0, 0.0, 0.0, 1.645921030174527E9, 0.0, 2022-02-27 11:17:10.174
30.0, -2953.470105346454, -5986.355958742614, -2604.3805604434683, -11317.224659588894, -1615.7629031852368, -392.6307431019239, -5779.155287641917, -2180.3679681262934, -4849.05449736768, -8004.182041189914, -4710.764254422696, -3775.74608036829, -4939.802579856227, -3862.2249796658734, -10620.230212239054, -15550.756818146327, 0.012, -0.108, 0.988, 192.0, 0.0, 0.0, 0.0, 0.0, 0.0, 0.0, 0.0, 0.0, 0.0, 1.645921030181899E9, 0.0, 2022-02-27 11:17:10.181
32.0, -2290.1373851463063, -5461.55935067646, -2081.3497401892832, -10757.022888305532, -992.886840449195, 116.54199558997102, -5361.647052961237, -1662.6345113080158, -2126.9025953891987, -6797.523116770162, -4538.499359905643, -3488.704978073237, -4880.369291349565, -3624.8718052949675, -10092.930208793905, -14087.946902268757, 0.012, -0.108, 0.988, 192.0, 0.0, 0.0, 0.0, 0.0, 0.0, 0.0, 0.0, 0.0, 0.0, 1.645921030189946E9, 0.0, 2022-02-27 11:17:10.189
34.0, -2476.6850443702992, -5609.796119904056, -2311.304487145482, -10994.93485628782, -1207.485938964598, -96.91716395821142, -5680.36057714946, -2080.8803535557217, -5184.867106064214, -7687.994264125141, -4399.806785560463, -3649.3916689624393, -4605.644000249386, -3561.146981852887, -10541.663830478648, -15420.870831116537, 0.012, -0.108, 0.988, 192.0, 0.0, 0.0, 0.0, 0.0, 0.0, 0.0, 0.0, 0.0, 0.0, 1.645921030197835E9, 0.0, 2022-02-27 11:17:10.197
36.0, -2743.2966522332017, -5800.970590230298, -2424.2031483892383, -11107.05120647564, -1427.8517875494704, -205.9936769001099, -5588.696073138246, -1913.4657875854716, -2748.2363877578246, -7338.815312244334, -4782.982740757792, -3607.146871941909, -5113.453282529507, -3871.165677447996, -10319.219269659432, -14634.871737345666, 0.012, -0.108, 0.988, 192.0, 0.0, 0.0, 0.0, 0.0, 0.0, 0.0, 0.0, 0.0, 0.0, 1.64592103020474E9, 0.0, 2022-02-27 11:17:10.204
38.0, -2025.291565095373, -5258.873731955735, -1946.5463693793263, -10619.850232583312, -794.4480531749789, 242.31526163998387, -5392.559515542926, -1719.0279625687556, -3457.8372189804577, -6987.423537662451, -4325.33077303538, -3486.7603763056254, -4618.608012033465, -3450.215274121198, -10236.87544308608, -14535.182957074996, 0.014, -0.108, 0.988, 192.0, 0.0, 56.0, 126.0, 80.0, 15.0, 112.0, 0.0, 0.0, 0.0, 1.645921030219461E9, 0.0, 2022-02-27 11:17:10.219
40.0, -2911.3594187926556, -5924.531033579235, -2595.328103939069, -11306.76404318381, -1620.5238247542175, -383.17595519732896, -5793.818032004599, -2198.9199160241983, -4830.591956447596, -7967.234607605292, -4690.088890801536, -3756.970615025832, -4940.495483934341, -3826.1269123705524, -10633.954183334612, -15557.864672883115, 0.014, -0.108, 0.988, 192.0, 0.0, 0.0, 0.0, 0.0, 0.0, 0.0, 0.0, 0.0, 0.0, 1.645921030227488E9, 0.0, 2022-02-27 11:17:10.227
42.0, -2256.408602763248, -5426.623574092815, -2075.8065075643667, -10737.88979505179, -992.3951020711783, 117.79369327946821, -5370.386585043262, -1671.5528573456834, -2093.4196821951487, -6762.788505886616, -4519.299211418535, -3455.087954412455, -4879.318759360166, -3624.2012529613085, -10096.014749528737, -14081.107268465432, 0.014, -0.108, 0.988, 192.0, 0.0, 0.0, 0.0, 0.0, 0.0, 0.0, 0.0, 0.0, 0.0, 1.645921030234223E9, 0.0, 2022-02-27 11:17:10.234
44.0, -2431.9592037152297, -5571.284064207562, -2285.5329257885132, -10970.616158320447, -1197.42765395971, -89.38462607677295, -5680.762908549656, -2085.998903035987, -5150.579530069773, -7663.876731857865, -4376.851544004863, -3625.1847297173417, -4605.24166884919, -3550.8875311479014, -10541.015629889445, -15406.3869007095, 0.014, -0.108, 0.988, 192.0, 0.0, 0.0, 0.0, 0.0, 0.0, 0.0, 0.0, 0.0, 0.0, 1.645921030242264E9, 0.0, 2022-02-27 11:17:10.242
46.0, -2711.4007128954786, -5774.5061247952135, -2417.207052374727, -11103.363168640515, -1432.4115434183532, -223.40568583079408, -5610.9137071268215, -1945.361726923195, -2760.731012908341, -7342.59275705728, -4760.496885835753, -3599.8154997605684, -5105.786634181337, -3874.652549583024, -10319.778063270816, -14657.782275412355, 0.015, -0.108, 0.987, 192.0, 0.0, 64.0, 126.0, 80.0, 15.0, 104.0, 0.0, 0.0, 0.0, 1.645921030250097E9, 0.0, 2022-02-27 11:17:10.250
48.0, -1993.4403292465604, -5239.092438112788, -1939.4832181314491, -10606.595648121316, -794.5151084083449, 242.7175930401794, -5390.212582375119, -1716.5245671897612, -3379.0473197755005, -6946.18456914241, -4299.201583767126, -3455.020899179089, -4610.404921818366, -3445.320242085486, -10220.40220742252, -14516.183974287984, 0.015, -0.108, 0.987, 192.0, 0.0, 0.0, 0.0, 0.0, 0.0, 0.0, 0.0, 0.0, 0.0, 1.645921030256686E9, 0.0, 2022-02-27 11:17:10.256
50.0, -2885.4537469689544, -5918.205489898382, -2591.260086448203, -11305.311179794215, -1600.474309977807, -391.11082447896297, -5784.698520266834, -2215.281392965483, -4870.266302855766, -7973.113116397038, -4674.420317938366, -3731.981364724799, -4935.443989687442, -3843.874197468066, -10624.298229729919, -15573.756763190839, 0.015, -0.108, 0.987, 192.0, 0.0, 0.0, 0.0, 0.0, 0.0, 0.0, 0.0, 0.0, 0.0, 1.645921030264847E9, 0.0, 2022-02-27 11:17:10.264
52.0, -2256.2074370631503, -5427.897623526767, -2076.8570395537663, -10765.203626776174, -1000.3746748417229, 84.89192544125622, -5378.075585135888, -1693.5916773786162, -2065.189428948096, -6777.585360716029, -4522.60726959792, -3466.509695829117, -4893.802689767205, -3627.933994285345, -10088.482211647299, -14103.146088498366, 0.015, -0.108, 0.987, 192.0, 0.0, 0.0, 0.0, 0.0, 0.0, 0.0, 0.0, 0.0, 0.0, 1.645921030271794E9, 0.0, 2022-02-27 11:17:10.271
54.0, -2412.021447661096, -5564.95852052671, -2270.2890360699935, -10967.553969330069, -1180.909714807238, -82.45558529562776, -5645.938890688288, -2060.4732108680264, -5106.68070395955, -7648.565786905979, -4371.710642780143, -3636.986450789744, -4608.303857839568, -3560.699946963781, -10521.770777913425, -15386.270330699723, 0.015, -0.108, 0.987, 192.0, 0.0, 0.0, 0.0, 0.0, 0.0, 0.0, 0.0, 0.0, 0.0, 1.645921030279952E9, 0.0, 2022-02-27 11:17:10.279
56.0, -2731.807855583174, -5785.6596452784115, -2430.975726959196, -11124.351456684048, -1439.161770243856, -230.49118882312644, -5606.130433813386, -1924.9769359799548, -2832.0107259763154, -7380.546019142392, -4782.155726212946, -3618.4568546362943, -5121.254041344409, -3889.6952736014455, -10325.500109851375, -14682.10097337973, 0.0155, -0.109, 0.9884999999999999, 192.0, 0.0, 64.0, 126.0, 72.0, 15.0, 120.0, 0.0, 0.0, 0.0, 1.645921030286436E9, 0.0, 2022-02-27 11:17:10.286
58.0, -2001.7775299283899, -5243.786304448403, -1941.2490059434183, -10615.044607525422, -788.4354339165013, 248.32788089846147, -5367.257340819519, -1715.8316631116468, -3345.2067786701655, -6937.355630082564, -4321.955659622629, -3469.057794697022, -4628.129855171425, -3457.0996114134327, -10213.629628852563, -14485.96441578441, 0.0155, -0.109, 0.9884999999999999, 192.0, 0.0, 0.0, 0.0, 0.0, 0.0, 0.0, 0.0, 0.0, 0.0, 1.645921030295226E9, 0.0, 2022-02-27 11:17:10.295
60.0, -2889.8793923711055, -5922.6981905339, -2593.2270399602703, -11306.875801906086, -1606.5539844696505, -390.2838099341166, -5790.934656969865, -2192.639075832257, -4868.276997599244, -7975.392994331479, -4683.092794787025, -3731.8025507691564, -4937.656812388517, -3860.0568604537084, -10628.120378031777, -15566.64890845405, 0.0155, -0.109, 0.9884999999999999, 192.0, 0.0, 0.0, 0.0, 0.0, 0.0, 0.0, 0.0, 0.0, 0.0, 1.645921030302437E9, 0.0, 2022-02-27 11:17:10.302
62.0, -2266.600998234868, -5438.581757376404, -2084.7919088354, -10770.925673356733, -1009.1589104126585, 99.80053899294603, -5386.2116201176195, -1661.1369444295103, -2065.323539414828, -6782.167468329367, -4538.834636072474, -3459.7818207480695, -4905.40324513951, -3654.689032398347, -10097.288798962689, -14083.633015588883, 0.0155, -0.109, 0.9884999999999999, 192.0, 0.0, 0.0, 0.0, 0.0, 0.0, 0.0, 0.0, 0.0, 0.0, 1.645921030309701E9, 0.0, 2022-02-27 11:17:10.309
64.0, -2409.9427354267523, -5564.2432647041405, -2262.7788499330104, -10969.520922842137, -1174.0477292594587, -71.07854736787645, -5649.626928523413, -2064.4071178921604, -5096.041273598823, -7649.817484595476, -4373.588189314388, -3628.7386570857357, -4604.593468259986, -3558.375365540429, -10525.436464004097, -15379.922435274415, 0.0155, -0.109, 0.9884999999999999, 192.0, 0.0, 0.0, 0.0, 0.0, 0.0, 0.0, 0.0, 0.0, 0.0, 1.645921030317325E9, 0.0, 2022-02-27 11:17:10.317
66.0, -2759.099335563104, -5813.91225026992, -2433.367363615914, -11134.186224244384, -1446.1802180028224, -233.5980813024141, -5575.262674720607, -1935.5046076184044, -2845.2429586938574, -7399.656760651679, -4789.665912349929, -3619.4179796478725, -5123.913898934591, -3905.2073842534287, -10330.171624442533, -14694.886171208165, 0.01475, -0.1075, 0.99025, 192.0, 0.0, 56.0, 126.0, 88.0, 15.5, 0.0, 0.0, 0.0, 0.0, 1.645921030325078E9, 0.0, 2022-02-27 11:17:10.325
68.0, -2025.4927307954706, -5255.744487731992, -1931.7271628054575, -10615.603401136805, -776.0302157438059, 256.75448855811226, -5360.127134338276, -1723.3865527375403, -3333.159188408755, -6971.911427010468, -4343.301575577447, -3485.352216404941, -4636.578814575531, -3479.317245402008, -10206.566477604685, -14481.382308171073, 0.01475, -0.1075, 0.99025, 192.0, 0.0, 0.0, 0.0, 0.0, 0.0, 0.0, 0.0, 0.0, 0.0, 1.645921030334453E9, 0.0, 2022-02-27 11:17:10.334
70.0, -2900.2282500539127, -5931.862405760576, -2585.0463014896277, -11303.23246755987, -1589.1419755389663, -371.44128935829275, -5792.678093037378, -2190.917991509198, -4945.435219458964, -8009.166480203448, -4687.5854954225415, -3751.2262167008184, -4920.5577278802075, -3853.0831161836527, -10630.087331543844, -15592.711042488938, 0.01475, -0.1075, 0.99025, 192.0, 0.0, 0.0, 0.0, 0.0, 0.0, 0.0, 0.0, 0.0, 0.0, 1.645921030346921E9, 0.0, 2022-02-27 11:17:10.346
72.0, -2288.1927833786945, -5452.059859282954, -2090.2010309935845, -10773.205551291174, -1007.5719365563318, 118.48659735758274, -5378.947303169644, -1662.2321799078204, -2075.873562797733, -6811.3588465879975, -4559.509999693632, -3474.578675577483, -4912.533451620752, -3648.542302673138, -10096.730005351306, -14093.132506982389, 0.01475, -0.1075, 0.99025, 192.0, 0.0, 0.0, 0.0, 0.0, 0.0, 0.0, 0.0, 0.0, 0.0, 1.645921030354704E9, 0.0, 2022-02-27 11:17:10.354
74.0, -2415.7094854962215, -5565.316148437995, -2259.0908120978847, -10964.64824255088, -1151.8971505042496, -51.29725352492971, -5618.379189774894, -2052.2701206529287, -5078.226933267943, -7637.144045489317, -4377.611503316343, -3628.1351599854424, -4597.038578634093, -3551.8486561594796, -10508.717359151526, -15361.728115287795, 0.01475, -0.1075, 0.99025, 192.0, 0.0, 0.0, 0.0, 0.0, 0.0, 0.0, 0.0, 0.0, 0.0, 1.645921030362756E9, 0.0, 2022-02-27 11:17:10.362
76.0, -2762.2062280423916, -5812.235869435772, -2436.049572950551, -11130.900517809454, -1437.0383545206016, -214.62145025985842, -5574.793288087045, -1915.4997963309047, -2862.6549676245413, -7408.038664822419, -4799.165403743435, -3624.983564017244, -5119.600012254717, -3906.39202670956, -10328.56229884175, -14694.550895041335, 0.014374999999999999, -0.10575000000000001, 0.9881249999999999, 192.0, 0.0, 56.0, 126.0, 96.0, 15.0, 104.0, 0.0, 0.0, 0.0, 1.645921030370056E9, 0.0, 2022-02-27 11:17:10.370
78.0, -2032.7123442545349, -5268.70849951607, -1940.8019710543122, -10613.971723791567, -771.1351837080937, 266.1869247182518, -5359.143657582243, -1696.117424502066, -3333.606223297861, -6964.334185640119, -4348.665994246721, -3482.4911931146617, -4638.3446023875, -3479.5854663354717, -10208.421672394476, -14472.374555155582, 0.014374999999999999, -0.10575000000000001, 0.9881249999999999, 192.0, 0.0, 0.0, 0.0, 0.0, 0.0, 0.0, 0.0, 0.0, 0.0, 1.645921030377312E9, 0.0, 2022-02-27 11:17:10.377
80.0, -2915.4274362835213, -5946.525150123257, -2595.261048705703, -11303.008950115318, -1588.6502371609495, -367.35092012297156, -5787.514840068203, -2199.43400614667, -4956.991071342358, -8011.178137204425, -4697.219097282779, -3754.0872399910977, -4925.45275991592, -3856.7935057632335, -10637.999849081023, -15590.811144210238, 0.014374999999999999, -0.10575000000000001, 0.9881249999999999, 192.0, 0.0, 0.0, 0.0, 0.0, 0.0, 0.0, 0.0, 0.0, 0.0, 1.645921030385325E9, 0.0, 2022-02-27 11:17:10.385
82.0, -2299.6145247953564, -5458.720679130635, -2106.540156190414, -10768.869312866846, -1010.1870906576027, 112.22810891009676, -5357.44492500364, -1673.0951277130996, -2082.579086134325, -6813.616372777984, -4565.209694529735, -3469.8177540085026, -4910.253573686311, -3658.0417940666434, -10095.90299080646, -14083.342442910964, 0.014374999999999999, -0.10575000000000001, 0.9881249999999999, 192.0, 0.0, 0.0, 0.0, 0.0, 0.0, 0.0, 0.0, 0.0, 0.0, 1.645921030391976E9, 0.0, 2022-02-27 11:17:10.391
84.0, -2417.3411628414588, -5561.33753792495, -2270.40079479227, -10951.840692977989, -1143.8952259892496, -33.90759633870081, -5627.319887557017, -2030.0524866643534, -5101.048064356812, -7649.1022287729065, -4391.737805812098, -3629.0068780191996, -4614.227070120224, -3537.476484474717, -10515.579344699305, -15355.491978584765, 0.014374999999999999, -0.10575000000000001, 0.9881249999999999, 192.0, 0.0, 0.0, 0.0, 0.0, 0.0, 0.0, 0.0, 0.0, 0.0, 1.645921030399139E9, 0.0, 2022-02-27 11:17:10.399
86.0, -2774.5220392372657, -5824.5740323751015, -2457.619006349922, -11133.739189355278, -1439.8099708330597, -227.67486902175773, -5595.0663203080085, -1936.6221948411699, -2918.3331630627113, -7433.273784312461, -4810.207165504356, -3628.6492501079147, -5132.072285660778, -3902.5922301521578, -10343.001525759879, -14713.236953405973, 0.014187499999999999, -0.10487500000000001, 0.9890625, 192.0, 0.0, 56.0, 126.0, 96.0, 15.0, 120.0, 0.0, 0.0, 0.0, 1.645921030407022E9, 0.0, 2022-02-27 11:17:10.407
88.0, -2032.8464547212668, -5265.75806924797, -1955.3082532058065, -10609.881354556246, -767.8047737842529, 261.9847967606541, -5344.793837641935, -1685.9697325193565, -3314.8978131887693, -6967.843409519603, -4353.1810466266925, -3480.8818675138796, -4650.526303115643, -3474.153992432832, -10207.348788660622, -14463.322098651184, 0.014187499999999999, -0.10487500000000001, 0.9890625, 192.0, 0.0, 0.0, 0.0, 0.0, 0.0, 0.0, 0.0, 0.0, 0.0, 1.645921030414905E9, 0.0, 2022-02-27 11:17:10.414
90.0, -2908.856023413661, -5938.187949441427, -2607.5321564116666, -11298.471545990891, -1583.084652791578, -363.23819914319506, -5784.184430144362, -2198.986971257564, -5002.767443986827, -8019.761207075264, -4695.542716448631, -3747.426420143416, -4927.196195983433, -3857.486409841348, -10635.854081613312, -15598.500144302863, 0.014187499999999999, -0.10487500000000001, 0.9890625, 192.0, 0.0, 0.0, 0.0, 0.0, 0.0, 0.0, 0.0, 0.0, 0.0, 1.645921030421602E9, 0.0, 2022-02-27 11:17:10.421
92.0, -2313.9419929912083, -5467.795487379491, -2121.247604042006, -10784.090850840908, -1010.1870906576027, 102.46039658312758, -5376.332149068374, -1680.918238272457, -2087.362359447761, -6828.860262496503, -4576.47497373521, -3477.9537889902344, -4925.944498293937, -3658.0641458110986, -10095.835935573094, -14093.892466293868, 0.014187499999999999, -0.10487500000000001, 0.9890625, 192.0, 0.0, 0.0, 0.0, 0.0, 0.0, 0.0, 0.0, 0.0, 0.0, 1.645921030429662E9, 0.0, 2022-02-27 11:17:10.429
94.0, -2393.0001131296294, -5534.560148067492, -2255.8498091518654, -10939.703695738757, -1117.2295948540682, -26.151541012709263, -5624.950602644754, -2043.8211612488226, -5068.638034896617, -7634.998278021608, -4384.205267930659, -3625.341191928529, -4606.158090371859, -3553.9720718827334, -10506.526888194907, -15342.12563540049, 0.014187499999999999, -0.10487500000000001, 0.9890625, 192.0, 0.0, 0.0, 0.0, 0.0, 0.0, 0.0, 0.0, 0.0, 0.0, 1.645921030437503E9, 0.0, 2022-02-27 11:17:10.437
96.0, -2795.6220860030758, -5833.134750501484, -2477.132079259405, -11159.533102456702, -1451.5893401610065, -231.98875570163202, -5595.401596474838, -1942.7018693330133, -2995.826661089261, -7466.779049250967, -4808.821357348127, -3639.534549657649, -5136.810855485303, -3910.3482854781496, -10353.328031698231, -14755.280584726404, 0.01509375, -0.10443750000000002, 0.98953125, 192.0, 0.0, 64.0, 126.0, 96.0, 15.0, 120.0, 0.0, 0.0, 0.0, 1.645921030445092E9, 0.0, 2022-02-27 11:17:10.445
98.0, -2035.0592774223421, -5269.267293127453, -1959.488029418949, -10618.710293616092, -763.9155702490294, 262.23066594966247, -5329.52759617896, -1673.0504242241889, -3250.681251368672, -6952.1748366564325, -4362.233503131092, -3478.4008238793404, -4665.613730622975, -3485.9780652496893, -10188.975654718359, -14429.883888946044, 0.01509375, -0.10443750000000002, 0.98953125, 192.0, 0.0, 0.0, 0.0, 0.0, 0.0, 0.0, 0.0, 0.0, 0.0, 1.645921030452389E9, 0.0, 2022-02-27 11:17:10.452
100.0, -2912.208785081957, -5938.120894208061, -2612.561298914111, -11308.127499595583, -1577.3179027221088, -359.5501613080694, -5767.934711925353, -2193.7790147994774, -5007.684827766994, -8033.060495026171, -4694.089853059037, -3750.376850411517, -4929.051390773224, -3842.3989823340157, -10627.807453609403, -15595.192086123478, 0.01509375, -0.10443750000000002, 0.98953125, 192.0, 0.0, 0.0, 0.0, 0.0, 0.0, 0.0, 0.0, 0.0, 0.0, 1.645921030467308E9, 0.0, 2022-02-27 11:17:10.467
102.0, -2320.8710337723537, -5467.840190868401, -2126.2543947999948, -10790.058766610477, -1004.822671988329, 99.6887802706695, -5356.304986036419, -1665.1379066870102, -2078.1087372432635, -6837.555091089617, -4579.470107492221, -3474.3328063884746, -4928.649059373029, -3656.0301370656657, -10084.458897645343, -14085.376451656397, 0.01509375, -0.10443750000000002, 0.98953125, 192.0, 0.0, 0.0, 0.0, 0.0, 0.0, 0.0, 0.0, 0.0, 0.0, 1.645921030474317E9, 0.0, 2022-02-27 11:17:10.474
104.0, -2399.4374155327578, -5543.299680149517, -2266.0645563679404, -10945.135169641397, -1115.7096762311073, -26.844445090823783, -5607.203317547241, -2019.7930359593674, -5057.596273135695, -7637.9487082897085, -4385.524020853522, -3624.469473894772, -4605.398131060378, -3548.3617840244515, -10495.529829922894, -15332.715550984807, 0.01509375, -0.10443750000000002, 0.98953125, 192.0, 0.0, 0.0, 0.0, 0.0, 0.0, 0.0, 0.0, 0.0, 0.0, 1.645921030481935E9, 0.0, 2022-02-27 11:17:10.481
106.0, -2783.6639027194865, -5823.545852130157, -2470.7394803451875, -11152.335840742093, -1439.675860366328, -228.74775275561248, -5591.2441720061515, -1931.391886638628, -2968.4234223870544, -7464.298005616428, -4810.944773071382, -3636.9417473008334, -5128.563061781295, -3901.876974329588, -10342.263918192855, -14744.261174709938, 0.013546875, -0.10421875000000001, 0.986765625, 192.0, 0.0, 48.0, 126.0, 96.0, 15.0, 96.0, 0.0, 0.0, 0.0, 1.64592103048987E9, 0.0, 2022-02-27 11:17:10.489
108.0, -2028.4431610635713, -5252.682298741615, -1953.9000933051223, -10617.726816860059, -760.0487184582613, 273.51829689959254, -5312.1379389927315, -1657.5159618277505, -3251.128286257778, -6953.739458768304, -4356.600863528355, -3483.2064489372315, -4653.92376827285, -3475.182172677776, -10180.437288336432, -14433.840147714633, 0.013546875, -0.10421875000000001, 0.986765625, 192.0, 0.0, 0.0, 0.0, 0.0, 0.0, 0.0, 0.0, 0.0, 0.0, 1.645921030496996E9, 0.0, 2022-02-27 11:17:10.496
110.0, -2894.7520726623625, -5918.205489898382, -2603.75471159872, -11295.789336656253, -1574.859210832025, -358.9019607188655, -5789.593552302546, -2196.6847415786674, -5039.446656637986, -8027.919593801451, -4684.366844220977, -3755.629510358514, -4915.416826655487, -3827.624479249058, -10626.466348942084, -15607.239676384888, 0.013546875, -0.10421875000000001, 0.986765625, 192.0, 0.0, 0.0, 0.0, 0.0, 0.0, 0.0, 0.0, 0.0, 0.0, 1.645921030504526E9, 0.0, 2022-02-27 11:17:10.504
112.0, -2325.5425483635127, -5472.198781037186, -2135.0609821153857, -10790.885781155323, -1027.8449687772952, 100.00170469304379, -5359.925968638178, -1652.1962466473874, -2068.810411549856, -6834.559957332606, -4581.794688915574, -3472.388204620863, -4933.030001286269, -3650.0398695516433, -10091.14206923748, -14092.59606511546, 0.013546875, -0.10421875000000001, 0.986765625, 192.0, 0.0, 0.0, 0.0, 0.0, 0.0, 0.0, 0.0, 0.0, 0.0, 1.645921030512465E9, 0.0, 2022-02-27 11:17:10.512
114.0, -2379.3431972674366, -5531.609717799392, -2252.0276608500076, -10929.086617122486, -1108.2441935830348, -11.600555372304365, -5609.594954203958, -2000.257611305429, -5032.808188534759, -7615.440501623214, -4382.394776629779, -3618.9038895254007, -4597.060930378549, -3530.8827198604013, -10486.566780396317, -15309.290922795646, 0.013546875, -0.10421875000000001, 0.986765625, 192.0, 0.0, 0.0, 0.0, 0.0, 0.0, 0.0, 0.0, 0.0, 0.0, 1.645921030519569E9, 0.0, 2022-02-27 11:17:10.519
116.0, -2779.640588717531, -5815.990962504264, -2468.1243262439166, -11153.453427964858, -1448.3930407038977, -224.0091829310874, -5586.840878348456, -1908.7048660164912, -2998.084187279247, -7472.612854553802, -4811.168290515935, -3635.399476933417, -5122.0140006558895, -3898.323046961194, -10344.56614787175, -14756.77815160491, 0.01, -0.106, 0.988, 192.0, 0.0, 40.0, 126.0, 88.0, 15.0, 112.0, 0.0, 0.0, 0.0, 1.645921030526771E9, 0.0, 2022-02-27 11:17:10.526
118.0, -2021.6705824936132, -5238.488941012495, -1946.7028315905134, -10607.355607432795, -760.8310295141971, 277.65336962382435, -5322.486796675539, -1636.8405982065915, -3228.396562146731, -6934.4499033033735, -4351.19174137017, -3473.25992265462, -4645.698326313296, -3465.794440006547, -10173.329433599643, -14421.18906035293, 0.01, -0.106, 0.988, 192.0, 0.0, 0.0, 0.0, 0.0, 0.0, 0.0, 0.0, 0.0, 0.0, 1.645921030534214E9, 0.0, 2022-02-27 11:17:10.534
120.0, -2890.1029098156587, -5908.817757227154, -2598.2785342071693, -11293.442403488447, -1569.9641787963128, -340.6852889877903, -5756.669432719878, -2168.47684007607, -5042.374735161631, -8016.251983195781, -4680.254123241201, -3751.561492867648, -4899.122404947568, -3822.1930053464184, -10618.598534893816, -15599.483621058896, 0.01, -0.106, 0.988, 192.0, 0.0, 0.0, 0.0, 0.0, 0.0, 0.0, 0.0, 0.0, 0.0, 1.645921030542138E9, 0.0, 2022-02-27 11:17:10.542
122.0, -2312.9361644907194, -5458.631272152815, -2125.025048854953, -10788.069461353954, -1019.82069251784, 116.89962350125593, -5332.500378191517, -1647.0553454226667, -2052.1136584417413, -6833.777646276671, -4578.4642789917325, -3477.3055884010305, -4914.165128965989, -3644.273119482174, -10071.807810283639, -14079.922626009302, 0.01, -0.106, 0.988, 192.0, 0.0, 0.0, 0.0, 0.0, 0.0, 0.0, 0.0, 0.0, 0.0, 1.64592103055007E9, 0.0, 2022-02-27 11:17:10.550
124.0, -2373.956426853708, -5530.358020109895, -2245.322137513416, -10923.610439730935, -1105.3384668038448, -0.9387732671228967, -5592.741738884657, -1978.5093639504153, -5013.56333655874, -7604.354036373382, -4375.689253293187, -3625.408247161895, -4581.2805987931015, -3521.383228466896, -10470.853504044237, -15297.824477890073, 0.01, -0.106, 0.988, 192.0, 0.0, 0.0, 0.0, 0.0, 0.0, 0.0, 0.0, 0.0, 0.0, 1.645921030556719E9, 0.0, 2022-02-27 11:17:10.556
126.0, -2791.9787516568604, -5830.832520822588, -2475.142774002883, -11155.889768110486, -1454.0480320510903, -224.29975560900638, -5583.242247491151, -1913.9128224745778, -3025.1297980701684, -7486.1580116937175, -4812.934078327904, -3644.988375304744, -5115.643753486127, -3905.5426604202585, -10341.10162748118, -14761.96375631854, 0.012, -0.10200000000000001, 0.99, 192.0, 0.0, 48.0, 126.0, 104.0, 15.0, 120.0, 0.0, 0.0, 0.0, 1.645921030564818E9, 0.0, 2022-02-27 11:17:10.564
128.0, -2023.9057569391439, -5243.160455603655, -1948.356860680206, -10604.80750856489, -757.7241370349094, 284.2247824936846, -5291.641389327216, -1634.4489615498737, -3187.2246488600554, -6931.588880013094, -4355.975014683606, -3479.0043209796336, -4641.317384400057, -3467.2696551405975, -10162.86881719456, -14395.596312951604, 0.012, -0.10200000000000001, 0.99, 192.0, 0.0, 0.0, 0.0, 0.0, 0.0, 0.0, 0.0, 0.0, 0.0, 1.645921030572762E9, 0.0, 2022-02-27 11:17:10.572
130.0, -2894.729720917907, -5915.567984052656, -2597.026836517672, -11293.37534825508, -1563.281007204176, -343.725126233712, -5747.3264035375605, -2159.983177183053, -5076.617607667161, -8025.3044397001795, -4671.626349881452, -3758.535237137704, -4885.800765252205, -3817.1862145884297, -10616.184546492643, -15609.13957466359, 0.012, -0.10200000000000001, 0.99, 192.0, 0.0, 0.0, 0.0, 0.0, 0.0, 0.0, 0.0, 0.0, 0.0, 1.645921030579935E9, 0.0, 2022-02-27 11:17:10.579
132.0, -2336.0702200019623, -5474.501010716082, -2134.256319314995, -10804.52034527306, -1022.2570326634685, 97.02892268048797, -5347.67721267667, -1643.9931564322899, -2062.998957991476, -6840.25965216871, -4586.533258740099, -3491.811870552525, -4918.233146456855, -3666.602512193026, -10076.99341499727, -14088.55039936905, 0.012, -0.10200000000000001, 0.99, 192.0, 0.0, 0.0, 0.0, 0.0, 0.0, 0.0, 0.0, 0.0, 0.0, 1.645921030594395E9, 0.0, 2022-02-27 11:17:10.594
134.0, -2364.6804529047554, -5514.532985035537, -2230.9052623397424, -10922.291686808072, -1088.2617340399902, -3.509223879483209, -5608.678532681291, -1991.942762368055, -4989.378749058098, -7596.150946158284, -4370.347186368369, -3629.3868576749396, -4578.821906903017, -3536.0012693406666, -10474.720355835005, -15291.141306297935, 0.012, -0.10200000000000001, 0.99, 192.0, 0.0, 0.0, 0.0, 0.0, 0.0, 0.0, 0.0, 0.0, 0.0, 1.64592103060227E9, 0.0, 2022-02-27 11:17:10.602
136.0, -2807.4908623088436, -5839.6614598824335, -2481.557724661556, -11172.072431096129, -1456.4843721967188, -240.99650871712075, -5583.376357957883, -1942.1877792105413, -3070.7720602479053, -7509.269715460506, -4817.493834196786, -3663.6744336693805, -5118.460073287496, -3921.032419327786, -10353.462142164963, -14797.21245732456, 0.01, -0.10400000000000001, 0.992, 192.0, 0.0, 40.0, 126.0, 96.0, 15.5, 0.0, 0.0, 0.0, 0.0, 1.645921030609152E9, 0.0, 2022-02-27 11:17:10.609
138.0, -2037.7861902458897, -5256.616205765749, -1956.0235090283763, -10619.358494205297, -756.3606806231357, 263.86234329489986, -5308.740473835525, -1641.5121127977507, -3192.4102535736865, -6945.581072042117, -4372.604712558355, -3496.8857165438794, -4637.4505326092885, -3483.251152426142, -10168.456753308386, -14413.47770851585, 0.01, -0.10400000000000001, 0.992, 192.0, 0.0, 0.0, 0.0, 0.0, 0.0, 0.0, 0.0, 0.0, 0.0, 1.645921030617053E9, 0.0, 2022-02-27 11:17:10.617
140.0, -2902.8657558996388, -5925.335696379626, -2605.006409288217, -11304.148889082539, -1562.409289170419, -363.7075857767565, -5776.562485285102, -2167.314549364394, -5101.472747501462, -8046.78446612173, -4690.915905346383, -3777.3777577135274, -4886.359558863587, -3839.783828232745, -10622.688904129136, -15619.62254281313, 0.01, -0.10400000000000001, 0.992, 192.0, 0.0, 0.0, 0.0, 0.0, 0.0, 0.0, 0.0, 0.0, 0.0, 1.645921030624986E9, 0.0, 2022-02-27 11:17:10.624
142.0, -2351.9399585652304, -5487.845002155901, -2154.216427113584, -10812.835194210435, -1044.1617422296695, 99.06293142592091, -5365.424497774184, -1655.2584356377645, -2076.0970802422858, -6864.287777458165, -4606.336904327501, -3509.961487050234, -4928.671411117484, -3675.274989041685, -10087.834011058094, -14095.45708840574, 0.01, -0.10400000000000001, 0.992, 192.0, 0.0, 0.0, 0.0, 0.0, 0.0, 0.0, 0.0, 0.0, 0.0, 1.645921030632188E9, 0.0, 2022-02-27 11:17:10.632
144.0, -2370.603665185412, -5520.053865915998, -2226.032582048486, -10921.799948430056, -1090.429853252155, 1.810491300879872, -5567.752488583624, -1982.0185878298985, -4984.126089111101, -7600.397777604792, -4382.461831863146, -3640.5180264136825, -4583.76164242764, -3537.431780985806, -10468.64068134316, -15276.322099724068, 0.01, -0.10400000000000001, 0.992, 192.0, 0.0, 0.0, 0.0, 0.0, 0.0, 0.0, 0.0, 0.0, 0.0, 1.645921030641165E9, 0.0, 2022-02-27 11:17:10.641
146.0, -2821.8406822491506, -5842.768352361722, -2493.851184111975, -11180.968425389341, -1474.4328229943303, -249.62428207686926, -5594.708692396724, -1957.6328346291584, -3135.167436023645, -7536.471788462614, -4834.101180327079, -3680.1923728218526, -5125.187948368543, -3936.5221782353137, -10364.459200436975, -14822.69344600361, 0.008, -0.108, 0.988, 192.0, 0.0, 32.0, 126.0, 80.0, 15.0, 112.0, 0.0, 0.0, 0.0, 1.64592103064727E9, 0.0, 2022-02-27 11:17:10.647
148.0, -2042.5694635593254, -5258.113772644255, -1954.2130177274964, -10610.797776078913, -772.3868813975909, 270.9478462872322, -5335.942546837634, -1661.2263514073315, -3151.6406716872066, -6925.710371221348, -4380.494878351078, -3495.097576987455, -4660.8751607984495, -3495.83518455448, -10170.513113798275, -14391.662405927469, 0.008, -0.108, 0.988, 192.0, 0.0, 0.0, 0.0, 0.0, 0.0, 0.0, 0.0, 0.0, 0.0, 1.645921030654643E9, 0.0, 2022-02-27 11:17:10.654
150.0, -2898.3954070085774, -5920.12773992154, -2592.9364672823513, -11295.811688400709, -1569.9641787963128, -347.41316406883766, -5794.332122127071, -2204.4407969046592, -5149.149018424633, -8044.661050398476, -4671.5592946480865, -3773.4438506893935, -4876.323625603155, -3835.2240723638624, -10640.68205841566, -15637.52629012183, 0.008, -0.108, 0.988, 192.0, 0.0, 0.0, 0.0, 0.0, 0.0, 0.0, 0.0, 0.0, 0.0, 1.645921030662543E9, 0.0, 2022-02-27 11:17:10.662
152.0, -2385.914610137297, -5517.8186914704675, -2166.9792731975645, -10827.699104273213, -1065.4182512066664, 76.82294569289037, -5351.298195278429, -1668.6694823109488, -2089.709292615568, -6879.0399287986675, -4620.463206823255, -3531.1062373049544, -4938.7520478668275, -3710.4119313254278, -10101.401519942465, -14113.874925836913, 0.008, -0.108, 0.988, 192.0, 0.0, 0.0, 0.0, 0.0, 0.0, 0.0, 0.0, 0.0, 0.0, 1.645921030669436E9, 0.0, 2022-02-27 11:17:10.669
154.0, -2355.7397551226327, -5506.285191331529, -2228.5806809163905, -10905.416119744315, -1082.1597078036914, 12.360514683784805, -5579.464802678204, -1984.5890384422587, -4963.562484212218, -7597.179126403228, -4395.247029691581, -3647.7376398727465, -4575.603255701453, -3549.859350902957, -10471.859332544725, -15263.939233295827, 0.008, -0.108, 0.988, 192.0, 0.0, 0.0, 0.0, 0.0, 0.0, 0.0, 0.0, 0.0, 0.0, 1.645921030677329E9, 0.0, 2022-02-27 11:17:10.677
156.0, -2837.1739789454914, -5857.3863932354925, -2506.7034371737764, -11200.280332598726, -1501.6795994853496, -265.0469857510312, -5614.311172284028, -1976.1847825270634, -3215.656067807206, -7563.718564953633, -4842.81836066465, -3686.562619991615, -5123.846843701225, -3940.0761056037077, -10386.363910003176, -14863.865359290287, 0.006, -0.106, 0.99, 192.0, 0.0, 24.0, 126.0, 88.0, 15.0, 120.0, 0.0, 0.0, 0.0, 1.645921030685596E9, 0.0, 2022-02-27 11:17:10.685
158.0, -2038.9484809575656, -5252.682298741615, -1965.0759655327756, -10621.325447717363, -785.7755763263198, 273.22772422167355, -5328.789988611936, -1657.0242234497339, -3081.813822008827, -6911.874641403514, -4382.551238840966, -3492.3259606749966, -4662.529189888142, -3504.530013147594, -10167.763849230272, -14369.914158572456, 0.006, -0.106, 0.99, 192.0, 0.0, 0.0, 0.0, 0.0, 0.0, 0.0, 0.0, 0.0, 0.0, 1.645921030692E9, 0.0, 2022-02-27 11:17:10.692
160.0, -2890.7511104048626, -5914.74096950781, -2595.663380105899, -11302.606618715123, -1582.2129347578211, -357.02441418461973, -5800.724721041289, -2207.145357983751, -5138.0625531748, -8037.709657872875, -4688.568972178576, -3765.106650007564, -4861.526770773741, -3832.0948281401193, -10644.77242765098, -15638.129787222122, 0.006, -0.106, 0.99, 192.0, 0.0, 0.0, 0.0, 0.0, 0.0, 0.0, 0.0, 0.0, 0.0, 1.645921030699994E9, 0.0, 2022-02-27 11:17:10.699
162.0, -2368.6143599288894, -5507.4251302987495, -2157.1892091261398, -10827.8555664844, -1080.3939199917222, 61.55670422991565, -5402.908373225734, -1705.594564151116, -2067.581065604814, -6868.042870526657, -4595.183383844303, -3505.1335102478874, -4944.228225258377, -3697.649085241447, -10111.57156366963, -14123.083844552499, 0.006, -0.106, 0.99, 192.0, 0.0, 0.0, 0.0, 0.0, 0.0, 0.0, 0.0, 0.0, 0.0, 1.645921030715207E9, 0.0, 2022-02-27 11:17:10.715
164.0, -2344.98856603963, -5495.690464459713, -2224.020925047508, -10907.137204067374, -1095.1237195877695, 7.085502992332339, -5616.702808940746, -1997.1730705705966, -4940.271966489789, -7582.806954718466, -4372.62706430281, -3637.9252240568667, -4595.697473966775, -3534.9954408401777, -10481.492934404961, -15268.990727542727, 0.006, -0.106, 0.99, 192.0, 0.0, 0.0, 0.0, 0.0, 0.0, 0.0, 0.0, 0.0, 0.0, 1.645921030721583E9, 0.0, 2022-02-27 11:17:10.721
166.0, -2815.090455423648, -5833.067695268118, -2496.5780969355224, -11180.566093989146, -1510.5308902896513, -266.8127735630004, -5659.484047828204, -1983.5608581973147, -3164.0905933488125, -7533.208433772139, -4820.108988298058, -3662.1321633019643, -5125.232651857455, -3937.5056549913475, -10394.835221151736, -14854.119998707773, 0.012, -0.106, 0.99, 192.0, 0.0, 48.0, 126.0, 88.0, 15.0, 120.0, 0.0, 0.0, 0.0, 1.645921030729654E9, 0.0, 2022-02-27 11:17:10.729
168.0, -2028.3314023412947, -5246.51321727195, -1950.5473316368261, -10613.010598779989, -795.3421229531912, 259.72727057066805, -5343.855064374812, -1675.6655783254598, -3092.632066325196, -6898.240077285776, -4363.172276398215, -3471.2035621647315, -4665.144343989414, -3490.090786229466, -10182.381890104043, -14385.068641313153, 0.012, -0.106, 0.99, 192.0, 0.0, 0.0, 0.0, 0.0, 0.0, 0.0, 0.0, 0.0, 0.0, 1.645921030737701E9, 0.0, 2022-02-27 11:17:10.737
170.0, -2875.5742759197087, -5897.194850110394, -2593.048226004628, -11296.884572134564, -1582.7493766247485, -361.6735770313236, -5807.698465311345, -2219.9082040677317, -5142.532902065862, -8024.566832133154, -4651.286262427123, -3756.4118214144496, -4877.083584914635, -3823.8693861805664, -10653.958994622111, -15649.126845494135, 0.012, -0.106, 0.99, 192.0, 0.0, 0.0, 0.0, 0.0, 0.0, 0.0, 0.0, 0.0, 0.0, 1.645921030744375E9, 0.0, 2022-02-27 11:17:10.744
172.0, -2365.9097988497974, -5492.740034191613, -2164.0511946739193, -10840.283136401551, -1092.97795212006, 56.10287858282073, -5403.623629048304, -1703.2476309833087, -2048.3362136287947, -6852.888387785958, -4603.274715337124, -3495.544611876561, -4957.12518180909, -3708.9367161913774, -10119.148805039978, -14125.654295164859, 0.012, -0.106, 0.99, 192.0, 0.0, 0.0, 0.0, 0.0, 0.0, 0.0, 0.0, 0.0, 0.0, 1.645921030752373E9, 0.0, 2022-02-27 11:17:10.752
174.0, -2313.4949581021024, -5468.13076354632, -2202.697360837145, -10901.124584808897, -1079.656312424697, 12.002886772499892, -5600.073111065997, -2000.1458525831524, -4889.421747853965, -7514.477671918592, -4358.4784100626, -3628.023401263166, -4592.344712298478, -3528.289917503586, -10476.039108757866, -15248.471826132754, 0.012, -0.106, 0.99, 192.0, 0.0, 0.0, 0.0, 0.0, 0.0, 0.0, 0.0, 0.0, 0.0, 1.645921030760694E9, 0.0, 2022-02-27 11:17:10.760
176.0, -2821.1701299154915, -5856.604082179557, -2510.8832133869187, -11206.292951857204, -1518.2645938711876, -278.7486051021344, -5657.181818149307, -1999.0059136159318, -3221.1098934543006, -7564.903207409765, -4815.817453362639, -3666.758974404213, -5129.345372837231, -3926.9556316084427, -10408.313323058286, -14889.547513669433, 0.01, -0.106, 0.988, 192.0, 0.0, 40.0, 126.0, 88.0, 15.0, 112.0, 0.0, 0.0, 0.0, 1.645921030767507E9, 0.0, 2022-02-27 11:17:10.767
178.0, -2028.286698852384, -5250.7376969740035, -1953.8330380717562, -10627.740398376036, -801.8241288452302, 256.9780060026653, -5324.856081587802, -1653.246778636787, -3017.9995915889253, -6888.450013214352, -4374.750480026064, -3473.706957543726, -4681.662283141885, -3494.382321164885, -10171.876570210048, -14348.389428661994, 0.01, -0.106, 0.988, 192.0, 0.0, 0.0, 0.0, 0.0, 0.0, 0.0, 0.0, 0.0, 0.0, 1.645921030773837E9, 0.0, 2022-02-27 11:17:10.773
180.0, -2859.7492408453513, -5893.417405297448, -2584.8227840450745, -11302.003121614829, -1583.9340190808796, -364.35578636596045, -5794.890915738454, -2208.0617795064186, -5156.234521416965, -8009.524108114733, -4641.876178011439, -3755.048365002676, -4874.513134302275, -3823.623516991558, -10647.208767796608, -15641.236679701411, 0.01, -0.106, 0.988, 192.0, 0.0, 0.0, 0.0, 0.0, 0.0, 0.0, 0.0, 0.0, 0.0, 1.645921030781888E9, 0.0, 2022-02-27 11:17:10.781
182.0, -2360.545380180524, -5495.958685393177, -2159.893770205232, -10842.071275957976, -1094.5649259763868, 44.189398788142064, -5397.8345272343795, -1695.2233547238536, -2033.740524499479, -6859.124524488989, -4602.067721136537, -3493.085919986477, -4956.275815519788, -3705.628658011992, -10109.872831091026, -14122.435643963296, 0.01, -0.106, 0.988, 192.0, 0.0, 0.0, 0.0, 0.0, 0.0, 0.0, 0.0, 0.0, 0.0, 1.645921030789989E9, 0.0, 2022-02-27 11:17:10.789
184.0, -2311.371542378848, -5472.556408948471, -2202.831471303877, -10900.856363875433, -1078.1587455461915, 5.565584369371458, -5585.231552747674, -1987.2041925435296, -4869.908674944481, -7533.007268072041, -4364.96041595464, -3612.8465667780124, -4588.254343063158, -3538.0129263416443, -10466.003175497435, -15238.324134150045, 0.011, -0.10200000000000001, 0.991, 192.0, 0.0, 48.0, 126.0, 120.0, 15.5, 8.0, 0.0, 0.0, 0.0, 1.645921030797182E9, 0.0, 2022-02-27 11:17:10.797
186.0, -2816.2750978797794, -5848.512750686736, -2499.5061754591675, -11205.756509990277, -1512.5425472906288, -281.78844234805615, -5636.349992316961, -1995.5413932253593, -3194.7348349970384, -7549.0781723354075, -4817.00209581877, -3671.7210616732914, -5126.037314657845, -3941.774838182311, -10397.91976188657, -14883.825467088875, 0.011, -0.10200000000000001, 0.991, 192.0, 0.0, 0.0, 0.0, 0.0, 0.0, 0.0, 0.0, 0.0, 0.0, 1.645921030804523E9, 0.0, 2022-02-27 11:17:10.804
188.0, -2017.289640580373, -5248.189598106098, -1943.9759187669658, -10622.398331451217, -790.6929601064874, 256.55332285801444, -5333.215634014086, -1671.306988156675, -2996.340751211733, -6876.290664230664, -4367.463811333634, -3472.276445898586, -4675.359091205489, -3503.3677224359185, -10169.1496573865, -14357.486588655305, 0.011, -0.10200000000000001, 0.991, 192.0, 0.0, 0.0, 0.0, 0.0, 0.0, 0.0, 0.0, 0.0, 0.0, 1.645921030812564E9, 0.0, 2022-02-27 11:17:10.812
190.0, -2838.313917912712, -5884.87903891552, -2574.6303885734546, -11289.888476120053, -1566.0749752610893, -350.3188908480276, -5826.362171931526, -2207.9500207841425, -5169.869085534702, -8005.925477257429, -4634.455398852277, -3742.464332874338, -4859.448058539398, -3809.1619383289744, -10653.958994622111, -15656.972307797947, 0.011, -0.10200000000000001, 0.991, 192.0, 0.0, 0.0, 0.0, 0.0, 0.0, 0.0, 0.0, 0.0, 0.0, 1.645921030820566E9, 0.0, 2022-02-27 11:17:10.820
192.0, -2383.388863013847, -5530.268613132073, -2173.5283343229694, -10857.091648231943, -1111.0828651288589, 38.69086965213653, -5398.795652245957, -1716.3234014896634, -2033.293489610373, -6869.652196127438, -4616.663410265853, -3496.036350254578, -4968.166943570011, -3709.8084342251345, -10121.451034718875, -14142.12753082842, 0.011, -0.10200000000000001, 0.991, 192.0, 0.0, 0.0, 0.0, 0.0, 0.0, 0.0, 0.0, 0.0, 0.0, 1.645921030827117E9, 0.0, 2022-02-27 11:17:10.827
194.0, -2306.185937665217, -5494.528173748037, -2190.962694998109, -10884.763107867611, -1066.6028936627977, 32.43238120465055, -5608.030332092087, -1989.037035588865, -4803.702807867862, -7508.018017771008, -4354.8797792052965, -3612.0642557220767, -4586.600313973465, -3523.350181978963, -10458.69415506055, -15211.077357659025, 0.010499999999999999, -0.1, 0.9924999999999999, 192.0, 0.0, 40.0, 126.0, 120.0, 15.5, 8.0, 0.0, 0.0, 0.0, 1.645921030842294E9, 0.0, 2022-02-27 11:17:10.842
196.0, -2858.5198949003097, -5900.860536201065, -2512.0231523541397, -11216.194774650905, -1527.0264776976678, -285.25296273862875, -5662.345071118483, -2005.8455474192558, -3246.903806555725, -7580.16944887274, -4826.725104656828, -3681.9358088893664, -5135.425047329074, -3942.1548178380513, -10407.374549791164, -14908.412385989714, 0.010499999999999999, -0.1, 0.9924999999999999, 192.0, 0.0, 0.0, 0.0, 0.0, 0.0, 0.0, 0.0, 0.0, 0.0, 1.645921030849455E9, 0.0, 2022-02-27 11:17:10.849
198.0, -2077.259370953962, -5315.490700661028, -1952.6036921267143, -10633.238927512042, -793.1963554854817, 263.83999155044455, -5326.890090333234, -1677.9454562599012, -2972.379681155644, -6890.886353359981, -4381.947741740673, -3483.027634981589, -4687.384329722444, -3509.670914372315, -10163.517017783764, -14350.915175785445, 0.010499999999999999, -0.1, 0.9924999999999999, 192.0, 0.0, 0.0, 0.0, 0.0, 0.0, 0.0, 0.0, 0.0, 0.0, 1.645921030856807E9, 0.0, 2022-02-27 11:17:10.856
200.0, -2930.671326002041, -5980.56685692869, -2589.94133352534, -11304.126537338083, -1556.7766495676817, -347.5919780244801, -5781.971607443286, -2199.2998956799383, -5213.723208156015, -8044.482236442833, -4659.891684042416, -3785.9608275843657, -4868.947549932904, -3824.294069325217, -10640.816168882391, -15660.034496788323, 0.010499999999999999, -0.1, 0.9924999999999999, 192.0, 0.0, 0.0, 0.0, 0.0, 0.0, 0.0, 0.0, 0.0, 0.0, 1.645921030864822E9, 0.0, 2022-02-27 11:17:10.864
202.0, -2483.591733406989, -5625.755265445146, -2178.870401247788, -10864.28890994655, -1106.5454610044314, 52.8618756368012, -5387.30685559593, -1688.5848866206275, -2060.674376568124, -6903.917420377425, -4648.089962970014, -3539.4881414756946, -4981.265065820821, -3718.0338761846874, -10108.509374679254, -14136.18196680331, 0.010499999999999999, -0.1, 0.9924999999999999, 192.0, 0.0, 0.0, 0.0, 0.0, 0.0, 0.0, 0.0, 0.0, 0.0, 1.645921030872762E9, 0.0, 2022-02-27 11:17:10.872
204.0, -2417.7658459861095, -5592.518221440104, -2188.4592996191145, -10889.38991896986, -1047.9838905315269, 43.42943947666162, -5567.461915905705, -1984.8349076312672, -4849.926215401437, -7542.909090865743, -4393.816518046441, -3653.727907386769, -4595.451604777766, -3532.4920454611834, -10443.45026534203, -15207.702244246275, 0.01125, -0.101, 0.99525, 192.0, 0.0, 48.0, 126.0, 104.0, 15.5, 24.0, 0.0, 0.0, 0.0, 1.645921030879456E9, 0.0, 2022-02-27 11:17:10.879
206.0, -2983.01911151637, -6023.772778960798, -2516.582908223022, -11222.78853926522, -1511.4920153012295, -272.93715154375457, -5639.434533051794, -1978.8893436061555, -3309.46633928613, -7616.692199312712, -4859.135134117024, -3710.702504003347, -5129.568890281784, -3943.6747364610123, -10403.06066311129, -14923.700979197143, 0.01125, -0.101, 0.99525, 192.0, 0.0, 0.0, 0.0, 0.0, 0.0, 0.0, 0.0, 0.0, 0.0, 1.645921030887452E9, 0.0, 2022-02-27 11:17:10.887
208.0, -2214.2979162094493, -5448.617690636836, -1958.5269044073707, -10634.714142646091, -784.2780094478143, 284.15772726031867, -5326.174834510664, -1630.3809440590078, -3001.9063355811045, -6925.598612499072, -4427.612355662865, -3521.5620424225385, -4698.3813879944555, -3502.965391035723, -10149.189549587913, -14330.619791820025, 0.01125, -0.101, 0.99525, 192.0, 0.0, 0.0, 0.0, 0.0, 0.0, 0.0, 0.0, 0.0, 0.0, 1.645921030894589E9, 0.0, 2022-02-27 11:17:10.894
210.0, -3038.7420104434505, -6076.098212730672, -2587.102661979516, -11297.219848301393, -1547.5006756187292, -319.20526256624015, -5806.24560192175, -2194.114290966307, -5269.803734994381, -8069.158562321492, -4686.713777388785, -3808.4466825064046, -4864.052517897191, -3797.3825690010276, -10642.425494483174, -15654.96065079697, 0.01125, -0.101, 0.99525, 192.0, 0.0, 0.0, 0.0, 0.0, 0.0, 0.0, 0.0, 0.0, 0.0, 1.645921030903085E9, 0.0, 2022-02-27 11:17:10.903
212.0, -2591.483603892756, -5709.663714130368, -2195.2989334224385, -10878.05758453102, -1109.8758709282722, 54.04651809293248, -5390.503155053038, -1689.3895494210185, -2111.0775603148413, -6932.907632935958, -4687.965475078282, -3563.2033423427756, -4987.836478690681, -3713.8764517160002, -10110.09634853558, -14138.0371615931, 0.01125, -0.101, 0.99525, 192.0, 0.0, 0.0, 0.0, 0.0, 0.0, 0.0, 0.0, 0.0, 0.0, 1.645921030909075E9, 0.0, 2022-02-27 11:17:10.909
214.0, -2467.051442510062, -5642.831998209, -2191.8120612874104, -10881.633863643869, -1034.6846025806192, 60.23795130705253, -5553.827351787967, -1945.1158577341864, -4853.211921836367, -7546.999460101064, -4421.487977682112, -3662.6462534244365, -4605.845165949484, -3523.9536790792563, -10437.839977483747, -15185.082278857504, 0.011625, -0.10450000000000001, 0.993625, 192.0, 0.0, 48.0, 126.0, 80.0, 15.5, 0.0, 0.0, 0.0, 0.0, 1.645921030917139E9, 0.0, 2022-02-27 11:17:10.917
216.0, -3018.2231090334785, -6046.616261794122, -2536.9229956773515, -11239.999382495807, -1522.7572945067043, -285.87881158337734, -5635.031239394098, -2002.3810270286833, -3434.7478669581255, -7673.979720351663, -4888.192401908923, -3736.362306638039, -5142.622309043683, -3947.362774296138, -10412.716616715983, -14957.586223791388, 0.011625, -0.10450000000000001, 0.993625, 192.0, 0.0, 0.0, 0.0, 0.0, 0.0, 0.0, 0.0, 0.0, 0.0, 1.645921030925584E9, 0.0, 2022-02-27 11:17:10.925
218.0, -2200.6857038361672, -5423.539033357983, -1965.7241661219796, -10642.783122394458, -794.3586461971577, 269.04794800853114, -5298.19045045262, -1634.9406999278904, -2967.8422770312163, -6913.528670493206, -4447.3265942724465, -3517.0469900425664, -4716.419245769888, -3527.8205308700244, -10138.952450627381, -14309.631503776493, 0.011625, -0.10450000000000001, 0.993625, 192.0, 0.0, 0.0, 0.0, 0.0, 0.0, 0.0, 0.0, 0.0, 0.0, 1.645921030932209E9, 0.0, 2022-02-27 11:17:10.932
220.0, -2981.4097859155877, -6023.057523138228, -2582.1405747104377, -11301.08670009216, -1549.9817192532682, -336.2149400967288, -5779.267046364194, -2199.6575235912233, -5280.979607222033, -8057.513303460277, -4677.281341228645, -3794.5662491996586, -4857.503456771786, -3808.8043104176895, -10629.752055377014, -15653.820711829749, 0.011625, -0.10450000000000001, 0.993625, 192.0, 0.0, 0.0, 0.0, 0.0, 0.0, 0.0, 0.0, 0.0, 0.0, 1.645921030939776E9, 0.0, 2022-02-27 11:17:10.939
222.0, -2525.7918269386087, -5661.1604286623515, -2187.542878096447, -10879.711613620713, -1109.9652779060934, 48.7268029125694, -5374.476954278583, -1697.1903082359206, -2097.085368285819, -6943.927042952424, -4680.12001277447, -3555.8719701614345, -4992.217420603922, -3737.1669694384304, -10102.876735076516, -14137.23249879271, 0.011625, -0.10450000000000001, 0.993625, 192.0, 0.0, 0.0, 0.0, 0.0, 0.0, 0.0, 0.0, 0.0, 0.0, 1.645921030947735E9, 0.0, 2022-02-27 11:17:10.947
224.0, -2388.574467727479, -5560.398764657827, -2178.244552403039, -10873.609587384413, -1035.3328031698231, 63.34484378634021, -5538.38229636935, -1949.0944682472311, -4815.593935918086, -7530.213300015128, -4398.890364037796, -3640.7415438582357, -4590.847145419973, -3533.520225706128, -10427.714637245494, -15170.777162406108, 0.0118125, -0.10925000000000001, 0.9898125, 192.0, 0.0, 48.0, 126.0, 56.0, 15.0, 104.0, 0.0, 0.0, 0.0, 1.645921030961826E9, 0.0, 2022-02-27 11:17:10.961
226.0, -2956.375832125644, -5980.768022628788, -2528.3846292954245, -11233.204452181393, -1526.44533234183, -276.6475411233355, -5623.318925299517, -1987.2488960324404, -3404.8859363658353, -7632.763103576077, -4868.120535388057, -3715.217556383319, -5139.761285753404, -3962.4725535479256, -10409.408558536597, -14945.024543407506, 0.0118125, -0.10925000000000001, 0.9898125, 192.0, 0.0, 0.0, 0.0, 0.0, 0.0, 0.0, 0.0, 0.0, 0.0, 1.645921030969368E9, 0.0, 2022-02-27 11:17:10.969
228.0, -2122.7451709205116, -5349.375945255273, -1953.0283752713651, -10628.522709431973, -796.415006687046, 274.52412540008135, -5317.703523362104, -1650.7433832577924, -2925.9104044330606, -6895.759033651238, -4423.365524216357, -3488.4144053953178, -4706.02568459817, -3513.7836353520916, -10137.611345960064, -14298.50033503775, 0.0118125, -0.10925000000000001, 0.9898125, 192.0, 0.0, 0.0, 0.0, 0.0, 0.0, 0.0, 0.0, 0.0, 0.0, 1.645921030978136E9, 0.0, 2022-02-27 11:17:10.978
230.0, -2910.8453286701833, -5957.857484562098, -2570.629426315955, -11282.065365560695, -1546.986585496257, -317.23830905417316, -5791.113470925507, -2213.470901664603, -5282.6112845672715, -8036.770884605752, -4650.794524049106, -3761.3739086835276, -4845.38881127701, -3790.073548564142, -10640.615003182293, -15660.90621482208, 0.0118125, -0.10925000000000001, 0.9898125, 192.0, 0.0, 0.0, 0.0, 0.0, 0.0, 0.0, 0.0, 0.0, 0.0, 1.645921030984561E9, 0.0, 2022-02-27 11:17:10.984
232.0, -2490.073739299028, -5616.59105021847, -2197.9364392681646, -10881.075070032486, -1134.3510311068335, 37.75209638501363, -5404.696512782159, -1702.0853402716327, -2089.709292615568, -6933.287612591697, -4672.743937104218, -3532.6485076723707, -4995.793699716771, -3732.853082758556, -10113.940848581893, -14156.052667624077, 0.0118125, -0.10925000000000001, 0.9898125, 192.0, 0.0, 0.0, 0.0, 0.0, 0.0, 0.0, 0.0, 0.0, 0.0, 1.645921030992021E9, 0.0, 2022-02-27 11:17:10.992
234.0, -2325.408437896781, -5514.868261202367, -2155.021089913975, -10855.884654031355, -1020.692410551597, 69.73744270055803, -5538.918738236277, -1925.6698400580694, -4757.501752078742, -7493.422328641693, -4386.328683653914, -3622.86014829399, -4591.182421586803, -3527.5299581921054, -10426.574698278273, -15145.877319082896, 0.012906250000000001, -0.109625, 0.98990625, 192.0, 0.0, 56.0, 126.0, 72.0, 15.0, 120.0, 0.0, 0.0, 0.0, 1.645921031000059E9, 0.0, 2022-02-27 11:17:11.000
236.0, -2913.3040205602674, -5946.055763489695, -2527.289393817114, -11240.89345227402, -1535.184864423855, -287.3763784618829, -5637.489931284182, -2016.6190882467138, -3474.4892685996615, -7668.056508071007, -4857.503456771786, -3712.267126115218, -5131.424085071574, -3951.453143531459, -10424.071302899278, -14991.315006174447, 0.012906250000000001, -0.109625, 0.98990625, 192.0, 0.0, 0.0, 0.0, 0.0, 0.0, 0.0, 0.0, 0.0, 0.0, 1.645921031008077E9, 0.0, 2022-02-27 11:17:11.008
238.0, -2092.8161850948554, -5322.553851908905, -1948.3121571912955, -10630.355552477307, -792.2799339628142, 259.8837327818552, -5296.536421362927, -1644.7754674882256, -2868.1087932716364, -6871.753260106238, -4424.1478352722925, -3486.246286183153, -4714.429940513366, -3516.3987894533625, -10127.061322577158, -14283.792887186157, 0.012906250000000001, -0.109625, 0.98990625, 192.0, 0.0, 0.0, 0.0, 0.0, 0.0, 0.0, 0.0, 0.0, 0.0, 1.645921031014295E9, 0.0, 2022-02-27 11:17:11.014
240.0, -2867.862924082628, -5923.726370778843, -2560.1241064219603, -11280.165467281993, -1537.0847627025562, -334.5609110070361, -5774.059089906107, -2207.525337639491, -5280.532572332928, -8027.092579256604, -4642.412619878366, -3758.825809815623, -4842.304270542178, -3790.8335078756227, -10632.791892622936, -15656.547624653296, 0.012906250000000001, -0.109625, 0.98990625, 192.0, 0.0, 0.0, 0.0, 0.0, 0.0, 0.0, 0.0, 0.0, 0.0, 1.645921031021654E9, 0.0, 2022-02-27 11:17:11.021
242.0, -2452.38869814738, -5586.01386380361, -2194.8742502777877, -10883.62316890039, -1116.8719669427833, 40.65782316420355, -5384.669349750203, -1718.5362241907387, -2075.292417441895, -6923.922231664924, -4663.78088757764, -3522.0090773116444, -5001.13576664159, -3732.40604786945, -10113.247944503779, -14154.219824578742, 0.012906250000000001, -0.109625, 0.98990625, 192.0, 0.0, 0.0, 0.0, 0.0, 0.0, 0.0, 0.0, 0.0, 0.0, 1.64592103102975E9, 0.0, 2022-02-27 11:17:11.029
244.0, -2278.9615129186527, -5473.137554304309, -2151.3107003343944, -10843.47943585866, -1001.0228754309268, 81.3379980728624, -5537.778799269056, -1930.0284302268542, -4714.072312602081, -7459.201807880618, -4371.554180568955, -3607.348037642007, -4588.679026207808, -3502.4960044021614, -10419.1092156302, -15128.778234574585, 0.013453125, -0.1088125, 0.991953125, 192.0, 0.0, 56.0, 126.0, 80.0, 15.5, 8.0, 0.0, 0.0, 0.0, 1.645921031037699E9, 0.0, 2022-02-27 11:17:11.037
246.0, -2882.838592867684, -5917.423178842447, -2531.6032804969886, -11230.07520795765, -1533.0167452116902, -277.07222426798637, -5644.1954546207735, -2006.449044519549, -3449.6788322542707, -7639.803903079499, -4846.059363610669, -3703.2593730997296, -5132.474617060973, -3925.4133612410265, -10426.194718622532, -14977.926311245717, 0.013453125, -0.1088125, 0.991953125, 192.0, 0.0, 0.0, 0.0, 0.0, 0.0, 0.0, 0.0, 0.0, 0.0, 1.645921031044391E9, 0.0, 2022-02-27 11:17:11.044
