%OpenBCI Raw EEG Data
%Number of channels = 16
%Sample Rate = 125 Hz
%Board = OpenBCI_GUI$BoardCytonSerialDaisy
Sample Index, EXG Channel 0, EXG Channel 1, EXG Channel 2, EXG Channel 3, EXG Channel 4, EXG Channel 5, EXG Channel 6, EXG Channel 7, EXG Channel 8, EXG Channel 9, EXG Channel 10, EXG Channel 11, EXG Channel 12, EXG Channel 13, EXG Channel 14, EXG Channel 15, Accel Channel 0, Accel Channel 1, Accel Channel 2, Other, Other, Other, Other, Other, Other, Other, Analog Channel 0, Analog Channel 1, Analog Channel 2, Timestamp, Other, Timestamp (Formatted)
0.0, -2195.8130235449107, -5379.796669458946, -1634.7842377167033, -10587.127278700744, -627.6593360494776, 929.4302379405783, -4636.467055853254, -1914.0916364302202, 0.0, 0.0, 0.0, 0.0, 0.0, 0.0, 0.0, 0.0, 0.0, 0.0, 0.0, 192.0, 0.0, 0.0, 0.0, 0.0, 0.0, 0.0, 0.0, 0.0, 0.0, 1.645920949163758E9, 0.0, 2022-02-27 11:15:49.163
192.0, -2836.4587231229216, -5893.1938878528945, -2133.384601281238, -11130.766407342722, -1233.4586660216648, 396.1176152369518, -5045.928662530025, -2399.1244911103836, -5021.855833751659, -8127.116635694103, -4407.96517228665, -3529.2286907707085, -4583.582828471998, -3515.281202230597, -10340.945165269992, -15072.250672847114, 0.0, 0.0, 0.0, 192.0, 0.0, 0.0, 0.0, 0.0, 0.0, 0.0, 0.0, 0.0, 0.0, 1.645920949163761E9, 0.0, 2022-02-27 11:15:49.163
0.0, -1459.7477268871937, -3074.8624294832266, -1211.1292733108132, -5678.304216659572, -630.1180279395614, -136.50210338856024, -2701.2753726572246, -1157.3733278957998, -1811.363018913629, -3645.3236514715736, -2083.830783823822, -1657.9182932279462, -2202.920878281698, -1628.8833771805023, -4991.837440948181, -7070.035585169267, 0.016, -0.114, 1.0, 192.0, 0.0, 64.0, 126.0, 56.0, 15.5, 32.0, 0.0, 0.0, 0.0, 1.64592094928892E9, 0.0, 2022-02-27 11:15:49.288
2.0, -2167.806287742411, -5568.780668828567, -1880.3181505582513, -10786.460135753172, -575.5574197241568, 277.02752077907576, -5044.967537518446, -1916.9303079760443, -2057.9027602556657, -6856.107038987522, -4399.3150471824465, -3527.8205308700244, -4702.73997816324, -3479.093727957455, -9870.351537507957, -13874.93477760968, 0.016, -0.114, 1.0, 192.0, 0.0, 0.0, 0.0, 0.0, 0.0, 0.0, 0.0, 0.0, 0.0, 1.645920949294945E9, 0.0, 2022-02-27 11:15:49.294
4.0, -2490.5878294215, -5828.396180676959, -2183.7207297945893, -11124.507918895235, -911.5488423763327, -14.707447851592047, -5461.715812887646, -2381.7124821796992, -5238.734810201503, -7869.669243057877, -4291.825508096875, -3703.795814966657, -4456.379050776845, -3436.2454338366315, -10358.29011896731, -15327.4181875489, 0.016, -0.114, 1.0, 192.0, 0.0, 0.0, 0.0, 0.0, 0.0, 0.0, 0.0, 0.0, 0.0, 1.645920949302872E9, 0.0, 2022-02-27 11:15:49.302
6.0, -2705.745721548286, -5981.349167984626, -2256.989748119086, -11185.081146369117, -1064.658291895186, -109.94823097565543, -5315.580107638849, -2184.994779228542, -2498.5003469586786, -7416.822900393356, -4682.958684320293, -3665.5743319480816, -4969.418641259509, -3765.1513534964747, -10080.90497027695, -14382.31937674515, 0.014, -0.10900000000000001, 0.996, 192.0, 0.0, 48.0, 126.0, 96.0, 15.5, 0.0, 0.0, 0.0, 0.0, 1.645920949310908E9, 0.0, 2022-02-27 11:15:49.310
8.0, -1980.1410412956527, -5429.037562493988, -1781.0540534322326, -10697.947227710156, -418.3799527144376, 384.4947081201921, -5096.7118259324825, -1994.2002885580407, -3519.3939232103735, -7113.5991351126595, -4201.904440153175, -3544.338470022496, -4439.0564488239825, -3326.6101272833503, -10035.84385345505, -14395.261036784774, 0.014, -0.10900000000000001, 0.996, 192.0, 0.0, 0.0, 0.0, 0.0, 0.0, 0.0, 0.0, 0.0, 0.0, 1.645920949317459E9, 0.0, 2022-02-27 11:15:49.317
10.0, -2922.57999450922, -6167.226274874959, -2452.5228086141124, -11411.705483401476, -1280.1067566998909, -300.78742513506717, -5532.749656766612, -2458.602483105956, -4627.861634237961, -8077.942797892428, -4615.076436409526, -3795.2144497888626, -4805.066264279636, -3739.1786264394077, -10395.751642674404, -15342.483263311777, 0.014, -0.10900000000000001, 0.996, 192.0, 0.0, 0.0, 0.0, 0.0, 0.0, 0.0, 0.0, 0.0, 0.0, 1.645920949325431E9, 0.0, 2022-02-27 11:15:49.325
12.0, -2306.1635859207613, -5683.467469628748, -1975.2460092599404, -10896.810698129022, -705.1751858204825, 175.21532478515206, -5126.01496291339, -1971.6026749137254, -2038.7249635130124, -6905.012655855734, -4434.630803421832, -3544.472580489228, -4733.518330278198, -3505.6476003703597, -9886.757717938151, -13886.110649837334, 0.014, -0.10900000000000001, 0.996, 192.0, 0.0, 0.0, 0.0, 0.0, 0.0, 0.0, 0.0, 0.0, 0.0, 1.645920949333586E9, 0.0, 2022-02-27 11:15:49.333
14.0, -2279.788527463499, -5653.06909716953, -1992.6803699350799, -10935.568623014526, -710.6513632120327, 163.39125196829463, -5275.257560641475, -2178.4233663586815, -4684.478602943254, -7708.289648090559, -4338.272433075003, -3715.910460461433, -4532.352630180434, -3474.7127860442147, -10309.093929421178, -15050.770646425564, 0.014, -0.10900000000000001, 0.996, 192.0, 0.0, 0.0, 0.0, 0.0, 0.0, 0.0, 0.0, 0.0, 0.0, 1.645920949340079E9, 0.0, 2022-02-27 11:15:49.340
16.0, -2432.8979769823527, -5761.408002544404, -2068.8551150387666, -11025.690856658322, -830.9931553594059, 72.59846599083734, -5244.747429459981, -2195.3212851668936, -3721.073713430609, -7578.873047694332, -4418.4928439251, -3549.635833458404, -4623.838320236006, -3498.338579933474, -10085.665891845929, -14820.346512835804, 0.017, -0.10850000000000001, 0.994, 192.0, 0.0, 80.0, 126.0, 80.0, 15.5, 0.0, 0.0, 0.0, 0.0, 1.645920949355014E9, 0.0, 2022-02-27 11:15:49.355
18.0, -2613.4106652034125, -5947.240405945827, -2253.771096917522, -11191.07141388314, -1012.8916517366948, -108.98710596407724, -5412.318457641418, -2334.3938391678143, -3717.1621581509303, -7604.8457747513985, -4554.99494731366, -3754.534274880204, -4777.6853773218845, -3647.491770683738, -10236.048428541235, -14823.095777403805, 0.017, -0.10850000000000001, 0.994, 192.0, 0.0, 0.0, 0.0, 0.0, 0.0, 0.0, 0.0, 0.0, 0.0, 1.645920949363169E9, 0.0, 2022-02-27 11:15:49.363
20.0, -2356.2314935006493, -5694.486879645215, -1995.0496548473425, -10932.506434024148, -749.5210468198118, 164.71000489115775, -5173.981806514479, -2089.284609470917, -3502.2948387020638, -7470.936473719654, -4455.686146698731, -3645.278947982663, -4685.171507021369, -3545.567815967538, -10137.47723549333, -14616.878583059142, 0.017, -0.10850000000000001, 0.994, 192.0, 0.0, 0.0, 0.0, 0.0, 0.0, 0.0, 0.0, 0.0, 0.0, 1.645920949369766E9, 0.0, 2022-02-27 11:15:49.369
22.0, -2532.4749985307453, -5868.405803251959, -2174.1988866566285, -11113.175584456396, -932.6041856532319, -28.00673580249975, -5343.542139952438, -2257.012099863541, -3424.2425470641315, -7348.381858871206, -4377.835020760896, -3561.2587405751638, -4601.732444969707, -3455.4008788348297, -10051.870054229505, -14581.026384952831, 0.017, -0.10850000000000001, 0.994, 192.0, 0.0, 0.0, 0.0, 0.0, 0.0, 0.0, 0.0, 0.0, 0.0, 1.645920949377703E9, 0.0, 2022-02-27 11:15:49.377
24.0, -2476.595637392478, -5801.462328608314, -2115.682019672635, -11045.449798756814, -870.5333913008442, 46.11164881129847, -5291.507278860483, -2172.2095814001063, -3758.1329057375083, -7617.675676068745, -4588.611970974443, -3823.712923969379, -4819.438435964398, -3689.6471607264475, -10301.60609502865, -14776.78296289241, 0.017, -0.10850000000000001, 0.994, 192.0, 0.0, 0.0, 0.0, 0.0, 0.0, 0.0, 0.0, 0.0, 0.0, 1.645920949385841E9, 0.0, 2022-02-27 11:15:49.385
26.0, -2383.344159524937, -5725.51110094918, -2025.2021581175518, -10970.660861809358, -782.4898698913896, 117.03373396798779, -5212.538565699883, -2119.7276854190454, -3313.355542821353, -7279.806706882323, -4305.929458848173, -3475.0480622110445, -4531.682077846775, -3381.438956432218, -9981.68557663984, -14470.497008621338, 0.0165, -0.10925000000000001, 0.993, 192.0, 0.0, 64.0, 126.0, 72.0, 15.5, 0.0, 0.0, 0.0, 0.0, 1.645920949392998E9, 0.0, 2022-02-27 11:15:49.392
28.0, -2587.3708829129796, -5929.7613417817765, -2235.375611230804, -11170.284291539705, -996.2619538619464, -96.38072209128406, -5433.8208358074235, -2326.2131006971717, -3674.9173611304, -7548.720544424123, -4505.955219978717, -3723.107722176042, -4740.335612337067, -3615.1040929679984, -10224.872556313581, -14753.403038192158, 0.0165, -0.10925000000000001, 0.993, 192.0, 0.0, 0.0, 0.0, 0.0, 0.0, 0.0, 0.0, 0.0, 0.0, 1.645920949400233E9, 0.0, 2022-02-27 11:15:49.400
30.0, -2329.4317518987364, -5667.307158387561, -1976.7882796273566, -10908.835936645977, -732.4219623115018, 183.15019406678607, -5148.277300390876, -2034.6569460221467, -3512.21901324022, -7451.669269999179, -4430.607489419876, -3633.43252342135, -4661.992748021215, -3530.636850671393, -10141.634659962017, -14600.897085773599, 0.0165, -0.10925000000000001, 0.993, 192.0, 0.0, 0.0, 0.0, 0.0, 0.0, 0.0, 0.0, 0.0, 0.0, 1.645920949407485E9, 0.0, 2022-02-27 11:15:49.407
32.0, -2520.0921321025053, -5864.583654950101, -2171.360215110805, -11110.15809895493, -929.5643484073101, -21.61413688828193, -5347.7666196544915, -2249.9489486156644, -3468.320187129997, -7364.609225345758, -4367.083831677894, -3549.568778225038, -4592.322360554023, -3447.287195597553, -10056.854493243038, -14596.471440371448, 0.0165, -0.10925000000000001, 0.993, 192.0, 0.0, 0.0, 0.0, 0.0, 0.0, 0.0, 0.0, 0.0, 0.0, 1.645920949415539E9, 0.0, 2022-02-27 11:15:49.415
34.0, -2459.854180795453, -5793.572162815591, -2111.6140021817687, -11040.66652544338, -871.248647123414, 34.64520390572595, -5280.130240932732, -2167.9403982091426, -3752.142638223486, -7625.655248839289, -4580.297122037068, -3814.526356998248, -4815.951563829371, -3685.959122891322, -10310.524441066318, -14783.622596695734, 0.0165, -0.10925000000000001, 0.993, 192.0, 0.0, 0.0, 0.0, 0.0, 0.0, 0.0, 0.0, 0.0, 0.0, 1.645920949422531E9, 0.0, 2022-02-27 11:15:49.422
36.0, -2360.545380180524, -5707.517946662659, -2019.5695185148143, -10961.228425649218, -777.2819134333031, 133.43991439818316, -5216.897155868668, -2114.340915005316, -3329.940537207191, -7276.431593469571, -4289.769147606987, -3473.7740127770917, -4518.583955595966, -3385.5740291564503, -9990.156887788402, -14485.450325661937, 0.013250000000000001, -0.109625, 0.9924999999999999, 192.0, 0.0, 40.0, 126.0, 72.0, 15.5, 0.0, 0.0, 0.0, 0.0, 1.645920949429995E9, 0.0, 2022-02-27 11:15:49.429
38.0, -2585.3145224230916, -5931.862405760576, -2238.0354688209854, -11175.268730553238, -996.8654509622397, -107.9365739746778, -5420.990934490077, -2332.181016466739, -3681.309960044618, -7555.671936949723, -4502.89303098834, -3721.5878035530814, -4732.356039566522, -3613.248898178208, -10236.584870408162, -14767.037602309896, 0.013250000000000001, -0.109625, 0.9924999999999999, 192.0, 0.0, 0.0, 0.0, 0.0, 0.0, 0.0, 0.0, 0.0, 0.0, 1.645920949438111E9, 0.0, 2022-02-27 11:15:49.438
40.0, -2319.88755701632, -5667.664786298846, -1970.6639016466024, -10906.734872667179, -717.803921437731, 177.69636841969114, -5128.697172248027, -2032.6676407656244, -3521.249118000164, -7457.413668324193, -4422.516157927055, -3642.015593292188, -4653.6555473393855, -3536.0683245740324, -10144.38392453002, -14602.08172822973, 0.013250000000000001, -0.109625, 0.9924999999999999, 192.0, 0.0, 0.0, 0.0, 0.0, 0.0, 0.0, 0.0, 0.0, 0.0, 1.645920949445113E9, 0.0, 2022-02-27 11:15:49.445
42.0, -2518.907489646374, -5866.4835532288025, -2173.8189070008884, -11109.95693325483, -933.0065170534274, -39.02614581896613, -5356.461448247605, -2256.2074370631503, -3488.190887950765, -7370.979472515521, -4359.86421821883, -3554.2626445606525, -4582.532296482599, -3449.857646209913, -10061.973042723304, -14605.12156547565, 0.013250000000000001, -0.109625, 0.9924999999999999, 192.0, 0.0, 0.0, 0.0, 0.0, 0.0, 0.0, 0.0, 0.0, 0.0, 1.645920949452747E9, 0.0, 2022-02-27 11:15:49.452
44.0, -2470.3818524339026, -5808.994866489753, -2119.861795885777, -11051.23890057074, -881.9551327175061, 34.06405854988796, -5298.302209174897, -2190.0909769643517, -3762.782068584212, -7634.46183615468, -4588.2096395742465, -3814.4816535093373, -4820.936002842904, -3684.685073457369, -10321.320333638232, -14787.623558953233, 0.013250000000000001, -0.109625, 0.9924999999999999, 192.0, 0.0, 0.0, 0.0, 0.0, 0.0, 0.0, 0.0, 0.0, 0.0, 1.645920949460871E9, 0.0, 2022-02-27 11:15:49.460
46.0, -2368.2343802731493, -5700.164222736862, -2015.546204512859, -10957.45098083627, -772.1186604641272, 139.13960923428647, -5223.356810016252, -2107.0542463128863, -3365.0104242575676, -7280.901942360633, -4295.334731976358, -3482.6476553258485, -4517.086388717459, -3381.461308176674, -10001.578629205063, -14492.28995946526, 0.014625, -0.1088125, 0.99325, 192.0, 0.0, 64.0, 126.0, 80.0, 15.5, 8.0, 0.0, 0.0, 0.0, 1.645920949474816E9, 0.0, 2022-02-27 11:15:49.474
48.0, -2619.8926710954515, -5961.076135763662, -2251.3124050274378, -11188.523315015234, -1013.1375209257033, -101.6110302938259, -5409.837414006879, -2317.182995937228, -3701.337123076573, -7552.833265403899, -4516.885223017362, -3728.695658289869, -4742.369621082499, -3607.1915754308197, -10240.004687309825, -14759.817988850831, 0.014625, -0.1088125, 0.99325, 192.0, 0.0, 0.0, 0.0, 0.0, 0.0, 0.0, 0.0, 0.0, 0.0, 1.645920949482271E9, 0.0, 2022-02-27 11:15:49.482
50.0, -2338.08187700294, -5691.9164290328545, -1973.100241792231, -10912.680436692292, -715.6358022255662, 178.72454866463528, -5123.310401834297, -2044.6928792825795, -3550.529903236616, -7480.391261624249, -4442.275100025547, -3652.8114858641015, -4669.458230669288, -3544.673746189326, -10154.755133957284, -14612.184716723528, 0.014625, -0.1088125, 0.99325, 192.0, 0.0, 0.0, 0.0, 0.0, 0.0, 0.0, 0.0, 0.0, 0.0, 1.645920949490292E9, 0.0, 2022-02-27 11:15:49.490
52.0, -2542.1086003909827, -5890.31051281816, -2176.948151224631, -11114.6731513349, -918.0084965239164, -16.96497404157806, -5353.667480190692, -2237.6107856763347, -3511.637867884382, -7387.743280857001, -4363.686366520687, -3547.0206793571333, -4584.499249994666, -3447.264843853098, -10066.08576370308, -14606.596780609701, 0.014625, -0.1088125, 0.99325, 192.0, 0.0, 0.0, 0.0, 0.0, 0.0, 0.0, 0.0, 0.0, 0.0, 1.645920949498374E9, 0.0, 2022-02-27 11:15:49.498
54.0, -2497.5168702026454, -5841.807227350143, -2127.439037256126, -11051.194197081828, -863.4925917974224, 42.133038298253815, -5272.217723395554, -2183.3631018833044, -3766.9394930528993, -7645.928281060253, -4599.3631600574445, -3818.6390779780245, -4826.054552323169, -3686.3614542915175, -10328.56229884175, -14783.622596695734, 0.014625, -0.1088125, 0.99325, 192.0, 0.0, 0.0, 0.0, 0.0, 0.0, 0.0, 0.0, 0.0, 0.0, 1.645920949504885E9, 0.0, 2022-02-27 11:15:49.504
56.0, -2414.9942296736517, -5755.037755374641, -2032.131198898697, -10969.74444028669, -759.6463870580658, 125.14741720526425, -5186.275265964898, -2089.1728507486405, -3403.0083898315897, -7312.775529953901, -4314.75839790802, -3488.570867606505, -4526.608231855421, -3386.088119278922, -9999.946951859827, -14498.05670953473, 0.0143125, -0.10540625, 0.991625, 192.0, 0.0, 56.0, 126.0, 104.0, 15.0, 120.0, 0.0, 0.0, 0.0, 1.645920949513045E9, 0.0, 2022-02-27 11:15:49.513
58.0, -2662.9421309163727, -5994.514345468801, -2263.6505679667675, -11203.320169844648, -1006.566108055843, -132.07645798640942, -5412.698437297158, -2331.979850766641, -3737.792818283179, -7588.260780365561, -4545.786028598074, -3750.2427399447847, -4763.000281214748, -3640.1827502468527, -10248.118370547101, -14775.374802991726, 0.0143125, -0.10540625, 0.991625, 192.0, 0.0, 0.0, 0.0, 0.0, 0.0, 0.0, 0.0, 0.0, 0.0, 1.645920949520973E9, 0.0, 2022-02-27 11:15:49.520
60.0, -2395.9728951421853, -5733.289508019628, -1973.256704003418, -10907.316018023017, -693.8428513816418, 182.2114207996632, -5125.836148957747, -2030.2313006199959, -3568.9700924122444, -7490.5613053514135, -4461.698765957209, -3670.312901772607, -4678.443631940321, -3565.3044063215743, -10162.86881719456, -14608.74254807741, 0.0143125, -0.10540625, 0.991625, 192.0, 0.0, 0.0, 0.0, 0.0, 0.0, 0.0, 0.0, 0.0, 0.0, 1.645920949527984E9, 0.0, 2022-02-27 11:15:49.527
62.0, -2644.1443138294594, -5986.221848275883, -2173.215409900595, -11117.19889845835, -899.0318654813607, -24.408104945195312, -5351.722878423081, -2251.737088172089, -3548.8758741469237, -7406.742263644012, -4383.91469525274, -3566.4890487777056, -4580.520639481621, -3456.697280013237, -10066.912778247926, -14617.213859225973, 0.0143125, -0.10540625, 0.991625, 192.0, 0.0, 0.0, 0.0, 0.0, 0.0, 0.0, 0.0, 0.0, 0.0, 1.645920949534529E9, 0.0, 2022-02-27 11:15:49.534
64.0, -2650.2016365768477, -5987.85352562112, -2131.417647769171, -11060.023136141675, -843.1972078320036, 41.44013422013929, -5259.276063355931, -2172.768375011489, -3799.9977231022986, -7685.647330957334, -4633.5166255851545, -3859.7662877757894, -4820.153691786968, -3687.0096548807214, -10317.833461503204, -14781.856808883764, 0.0143125, -0.10540625, 0.991625, 192.0, 0.0, 0.0, 0.0, 0.0, 0.0, 0.0, 0.0, 0.0, 0.0, 1.645920949542594E9, 0.0, 2022-02-27 11:15:49.542
66.0, -2595.551621383622, -5942.121856465561, -2027.102056396253, -10965.698774540278, -723.5706715072002, 154.89758907527795, -5179.033300761378, -2084.166059990652, -3463.82748649448, -7363.7151555675455, -4355.639738516777, -3529.899243104368, -4515.097083460937, -3380.388424442819, -9990.805088377607, -14488.601921630136, 0.01415625, -0.10370312500000001, 0.9908125, 192.0, 0.0, 56.0, 126.0, 104.0, 15.0, 120.0, 0.0, 0.0, 0.0, 1.645920949550643E9, 0.0, 2022-02-27 11:15:49.550
68.0, -2881.318674244723, -6220.4681301675, -2278.0003879070746, -11208.729292002832, -980.9733606545163, -98.4370825811723, -5407.870460494812, -2313.5620133354682, -3789.850031119589, -7644.564824648479, -4593.641113476886, -3790.118252053053, -4746.772914740195, -3614.7911685456243, -10233.50032967333, -14757.314593471838, 0.01415625, -0.10370312500000001, 0.9908125, 192.0, 0.0, 0.0, 0.0, 0.0, 0.0, 0.0, 0.0, 0.0, 0.0, 1.645920949557733E9, 0.0, 2022-02-27 11:15:49.557
70.0, -2580.7324148097537, -5923.256984145282, -1975.491878448949, -10906.623113944903, -663.3774236890583, 207.51359552307076, -5115.1073116192, -2019.033076647887, -3633.790151332635, -7543.82551238841, -4521.154406208326, -3727.2874983891847, -4671.82751558155, -3552.027470115122, -10157.3479363141, -14590.861152513166, 0.01415625, -0.10370312500000001, 0.9908125, 192.0, 0.0, 0.0, 0.0, 0.0, 0.0, 0.0, 0.0, 0.0, 0.0, 1.645920949565138E9, 0.0, 2022-02-27 11:15:49.565
72.0, -2779.350016039612, -6121.785178397319, -2178.222200658584, -11122.272744449705, -877.6859495265425, -17.680229864147886, -5299.240982442019, -2242.9752043456083, -3603.7717585291575, -7455.33495608985, -4419.968059059151, -3605.3587323854845, -4562.840409617474, -3452.7857247335587, -10046.148007648946, -14596.449088626992, 0.01415625, -0.10370312500000001, 0.9908125, 192.0, 0.0, 0.0, 0.0, 0.0, 0.0, 0.0, 0.0, 0.0, 0.0, 1.645920949573244E9, 0.0, 2022-02-27 11:15:49.573
74.0, -2729.840902071107, -6059.021479966817, -2136.6256042272576, -11066.683955989356, -837.765733929364, 32.72295388256954, -5236.343173544786, -2178.66923554769, -3832.0501246512085, -7713.877584204386, -4661.121029987458, -3893.8079945812224, -4829.094389569091, -3711.8424429705674, -10306.858754975648, -14772.916111101642, 0.01415625, -0.10370312500000001, 0.9908125, 192.0, 0.0, 0.0, 0.0, 0.0, 0.0, 0.0, 0.0, 0.0, 0.0, 1.645920949582584E9, 0.0, 2022-02-27 11:15:49.582
76.0, -2595.350455683524, -5934.008173228285, -2018.7201522255127, -10958.210940147752, -709.3326102891697, 144.74989709256855, -5152.345317881742, -2095.163118262663, -3479.1384314463658, -7362.016422988942, -4350.610596014332, -3541.030411843111, -4506.0893304454485, -3397.6663229067713, -9979.048070794115, -14487.126706496085, 0.014, -0.10200000000000001, 0.992, 192.0, 0.0, 56.0, 126.0, 104.0, 15.5, 0.0, 0.0, 0.0, 0.0, 1.645920949588748E9, 0.0, 2022-02-27 11:15:49.588
78.0, -2851.7920198192624, -6171.942492955029, -2273.8429634383874, -11205.510640801269, -976.6594739746421, -112.31751588791799, -5401.254344136041, -2313.2043854241833, -3787.816022374156, -7634.46183615468, -4581.481764493199, -3790.3417694976056, -4738.70393499183, -3645.3683549604843, -10224.380817935566, -14759.348602217271, 0.014, -0.10200000000000001, 0.992, 192.0, 0.0, 0.0, 0.0, 0.0, 0.0, 0.0, 0.0, 0.0, 0.0, 1.645920949602764E9, 0.0, 2022-02-27 11:15:49.602
80.0, -2517.8346059125192, -5850.569111176624, -1973.7484423814349, -10894.217895772206, -662.6398161220332, 203.44557803220488, -5099.7069596894935, -2012.3499050557502, -3610.343171399018, -7528.089884291874, -4499.920248975784, -3708.2214603688076, -4667.983015535237, -3576.27911284913, -10150.307136810678, -14590.101193201685, 0.014, -0.10200000000000001, 0.992, 192.0, 0.0, 0.0, 0.0, 0.0, 0.0, 0.0, 0.0, 0.0, 0.0, 1.64592094961003E9, 0.0, 2022-02-27 11:15:49.610
82.0, -2723.671820601442, -6056.182808420994, -2181.8431832603437, -11115.142537968462, -891.2981618998244, -27.24677649101931, -5315.982439039045, -2243.7128119126337, -3599.7931480161133, -7442.0133163944865, -4406.2440879635915, -3578.6931012503032, -4570.104726565448, -3467.403765607329, -10049.567824550608, -14605.143917220106, 0.014, -0.10200000000000001, 0.992, 192.0, 0.0, 0.0, 0.0, 0.0, 0.0, 0.0, 0.0, 0.0, 0.0, 1.64592094961746E9, 0.0, 2022-02-27 11:15:49.617
84.0, -2651.8556656665405, -5984.076080808173, -2131.7752756804557, -11058.838493685544, -842.0349171203277, 27.336183468840538, -5261.533589545917, -2185.9782559845753, -3798.0978248235974, -7688.463650758702, -4642.2114541782685, -3865.2871686562503, -4827.976802346326, -3730.2602804017406, -10311.2844003778, -14776.425334981124, 0.014, -0.10200000000000001, 0.992, 192.0, 0.0, 0.0, 0.0, 0.0, 0.0, 0.0, 0.0, 0.0, 0.0, 1.645920949625477E9, 0.0, 2022-02-27 11:15:49.625
86.0, -2518.460454757268, -5862.504942715757, -2010.9193934106106, -10948.957317943254, -714.8087876807199, 145.06282151494284, -5171.389004157663, -2085.6189233802465, -3452.2492828666313, -7340.35758261175, -4317.731179920576, -3501.579582879494, -4496.075748929471, -3397.1075292953888, -9984.300730741112, -14492.178200742985, 0.014, -0.10400000000000001, 0.994, 192.0, 0.0, 56.0, 126.0, 96.0, 15.5, 8.0, 0.0, 0.0, 0.0, 1.645920949633376E9, 0.0, 2022-02-27 11:15:49.633
88.0, -2779.8194026731735, -6108.150614279582, -2277.799222206977, -11211.16563214846, -992.0151224154381, -125.70621081664692, -5410.552669829449, -2333.499769389602, -3762.9608825398545, -7614.926411500742, -4551.7539443676405, -3754.2213504578294, -4738.346307080545, -3632.113770498487, -10227.197137736934, -14770.792695378388, 0.014, -0.10400000000000001, 0.994, 192.0, 0.0, 0.0, 0.0, 0.0, 0.0, 0.0, 0.0, 0.0, 0.0, 1.645920949640032E9, 0.0, 2022-02-27 11:15:49.640
90.0, -2446.7784102890982, -5788.341854613049, -1968.875762090178, -10899.425852230293, -670.8876098260415, 192.04618835999827, -5116.113140119689, -2034.5898907887806, -3597.982656715233, -7513.8071195849325, -4483.782289479052, -3698.654913741936, -4677.281341228645, -3570.7582319686694, -10164.098163139603, -14605.300379431294, 0.014, -0.10400000000000001, 0.994, 192.0, 0.0, 0.0, 0.0, 0.0, 0.0, 0.0, 0.0, 0.0, 0.0, 1.645920949648144E9, 0.0, 2022-02-27 11:15:49.648
92.0, -2646.223026063803, -5983.249066263326, -2175.5176395794915, -11113.15323271194, -893.086301456249, -30.040744547932693, -5323.000886798011, -2252.3852887612925, -3579.453060561784, -7415.884127126233, -4374.348148625869, -3564.700909221281, -4559.085316548982, -3469.773050519592, -10050.193673395357, -14615.537478391825, 0.014, -0.10400000000000001, 0.994, 192.0, 0.0, 0.0, 0.0, 0.0, 0.0, 0.0, 0.0, 0.0, 0.0, 1.645920949655216E9, 0.0, 2022-02-27 11:15:49.655
94.0, -2592.13180448196, -5924.262812645771, -2135.195092582118, -11057.832665185055, -857.345862072213, 21.45767467709478, -5269.5802175498275, -2211.280430707983, -3770.1357925100083, -7666.84951387042, -4621.290221368101, -3854.2230551508733, -4827.373305246032, -3736.3176031491284, -10311.932600967002, -14777.408811737158, 0.014, -0.10400000000000001, 0.994, 192.0, 0.0, 0.0, 0.0, 0.0, 0.0, 0.0, 0.0, 0.0, 0.0, 1.645920949662984E9, 0.0, 2022-02-27 11:15:49.662
96.0, -2437.301270640048, -5775.064918406596, -1998.7823961713789, -10937.267355593129, -709.9808108783735, 155.34462396438408, -5157.575626084284, -2088.390539692705, -3437.8771111818687, -7310.138024108175, -4295.960580821107, -3478.1996581792428, -4490.308998860001, -3395.0064653165896, -9979.763326616685, -14494.860410077621, 0.012, -0.10400000000000001, 0.996, 192.0, 0.0, 48.0, 126.0, 96.0, 15.5, 16.0, 0.0, 0.0, 0.0, 1.645920949670073E9, 0.0, 2022-02-27 11:15:49.670
98.0, -2707.2656401712466, -6046.593910049666, -2271.048995381474, -11204.013073922762, -996.7983957288737, -121.14645494776428, -5419.091036211376, -2336.494903146613, -3732.204882169352, -7585.198591375183, -4530.855063301929, -3734.9764984818103, -4730.970231410293, -3636.986450789744, -10218.368198677088, -14761.762590618444, 0.012, -0.10400000000000001, 0.996, 192.0, 0.0, 0.0, 0.0, 0.0, 0.0, 0.0, 0.0, 0.0, 0.0, 1.645920949677937E9, 0.0, 2022-02-27 11:15:49.677
100.0, -2368.726118651166, -5730.875519618455, -1952.0225467708765, -10888.473497447194, -664.8749905675639, 207.75946471207914, -5109.519375505373, -2040.8930827251772, -3560.61053998596, -7477.172610422685, -4461.162324090281, -3670.5140674727045, -4665.993710278715, -3583.2975606080963, -10160.63364274903, -14599.824202039743, 0.012, -0.10400000000000001, 0.996, 192.0, 0.0, 0.0, 0.0, 0.0, 0.0, 0.0, 0.0, 0.0, 0.0, 1.645920949685701E9, 0.0, 2022-02-27 11:15:49.685
102.0, -2575.3456443960245, -5923.100521934095, -2162.508924306503, -11110.023988488198, -887.6548275536094, -16.227366474552927, -5327.8065118559025, -2247.378498003304, -3553.793257927091, -7399.880278096232, -4351.728183237098, -3539.063458331044, -4541.740362851663, -3463.3580998609186, -10044.98571693727, -14613.190545224017, 0.012, -0.10400000000000001, 0.996, 192.0, 0.0, 0.0, 0.0, 0.0, 0.0, 0.0, 0.0, 0.0, 0.0, 1.645920949692302E9, 0.0, 2022-02-27 11:15:49.692
104.0, -2531.133893863427, -5874.016091110241, -2127.997830867509, -11065.05227864412, -855.2671498378694, 11.019410016466383, -5272.307130373375, -2196.3271136673825, -3741.637318329492, -7648.6551938838, -4605.91222118285, -3830.239633350329, -4815.817453362639, -3727.7792367672014, -10310.90442072206, -14779.35341350477, 0.012, -0.10400000000000001, 0.996, 192.0, 0.0, 0.0, 0.0, 0.0, 0.0, 0.0, 0.0, 0.0, 0.0, 1.645920949700494E9, 0.0, 2022-02-27 11:15:49.700
106.0, -2369.2849122625485, -5725.46639746027, -1982.197401785541, -10929.176024100307, -702.157700319016, 162.6089409123589, -5169.533809367873, -2093.0397025394086, -3413.6254684478604, -7299.990332125465, -4274.078222999361, -3464.185114405765, -4479.334292332446, -3389.19501175821, -9981.082079539548, -14490.211247230918, 0.008, -0.106, 0.992, 192.0, 0.0, 32.0, 126.0, 88.0, 15.5, 0.0, 0.0, 0.0, 0.0, 1.645920949708469E9, 0.0, 2022-02-27 11:15:49.708
108.0, -2645.1501423299483, -5983.070252307684, -2257.995576619575, -11196.860515697064, -995.3678840837341, -114.12800718879787, -5429.372838660817, -2345.9720427956636, -3694.8327654400787, -7549.927538624709, -4492.74533900563, -3690.2506578267407, -4705.802167153617, -3615.0593894790877, -10214.50134688632, -14759.572119661823, 0.008, -0.106, 0.992, 192.0, 0.0, 0.0, 0.0, 0.0, 0.0, 0.0, 0.0, 0.0, 0.0, 1.645920949721884E9, 0.0, 2022-02-27 11:15:49.721
110.0, -2317.0265337260407, -5663.932044974809, -1944.4453054005273, -10883.243189244651, -660.4716969098683, 205.7701594555568, -5099.885773645136, -2050.5937398187807, -3536.157731551854, -7466.220255639584, -4442.588024447921, -3651.716250385791, -4660.137553231425, -3568.9700924122444, -10162.175913116445, -14600.628864840135, 0.008, -0.106, 0.992, 192.0, 0.0, 0.0, 0.0, 0.0, 0.0, 0.0, 0.0, 0.0, 0.0, 1.645920949730137E9, 0.0, 2022-02-27 11:15:49.730
112.0, -2519.823911169042, -5858.25811126925, -2149.56726426688, -11095.093023192052, -879.2505716384139, -5.587936113826766, -5318.329372206852, -2244.338660757382, -3527.1946820252756, -7353.947443240577, -4325.844863157852, -3499.6573328563372, -4527.2787841890795, -3434.546701258028, -10030.971173163793, -14607.334388176727, 0.008, -0.106, 0.992, 192.0, 0.0, 0.0, 0.0, 0.0, 0.0, 0.0, 0.0, 0.0, 0.0, 1.645920949739394E9, 0.0, 2022-02-27 11:15:49.739
114.0, -2481.6694833838324, -5820.908346284431, -2118.0736563293526, -11051.305955804106, -854.9989289044057, 15.623869374259638, -5285.718177046559, -2203.926706782187, -3707.439149312872, -7611.931277743731, -4584.588656972487, -3795.7955951447007, -4806.161499757945, -3717.3409721065727, -10308.445728831975, -14773.564311690845, 0.008, -0.106, 0.992, 192.0, 0.0, 0.0, 0.0, 0.0, 0.0, 0.0, 0.0, 0.0, 0.0, 1.645920949745515E9, 0.0, 2022-02-27 11:15:49.745
116.0, -2322.0109727395743, -5675.465545113748, -1975.938913338055, -10920.034160618086, -704.0352468532618, 155.702251875669, -5167.9691872560015, -2089.3963681931937, -3386.378691956841, -7257.678479871569, -4256.2638826684815, -3438.3688495598853, -4467.309053815491, -3381.2601424765758, -9984.88187609695, -14488.177238485485, 0.01, -0.10400000000000001, 0.988, 192.0, 0.0, 40.0, 126.0, 96.0, 15.0, 112.0, 0.0, 0.0, 0.0, 1.645920949752778E9, 0.0, 2022-02-27 11:15:49.752
118.0, -2608.9179645678955, -5947.173350712461, -2255.179256818206, -11194.22300985134, -1000.2852678639017, -124.67803057170279, -5415.9170884987225, -2366.08861280544, -3673.7103669298135, -7535.376552984304, -4482.55294353401, -3673.956236118822, -4697.822594383072, -3613.04773247811, -10217.83175681016, -14768.915148844142, 0.01, -0.10400000000000001, 0.988, 192.0, 0.0, 0.0, 0.0, 0.0, 0.0, 0.0, 0.0, 0.0, 0.0, 1.645920949760805E9, 0.0, 2022-02-27 11:15:49.760
120.0, -2280.079100141418, -5627.990439890676, -1940.7572675654017, -10879.465744431704, -666.1713917459717, 196.1365575953195, -5119.510605276895, -2042.5694635593254, -3517.0693417870216, -7427.015295864975, -4438.162379045771, -3637.76876184568, -4649.095791470503, -3554.664975960848, -10167.96501493037, -14606.306207931782, 0.01, -0.10400000000000001, 0.988, 192.0, 0.0, 0.0, 0.0, 0.0, 0.0, 0.0, 0.0, 0.0, 0.0, 1.64592094976856E9, 0.0, 2022-02-27 11:15:49.768
122.0, -2492.979466078218, -5836.800436592154, -2140.112476362285, -11089.370976611493, -875.4060715921011, -20.250680476508197, -5338.870625361279, -2291.2996758579825, -3504.127681747399, -7337.965945955032, -4314.1996042966375, -3492.2365536971756, -4516.169967194792, -3429.4058000333075, -10042.817597725105, -14617.392673181615, 0.01, -0.10400000000000001, 0.988, 192.0, 0.0, 0.0, 0.0, 0.0, 0.0, 0.0, 0.0, 0.0, 0.0, 1.645920949774694E9, 0.0, 2022-02-27 11:15:49.774
124.0, -2479.8366403384975, -5828.552642888146, -2130.1659500796736, -11059.531397763658, -865.9959871764169, 9.857119304790414, -5281.6725113001485, -2202.049160247941, -3697.1796986078857, -7619.553222602991, -4583.135793582892, -3783.1445077829967, -4797.6454851204735, -3716.0669226726204, -10309.85388873266, -14783.086154828807, 0.01, -0.10400000000000001, 0.988, 192.0, 0.0, 0.0, 0.0, 0.0, 0.0, 0.0, 0.0, 0.0, 0.0, 1.645920949782424E9, 0.0, 2022-02-27 11:15:49.782
126.0, -2322.525062862046, -5683.355710906471, -1980.6551314181247, -10927.007904888142, -699.4978427288345, 157.82566759892316, -5159.631986574172, -2089.664589126657, -3386.8927820793133, -7281.684253416569, -4264.355214161303, -3439.486436782651, -4470.460649783689, -3389.3067704804866, -9982.82551560706, -14493.7204711104, 0.012, -0.106, 0.99, 192.0, 0.0, 48.0, 126.0, 88.0, 15.0, 120.0, 0.0, 0.0, 0.0, 1.645920949790359E9, 0.0, 2022-02-27 11:15:49.790
128.0, -2604.939354054851, -5944.357030911092, -2259.0684603534296, -11195.83233545212, -992.3503985822676, -122.68872531518046, -5442.783885334002, -2366.46859246118, -3670.8716953839894, -7541.813855387432, -4486.822126724974, -3675.7443756752464, -4697.4426147273325, -3607.0127614751773, -10214.099015486123, -14766.389401720691, 0.012, -0.106, 0.99, 192.0, 0.0, 0.0, 0.0, 0.0, 0.0, 0.0, 0.0, 0.0, 0.0, 1.645920949797285E9, 0.0, 2022-02-27 11:15:49.797
130.0, -2279.83323095241, -5636.886434183888, -1944.9817472674547, -10883.265540989107, -658.549446886712, 201.52332800904847, -5086.698244416505, -2028.9796029304987, -3508.374513193907, -7438.928775659654, -4435.524873200045, -3644.630747393459, -4660.226960209246, -3566.734917966714, -10170.691927753918, -14610.88831554512, 0.012, -0.106, 0.99, 192.0, 0.0, 0.0, 0.0, 0.0, 0.0, 0.0, 0.0, 0.0, 0.0, 1.64592094980501E9, 0.0, 2022-02-27 11:15:49.805
132.0, -2471.7900123345867, -5823.031762007686, -2140.9394909071316, -11082.419584085892, -862.3973563191124, -13.411046673184238, -5300.246810942508, -2253.704041684156, -3500.059664256533, -7336.289565120884, -4312.165595551204, -3481.2618471696196, -4519.075693973982, -3432.5350442570502, -10025.964382405804, -14609.100175988697, 0.012, -0.106, 0.99, 192.0, 0.0, 0.0, 0.0, 0.0, 0.0, 0.0, 0.0, 0.0, 0.0, 1.645920949812964E9, 0.0, 2022-02-27 11:15:49.812
134.0, -2474.628683880411, -5815.163947959417, -2131.5517582359025, -11059.687859974845, -864.8336964647409, -2.503395378994391, -5299.419796397662, -2221.472826179603, -3667.563637204604, -7594.273399624039, -4562.862761361928, -3779.1882490144076, -4798.897182809971, -3717.586841295581, -10308.1328044096, -14788.763497920454, 0.012, -0.106, 0.99, 192.0, 0.0, 0.0, 0.0, 0.0, 0.0, 0.0, 0.0, 0.0, 0.0, 1.645920949820989E9, 0.0, 2022-02-27 11:15:49.820
136.0, -2321.2286616836386, -5677.7901265371, -1971.8485441027337, -10914.043893104064, -694.9604386044072, 157.11041177635335, -5141.035335187356, -2092.8161850948554, -3377.840325574914, -7280.924294105089, -4254.654557067699, -3441.9227769282793, -4474.3275015744575, -3388.8150321024696, -9984.412489463388, -14495.709776366923, 0.012, -0.112, 0.988, 192.0, 0.0, 48.0, 126.0, 64.0, 15.0, 112.0, 0.0, 0.0, 0.0, 1.645920949827536E9, 0.0, 2022-02-27 11:15:49.827
138.0, -2610.013200046206, -5942.121856465561, -2257.079155096907, -11192.434870294914, -1001.8498899757732, -130.04244924097648, -5428.41171364924, -2350.732964364644, -3661.238093523752, -7522.591355155869, -4471.377071306357, -3668.9047418719224, -4697.532021705154, -3612.019552233166, -10202.721977558373, -14765.96471857604, 0.012, -0.112, 0.988, 192.0, 0.0, 0.0, 0.0, 0.0, 0.0, 0.0, 0.0, 0.0, 0.0, 1.645920949835636E9, 0.0, 2022-02-27 11:15:49.835
140.0, -2278.179201862717, -5628.437474779782, -1948.5803781247591, -10877.25292173063, -670.8652580815861, 193.7225691941463, -5087.726424661449, -2036.1992163895627, -3506.9440015487676, -7446.707182730101, -4432.216815020659, -3647.6482328949255, -4666.776021334651, -3574.9380081818117, -10170.669576009463, -14609.569562622257, 0.012, -0.112, 0.988, 192.0, 0.0, 0.0, 0.0, 0.0, 0.0, 0.0, 0.0, 0.0, 0.0, 1.645920949850469E9, 0.0, 2022-02-27 11:15:49.850
142.0, -2462.3799279189025, -5811.744131057755, -2136.3573832937936, -11077.636310772457, -873.5061733134, -13.433398417639545, -5315.535404149939, -2263.1364778442953, -3484.726367560192, -7327.9076609501435, -4293.0101505530065, -3479.45135586874, -4520.305039919024, -3426.2318523206536, -10026.232603339267, -14605.859173042676, 0.012, -0.112, 0.988, 192.0, 0.0, 0.0, 0.0, 0.0, 0.0, 0.0, 0.0, 0.0, 0.0, 1.645920949857242E9, 0.0, 2022-02-27 11:15:49.857
144.0, -2455.4508871377575, -5804.390407131959, -2131.70822044709, -11059.486694274747, -878.4012053491123, -7.621944859259709, -5294.614171339771, -2228.6253844053012, -3664.1885237918527, -7603.236449150616, -4553.273862990602, -3772.8403535891002, -4798.494851409776, -3710.344876092062, -10309.496260821374, -14785.321329274337, 0.012, -0.112, 0.988, 192.0, 0.0, 0.0, 0.0, 0.0, 0.0, 0.0, 0.0, 0.0, 0.0, 1.645920949865304E9, 0.0, 2022-02-27 11:15:49.865
146.0, -2281.7778327200217, -5643.502550542659, -1967.3111399783065, -10912.032236103087, -704.1023020866278, 157.49039143209356, -5142.309384621309, -2104.1485195336963, -3353.074592718434, -7237.338392417239, -4236.080257425339, -3421.9179656407796, -4467.59962649341, -3376.678034863238, -9982.110259784491, -14495.285093222272, 0.01, -0.106, 0.976, 192.0, 0.0, 40.0, 126.0, 88.0, 15.0, 64.0, 0.0, 0.0, 0.0, 1.64592094987326E9, 0.0, 2022-02-27 11:15:49.873
148.0, -2578.676054319865, -5920.775940510744, -2251.9159021277314, -11197.352254075082, -1015.1268261822256, -136.01036501054347, -5437.955908531655, -2380.438432745747, -3635.9806222892553, -7500.19490721165, -4452.132219330338, -3659.405250478417, -4694.089853059037, -3604.9116974963786, -10202.766681047284, -14767.439933710091, 0.01, -0.106, 0.976, 192.0, 0.0, 0.0, 0.0, 0.0, 0.0, 0.0, 0.0, 0.0, 0.0, 1.645920949880212E9, 0.0, 2022-02-27 11:15:49.880
150.0, -2261.4377452656922, -5617.060436852031, -1942.388944910639, -10888.093517791453, -688.7913571347425, 173.7848131400124, -5124.740913479437, -2083.3390454458054, -3495.83518455448, -7449.992889165032, -4423.991373061106, -3644.4519334378165, -4670.128783002947, -3577.530810538627, -10176.369270845566, -14628.836766342733, 0.01, -0.106, 0.976, 192.0, 0.0, 0.0, 0.0, 0.0, 0.0, 0.0, 0.0, 0.0, 0.0, 1.645920949887888E9, 0.0, 2022-02-27 11:15:49.887
152.0, -2445.81728527752, -5802.535212342169, -2125.9414703776206, -11076.742240994245, -880.0999379277156, -25.369229956773516, -5332.634488658248, -2308.6669812997557, -3469.7506987751367, -7320.0398469018755, -4277.252170712015, -3468.4990010856395, -4511.833728770463, -3424.220195319676, -10027.059617884115, -14615.93980979202, 0.01, -0.106, 0.976, 192.0, 0.0, 0.0, 0.0, 0.0, 0.0, 0.0, 0.0, 0.0, 0.0, 1.645920949895858E9, 0.0, 2022-02-27 11:15:49.895
154.0, -2465.9338552872964, -5812.43703513587, -2143.152313608207, -11073.322424092583, -897.2884294138468, -20.496549665516575, -5302.459633643584, -2235.085038552885, -3676.3255210310845, -7590.898286211287, -4555.933720580783, -3773.108574522564, -4805.647409635474, -3709.49550980276, -10310.591496299685, -14794.753765434476, 0.01, -0.10500000000000001, 0.979, 192.0, 0.0, 40.0, 126.0, 96.0, 15.0, 88.0, 0.0, 0.0, 0.0, 1.64592094990275E9, 0.0, 2022-02-27 11:15:49.902
156.0, -2288.6174665233452, -5651.727992502212, -1972.228523758474, -10914.44622450426, -711.8583574126193, 153.8470570858785, -5153.552312082328, -2082.6684931121463, -3371.8277063164364, -7254.370421692183, -4250.072449454361, -3432.7138582126927, -4481.949446433717, -3389.5079361805842, -9986.111222041991, -14497.408508945528, 0.01, -0.10500000000000001, 0.979, 192.0, 0.0, 0.0, 0.0, 0.0, 0.0, 0.0, 0.0, 0.0, 0.0, 1.645920949909953E9, 0.0, 2022-02-27 11:15:49.909
158.0, -2588.13084222446, -5934.03052497274, -2253.122896328318, -11195.161783118461, -1006.0520179333708, -137.44087665568313, -5430.043390994477, -2375.4539937322133, -3651.0009945632214, -7511.370779439304, -4457.921321144262, -3651.313918985596, -4695.632123426452, -3602.8776887509453, -10200.866782768582, -14761.87434934072, 0.01, -0.10500000000000001, 0.979, 192.0, 0.0, 0.0, 0.0, 0.0, 0.0, 0.0, 0.0, 0.0, 0.0, 1.645920949917499E9, 0.0, 2022-02-27 11:15:49.917
160.0, -2270.02081513653, -5624.347105544461, -1945.875817045667, -10886.886523590867, -671.4240516929689, 189.74395868110165, -5124.450340801518, -2062.127239957719, -3514.677705130304, -7449.434095553648, -4431.747428387097, -3644.4072299489058, -4671.805163837095, -3569.3277203235293, -10179.520866813764, -14627.674475631056, 0.01, -0.10500000000000001, 0.979, 192.0, 0.0, 0.0, 0.0, 0.0, 0.0, 0.0, 0.0, 0.0, 0.0, 1.645920949925534E9, 0.0, 2022-02-27 11:15:49.925
162.0, -2460.01064300664, -5812.571145602602, -2129.9424326351204, -11075.065860160097, -872.5450483018218, -2.3916366567178557, -5325.951317066111, -2257.2579690525495, -3481.2618471696196, -7319.704570735046, -4284.762356848998, -3477.0820709564773, -4514.582993338465, -3425.3377825424413, -10026.009085894715, -14603.467536385959, 0.01, -0.10500000000000001, 0.979, 192.0, 0.0, 0.0, 0.0, 0.0, 0.0, 0.0, 0.0, 0.0, 0.0, 1.645920949932565E9, 0.0, 2022-02-27 11:15:49.932
164.0, -2481.5130211726455, -5833.984116790786, -2139.821903684366, -11070.506104291213, -877.7530047599083, -10.080636749343485, -5269.066127427355, -2237.700192654156, -3691.1000241160423, -7605.762196274066, -4565.612025929931, -3783.9938740722987, -4808.061398036647, -3708.8473092135564, -10305.003560185858, -14786.394213008192, 0.012, -0.10550000000000001, 0.9804999999999999, 192.0, 0.0, 56.0, 126.0, 88.0, 15.0, 88.0, 0.0, 0.0, 0.0, 1.645920949940152E9, 0.0, 2022-02-27 11:15:49.940
166.0, -2300.665056784756, -5663.082678685508, -1959.1751049965746, -10905.751395911146, -688.3666739900916, 169.13565029330854, -5124.6515065016165, -2076.0747284978306, -3377.773270341548, -7262.953491563022, -4253.358155889292, -3444.4708757961844, -4480.384824321845, -3381.6401221323163, -9978.936312071839, -14483.14809598304, 0.012, -0.10550000000000001, 0.9804999999999999, 192.0, 0.0, 0.0, 0.0, 0.0, 0.0, 0.0, 0.0, 0.0, 0.0, 1.645920949948011E9, 0.0, 2022-02-27 11:15:49.948
168.0, -2601.94422029784, -5944.93817626693, -2245.947986358164, -11191.585504005612, -996.6419335176867, -122.86753927082292, -5405.389416860273, -2351.8058480984987, -3661.9086458574116, -7503.324151435394, -4463.106925857893, -3663.450916224828, -4690.200649523813, -3589.7348630112247, -10188.439212851432, -14748.977392790008, 0.012, -0.10550000000000001, 0.9804999999999999, 192.0, 0.0, 0.0, 0.0, 0.0, 0.0, 0.0, 0.0, 0.0, 0.0, 1.645920949956118E9, 0.0, 2022-02-27 11:15:49.956
170.0, -2284.5941525213902, -5633.39956204886, -1938.0080029973988, -10881.34329096595, -666.2831504682482, 204.33964781041718, -5084.686587415527, -2042.1447804146744, -3531.7320861497033, -7449.344688575828, -4447.483056483634, -3667.8765616269784, -4681.394062208422, -3585.7115490092697, -10175.989291189826, -14616.140975492119, 0.012, -0.10550000000000001, 0.9804999999999999, 192.0, 0.0, 0.0, 0.0, 0.0, 0.0, 0.0, 0.0, 0.0, 0.0, 1.645920949969853E9, 0.0, 2022-02-27 11:15:49.969
172.0, -2469.1972099777713, -5818.069674738607, -2114.8103016388777, -11068.628557756969, -852.4955335254114, 27.827921846857294, -5281.359586877774, -2241.8576171228433, -3487.229762939187, -7318.944611423566, -4291.46788018559, -3484.256980926631, -4514.381827638367, -3400.1697182857656, -10010.07229209808, -14583.149800676085, 0.012, -0.10550000000000001, 0.9804999999999999, 192.0, 0.0, 0.0, 0.0, 0.0, 0.0, 0.0, 0.0, 0.0, 0.0, 1.645920949977759E9, 0.0, 2022-02-27 11:15:49.977
174.0, -2495.8404893684974, -5845.048230296163, -2136.580900738347, -11071.936615936353, -878.825888493763, 11.578203627849058, -5279.929075232634, -2233.0063263185416, -3705.695713245358, -7591.367672844848, -4574.910351623339, -3786.8101938736672, -4811.592973660586, -3707.30503884614, -10297.582781026696, -14774.659547169156, 0.013000000000000001, -0.10575000000000001, 0.98425, 192.0, 0.0, 56.0, 126.0, 88.0, 15.0, 112.0, 0.0, 0.0, 0.0, 1.645920949985781E9, 0.0, 2022-02-27 11:15:49.985
176.0, -2307.7505597770883, -5667.843600254489, -1947.0157560128876, -10900.58814294197, -676.4308424509576, 194.72839769463513, -5111.374570295164, -2079.896876799688, -3390.6255234033497, -7269.033166054865, -4261.896522271219, -3450.2376258656536, -4489.951370948716, -3392.6595321487825, -9978.824553349561, -14479.124781981085, 0.013000000000000001, -0.10575000000000001, 0.98425, 192.0, 0.0, 0.0, 0.0, 0.0, 0.0, 0.0, 0.0, 0.0, 0.0, 1.645920949992356E9, 0.0, 2022-02-27 11:15:49.992
178.0, -2615.7128948823092, -5958.170408984472, -2238.2813380099938, -11187.7410039593, -985.7566339679521, -97.74417850305778, -5386.166916628709, -2328.112998975873, -3665.797849392635, -7509.023846271497, -4463.956292147194, -3659.919340600889, -4691.765271635684, -3583.677540263837, -10179.029128435746, -14732.951192015553, 0.013000000000000001, -0.10575000000000001, 0.98425, 192.0, 0.0, 0.0, 0.0, 0.0, 0.0, 0.0, 0.0, 0.0, 0.0, 1.645920950000382E9, 0.0, 2022-02-27 11:15:50.000
180.0, -2299.8156904954544, -5649.314004101039, -1935.7951802963235, -10882.930264822277, -665.6349498790444, 216.0966653939087, -5074.427136710541, -2037.517969312426, -3543.980842111211, -7470.869418486288, -4459.240074067125, -3675.051471597132, -4694.827460626061, -3587.6561507768815, -10177.330395857143, -14608.429623655036, 0.013000000000000001, -0.10575000000000001, 0.98425, 192.0, 0.0, 0.0, 0.0, 0.0, 0.0, 0.0, 0.0, 0.0, 0.0, 1.645920950008368E9, 0.0, 2022-02-27 11:15:50.008
182.0, -2473.2205239797263, -5814.515747370213, -2106.540156190414, -11062.213607098294, -845.0747543662494, 43.116515054287326, -5280.063185699366, -2229.7206198836116, -3492.147146719354, -7310.830928186289, -4295.781766865464, -3479.0490244685443, -4521.9367172642615, -3410.451520735207, -10007.07715834107, -14572.35390810417, 0.013000000000000001, -0.10575000000000001, 0.98425, 192.0, 0.0, 0.0, 0.0, 0.0, 0.0, 0.0, 0.0, 0.0, 0.0, 1.645920950015518E9, 0.0, 2022-02-27 11:15:50.015
184.0, -2510.97262036474, -5843.34949771756, -2139.8442554288217, -11077.837476472554, -884.3914728631346, 13.500453651005467, -5276.442203097607, -2224.378552958793, -3707.2603353572295, -7607.460928852669, -4577.2349330466905, -3795.728539911335, -4816.175081273924, -3702.231192854785, -10298.029815915801, -14772.290262256893, 0.013500000000000002, -0.106875, 0.9861249999999999, 192.0, 0.0, 56.0, 126.0, 80.0, 15.0, 112.0, 0.0, 0.0, 0.0, 1.645920950022169E9, 0.0, 2022-02-27 11:15:50.022
186.0, -2311.6844668012222, -5653.426725080815, -1947.9545292800105, -10896.765994640113, -673.3463017161253, 206.9771536561434, -5114.079131374256, -2059.0426992228868, -3401.1531950417993, -7278.48795395946, -4276.112231744794, -3466.576751062483, -4505.4411298562445, -3384.47879367814, -9980.724451628263, -14471.52518886628, 0.013500000000000002, -0.106875, 0.9861249999999999, 192.0, 0.0, 0.0, 0.0, 0.0, 0.0, 0.0, 0.0, 0.0, 0.0, 1.645920950030032E9, 0.0, 2022-02-27 11:15:50.030
188.0, -2614.483548937267, -5952.649528104011, -2238.1025240543513, -11184.388242291003, -985.6225235012203, -94.9502104461444, -5378.567323513905, -2335.153798479295, -3661.0145760791993, -7492.841183285855, -4461.095268856915, -3660.6792999123695, -4693.620466425475, -3586.0691769205546, -10171.451887065397, -14728.68200882459, 0.013500000000000002, -0.106875, 0.9861249999999999, 192.0, 0.0, 0.0, 0.0, 0.0, 0.0, 0.0, 0.0, 0.0, 0.0, 1.645920950037982E9, 0.0, 2022-02-27 11:15:50.037
190.0, -2301.335609118415, -5653.203207636262, -1932.3083081612956, -10877.67760487528, -664.2491417228152, 213.6826769927355, -5071.163782020067, -2040.960137958543, -3550.2840340476077, -7474.982139466065, -4461.207027579192, -3673.4421459963496, -4702.40470199641, -3600.4860520942275, -10177.77743074625, -14613.637580113123, 0.013500000000000002, -0.106875, 0.9861249999999999, 192.0, 0.0, 0.0, 0.0, 0.0, 0.0, 0.0, 0.0, 0.0, 0.0, 1.645920950046297E9, 0.0, 2022-02-27 11:15:50.046
192.0, -2458.3566139169475, -5806.603229833035, -2090.9162868161543, -11052.132970348952, -830.6131757036658, 47.162180800697904, -5267.367394848752, -2236.6273089203014, -3486.0227687386, -7315.234221843984, -4285.008226038007, -3462.3969748493405, -4508.548022335533, -3413.312544025486, -9996.571838447075, -14570.096381914185, 0.013500000000000002, -0.106875, 0.9861249999999999, 192.0, 0.0, 0.0, 0.0, 0.0, 0.0, 0.0, 0.0, 0.0, 0.0, 1.645920950052728E9, 0.0, 2022-02-27 11:15:50.052
194.0, -2500.5120039596563, -5834.945241802364, -2132.244662314017, -11074.976453182275, -875.6295890366541, 14.349819940307134, -5275.972816464045, -2228.1336460272846, -3695.6150764960144, -7599.548411315491, -4561.834581116985, -3780.372891470539, -4804.149842756969, -3695.726835218291, -10291.65956874604, -14774.234864024505, 0.01175, -0.1094375, 0.9860625, 192.0, 0.0, 40.0, 126.0, 64.0, 15.0, 104.0, 0.0, 0.0, 0.0, 1.645920950060655E9, 0.0, 2022-02-27 11:15:50.060
196.0, -2315.573670336446, -5673.990329979698, -1942.456000144005, -10894.486116705672, -671.4016999485135, 208.27355483455122, -5089.7827851513375, -2059.5344376009034, -3399.454462463196, -7284.455869729027, -4267.2385891960375, -3453.1433526448436, -4500.434339098256, -3400.1697182857656, -9977.97518706026, -14479.594168614647, 0.01175, -0.1094375, 0.9860625, 192.0, 0.0, 0.0, 0.0, 0.0, 0.0, 0.0, 0.0, 0.0, 0.0, 1.645920950067745E9, 0.0, 2022-02-27 11:15:50.067
198.0, -2615.2435082487477, -5948.670917590966, -2235.9120530977316, -11177.88388465451, -982.0238926439158, -91.73155924458018, -5379.483745036572, -2347.5143131630794, -3672.4139657514056, -7513.762416096022, -4460.849399667907, -3654.9349015873554, -4690.960608835293, -3589.1313659109314, -10167.96501493037, -14731.587735603778, 0.01175, -0.1094375, 0.9860625, 192.0, 0.0, 0.0, 0.0, 0.0, 0.0, 0.0, 0.0, 0.0, 0.0, 1.645920950075439E9, 0.0, 2022-02-27 11:15:50.075
200.0, -2305.895364987298, -5646.877663955411, -1945.071154245276, -10877.118811263897, -678.4648511963906, 216.7672177275679, -5085.066567071267, -2042.0777251813086, -3555.335528294507, -7473.57397956538, -4466.727908459653, -3677.2195908092967, -4705.891574131439, -3598.116767181965, -10180.593750547618, -14621.41598718357, 0.01175, -0.1094375, 0.9860625, 192.0, 0.0, 0.0, 0.0, 0.0, 0.0, 0.0, 0.0, 0.0, 0.0, 1.645920950083342E9, 0.0, 2022-02-27 11:15:50.083
202.0, -2477.534410659601, -5823.925831785898, -2109.4011794806934, -11055.798656439621, -843.1972078320036, 37.6626894071924, -5264.796944236391, -2229.7876751169774, -3498.048007255555, -7315.8153671998225, -4297.815775610898, -3474.511620344117, -4527.994040011649, -3413.2454887921203, -10000.304579771111, -14574.209102893961, 0.01175, -0.1094375, 0.9860625, 192.0, 0.0, 0.0, 0.0, 0.0, 0.0, 0.0, 0.0, 0.0, 0.0, 1.64592095009739E9, 0.0, 2022-02-27 11:15:50.097
204.0, -2526.954117650285, -5861.387355492992, -2153.344709079827, -11075.468191560292, -893.8239090232742, 10.617078616270854, -5299.911534775679, -2239.510683955036, -3725.2311378992963, -7621.475472626147, -4585.929761639805, -3797.3155137676617, -4824.66874416694, -3714.301134860651, -10294.766461225327, -14783.26496878445, 0.013875, -0.10871875, 0.98703125, 192.0, 0.0, 64.0, 126.0, 80.0, 15.0, 112.0, 0.0, 0.0, 0.0, 1.645920950104909E9, 0.0, 2022-02-27 11:15:50.104
206.0, -2310.2539551560826, -5657.606501293958, -1947.3510321797173, -10884.204314256229, -682.6669791539883, 208.2064996011853, -5120.6058407552055, -2075.1136034862525, -3404.215384032176, -7286.400471496639, -4276.067528255883, -3455.1326579013657, -4511.163176436803, -3398.6050961738943, -9985.239504008236, -14480.331776181672, 0.013875, -0.10871875, 0.98703125, 192.0, 0.0, 0.0, 0.0, 0.0, 0.0, 0.0, 0.0, 0.0, 0.0, 1.645920950112847E9, 0.0, 2022-02-27 11:15:50.112
208.0, -2614.4611971928116, -5950.682574591944, -2237.6554891652454, -11177.615663721046, -985.2201921010247, -94.65963776822541, -5394.7276347550915, -2357.1032115344065, -3667.3848232489618, -7500.753700823034, -4459.508295000589, -3653.4149829643948, -4694.201611781313, -3591.8135752455682, -10166.556855029685, -14734.515814127424, 0.013875, -0.10871875, 0.98703125, 192.0, 0.0, 0.0, 0.0, 0.0, 0.0, 0.0, 0.0, 0.0, 0.0, 1.645920950121096E9, 0.0, 2022-02-27 11:15:50.121
210.0, -2319.2617081715716, -5664.066155441542, -1949.0497647583206, -10882.505581677626, -672.8098598491979, 208.96645891266573, -5098.142337577622, -2061.926074257621, -3567.986615656211, -7488.549648350436, -4473.142859118326, -3689.82597468209, -4713.871146901983, -3613.606526089493, -10185.153506416502, -14630.557850665791, 0.013875, -0.10871875, 0.98703125, 192.0, 0.0, 0.0, 0.0, 0.0, 0.0, 0.0, 0.0, 0.0, 0.0, 1.645920950129266E9, 0.0, 2022-02-27 11:15:50.129
212.0, -2484.9328380743073, -5824.842253308565, -2106.1154730457633, -11049.339002292038, -843.7560014433863, 38.80262837441306, -5243.428676537118, -2227.4854454380807, -3496.9751235217004, -7329.584041784292, -4295.334731976358, -3474.601027321938, -4524.171891709792, -3411.457349235696, -9993.375538989967, -14571.973928448431, 0.013875, -0.10871875, 0.98703125, 192.0, 0.0, 0.0, 0.0, 0.0, 0.0, 0.0, 0.0, 0.0, 0.0, 1.645920950135628E9, 0.0, 2022-02-27 11:15:50.135
214.0, -2548.3000336051027, -5881.3921667804925, -2153.702336991112, -11089.214514400306, -895.6344003241541, -6.102026236298828, -5273.111793173765, -2257.5485417304685, -3729.4556176013493, -7628.695086085211, -4588.075529107515, -3813.207604075385, -4829.3402587580995, -3716.536309306182, -10290.676091990006, -14783.063803084351, 0.0159375, -0.10835937500000001, 0.984515625, 192.0, 0.0, 72.0, 126.0, 80.0, 15.0, 88.0, 0.0, 0.0, 0.0, 1.645920950143553E9, 0.0, 2022-02-27 11:15:50.143
216.0, -2338.2159874696717, -5690.910600532366, -1947.7980670688235, -10893.323825993995, -667.3560342021029, 195.2871913060178, -5071.7672791203595, -2063.31188241385, -3411.032666091045, -7304.594791483259, -4287.645731883733, -3475.3386348889635, -4510.3138101475015, -3415.033628348545, -9975.136515514436, -14485.96441578441, 0.0159375, -0.10835937500000001, 0.984515625, 192.0, 0.0, 0.0, 0.0, 0.0, 0.0, 0.0, 0.0, 0.0, 0.0, 1.645920950149699E9, 0.0, 2022-02-27 11:15:50.149
218.0, -2659.142334358971, -5990.6921971669435, -2246.283262524994, -11184.030614379719, -988.5729537693207, -104.56146056192644, -5389.832602719379, -2348.140162007828, -3678.471288498794, -7528.87219534781, -4473.2769695850575, -3666.8707331264895, -4695.319199004078, -3593.4899560797166, -10158.86785493706, -14739.76847407442, 0.0159375, -0.10835937500000001, 0.984515625, 192.0, 0.0, 0.0, 0.0, 0.0, 0.0, 0.0, 0.0, 0.0, 0.0, 1.645920950157287E9, 0.0, 2022-02-27 11:15:50.157
220.0, -2379.9466943677303, -5727.388647483426, -1958.2810352183624, -10888.786421869567, -677.9284093294632, 212.58744151442548, -5083.703110659494, -2039.4402193355822, -3589.3548833554846, -7518.813910342921, -4494.734644262153, -3710.277820858696, -4723.325934806578, -3627.084627996043, -10193.468355353876, -14638.716237391978, 0.0159375, -0.10835937500000001, 0.984515625, 192.0, 0.0, 0.0, 0.0, 0.0, 0.0, 0.0, 0.0, 0.0, 0.0, 1.645920950165367E9, 0.0, 2022-02-27 11:15:50.165
222.0, -2572.596379828022, -5913.958658451875, -2109.6246969252466, -11050.590699981536, -832.4460187490009, 54.27003553748555, -5255.23039760952, -2237.6554891652454, -3516.3987894533625, -7356.406135130661, -4314.736046163564, -3499.255001456142, -4520.215632941203, -3417.514671983084, -9992.59322793403, -14574.678489527523, 0.0159375, -0.10835937500000001, 0.984515625, 192.0, 0.0, 0.0, 0.0, 0.0, 0.0, 0.0, 0.0, 0.0, 0.0, 1.645920950173163E9, 0.0, 2022-02-27 11:15:50.173
224.0, -2671.927532187406, -6008.6182962201, -2169.9520552101203, -11095.227133658784, -893.5556880898105, 7.6442966037150155, -5295.329427162341, -2230.7711518730107, -3758.1552574819634, -7664.971967336174, -4612.10365439697, -3833.6147467630803, -4817.136206285501, -3713.7870447381792, -10288.552676266752, -14787.556503719868, 0.01, -0.112, 0.984, 192.0, 0.0, 40.0, 126.0, 64.0, 15.0, 96.0, 0.0, 0.0, 0.0, 1.645920950179912E9, 0.0, 2022-02-27 11:15:50.179
226.0, -2481.714186872743, -5838.700334870856, -1964.3383579657507, -10899.202334785741, -666.2831504682482, 220.76817998506786, -5079.277465257343, -2040.3566408582499, -3453.098649155933, -7350.92995773911, -4324.816682912909, -3524.9371558352896, -4513.375999137878, -3412.440825991729, -9977.997538804715, -14481.58347387117, 0.01, -0.112, 0.984, 192.0, 0.0, 0.0, 0.0, 0.0, 0.0, 0.0, 0.0, 0.0, 0.0, 1.645920950187961E9, 0.0, 2022-02-27 11:15:50.187
228.0, -2809.323705354179, -6148.495513021411, -2263.0023673775636, -11192.189001105906, -978.9617036535387, -79.86278293881213, -5357.266111047997, -2324.2908506740155, -3723.1524256649527, -7569.194742345184, -4509.330333391468, -3710.7695592367127, -4696.839117627039, -3589.667807777859, -10156.63268049153, -14734.180537960594, 0.01, -0.112, 0.984, 192.0, 0.0, 0.0, 0.0, 0.0, 0.0, 0.0, 0.0, 0.0, 0.0, 1.645920950195876E9, 0.0, 2022-02-27 11:15:50.195
230.0, -2515.487672744712, -5866.461201484347, -1980.5657244403035, -10903.672683676801, -672.5863424046448, 215.38140957133885, -5077.534029189829, -2047.933882228599, -3641.590910147537, -7560.857541663354, -4539.214615728213, -3763.9220075514327, -4734.211234356312, -3626.0340960066437, -10189.310930885189, -14637.777464124854, 0.01, -0.112, 0.984, 192.0, 0.0, 0.0, 0.0, 0.0, 0.0, 0.0, 0.0, 0.0, 0.0, 1.645920950204212E9, 0.0, 2022-02-27 11:15:50.204
232.0, -2651.363927288524, -6003.5444502287455, -2123.639240698724, -11060.045487886131, -820.6442976765989, 57.17576231667547, -5246.468513783039, -2202.4961951370474, -3550.529903236616, -7388.525591912937, -4342.675726732698, -3539.085810075499, -4526.116493477403, -3428.019991877078, -9988.055823809604, -14571.102210414674, 0.01, -0.112, 0.984, 192.0, 0.0, 0.0, 0.0, 0.0, 0.0, 0.0, 0.0, 0.0, 0.0, 1.645920950217576E9, 0.0, 2022-02-27 11:15:50.217
234.0, -2709.1431867054926, -6045.699840271454, -2193.287276421461, -11114.114357723518, -894.0921299567378, -3.3304099238407523, -5297.542249863416, -2244.2939572684713, -3786.7654903847565, -7680.640540199344, -4632.331983129023, -3860.3474331316274, -4830.793122147694, -3737.1222659495197, -10290.676091990006, -14789.881085143219, 0.014, -0.112, 0.988, 192.0, 0.0, 56.0, 126.0, 64.0, 15.0, 112.0, 0.0, 0.0, 0.0, 1.6459209502255E9, 0.0, 2022-02-27 11:15:50.225
236.0, -2456.7696400606205, -5811.051226979641, -1974.3072359928176, -10902.286875520573, -662.3715951885695, 221.30462185199522, -5106.345427792719, -2054.997033476476, -3463.2016376497318, -7360.384745643705, -4332.818607427908, -3525.2277285132086, -4525.2224236991915, -3427.349439543419, -9991.050957566615, -14494.994520544353, 0.014, -0.112, 0.988, 192.0, 0.0, 0.0, 0.0, 0.0, 0.0, 0.0, 0.0, 0.0, 0.0, 1.645920950232657E9, 0.0, 2022-02-27 11:15:50.232
238.0, -2756.350070995101, -6094.448994928479, -2276.0557861394627, -11199.006283164774, -980.1686978541253, -89.60814352132601, -5375.102803123332, -2344.8321038284425, -3713.898803460456, -7561.841018419388, -4495.047568684527, -3696.084463129576, -4693.732225147752, -3596.7756625146467, -10156.051535135692, -14737.600354862256, 0.014, -0.112, 0.988, 192.0, 0.0, 0.0, 0.0, 0.0, 0.0, 0.0, 0.0, 0.0, 0.0, 1.64592095024017E9, 0.0, 2022-02-27 11:15:50.240
240.0, -2445.7725817886094, -5794.332122127071, -1990.8922303786553, -10906.265486033617, -676.6543598955107, 208.29590657900653, -5094.431947998041, -2068.832763294311, -3631.24205246473, -7551.089829336385, -4527.65876384482, -3746.442943387383, -4738.502769291731, -3643.5131601706935, -10192.998968720314, -14651.18851079804, 0.014, -0.112, 0.988, 192.0, 0.0, 0.0, 0.0, 0.0, 0.0, 0.0, 0.0, 0.0, 0.0, 1.645920950248164E9, 0.0, 2022-02-27 11:15:50.248
242.0, -2579.391310142435, -5924.508681834779, -2136.603252482802, -11062.370069309482, -828.2215390469479, 51.16314305819787, -5263.433487824618, -2201.1774422141843, -3529.608670426449, -7356.02615547492, -4321.173348566693, -3513.1801382517983, -4522.808435298019, -3425.427189520263, -9987.564085431586, -14573.046812182285, 0.014, -0.112, 0.988, 192.0, 0.0, 0.0, 0.0, 0.0, 0.0, 0.0, 0.0, 0.0, 0.0, 1.645920950255239E9, 0.0, 2022-02-27 11:15:50.255
244.0, -2636.030630592183, -5966.306443966204, -2201.020980002997, -11116.751863569245, -905.603278351221, -0.022351744455307063, -5316.0047907835, -2217.695381366656, -3766.4924581637933, -7662.915606846286, -4608.505023539666, -3842.555444545203, -4829.541424458197, -3730.953184479855, -10293.22419085791, -14787.198875808583, 0.01, -0.108, 0.988, 192.0, 0.0, 40.0, 126.0, 80.0, 15.0, 112.0, 0.0, 0.0, 0.0, 1.645920950262817E9, 0.0, 2022-02-27 11:15:50.262
246.0, -2380.6843019347552, -5733.311859764083, -1967.1546777671192, -10900.230515030684, -660.4940486543237, 223.96447944217678, -5105.272544058865, -2041.898911225666, -3434.904329169313, -7330.344001095772, -4302.219069268593, -3516.1305685198986, -4515.588821838954, -3417.022933605067, -9987.497030198221, -14484.176276227985, 0.01, -0.108, 0.988, 192.0, 0.0, 0.0, 0.0, 0.0, 0.0, 0.0, 0.0, 0.0, 0.0, 1.645920950269826E9, 0.0, 2022-02-27 11:15:50.269
248.0, -2687.260828883747, -6028.399590063047, -2267.048033123974, -11193.641864495501, -971.6079797277428, -79.25928583851885, -5377.740308969058, -2326.280155930538, -3685.892067657956, -7526.480558691092, -4466.102059614904, -3680.8852768999673, -4683.048091298115, -3596.306275881085, -10152.922290911949, -14732.034770492884, 0.01, -0.108, 0.988, 192.0, 0.0, 0.0, 0.0, 0.0, 0.0, 0.0, 0.0, 0.0, 0.0, 1.645920950278715E9, 0.0, 2022-02-27 11:15:50.278
250.0, -2387.8145084159983, -5726.829853872044, -1984.2984657643399, -10903.382110998882, -675.2685517392816, 217.66128750578017, -5096.1530323211, -2044.4470100935712, -3611.930145255345, -7544.92074786672, -4505.619943811887, -3740.0279927287097, -4732.93718492236, -3627.531662885149, -10197.73753854484, -14643.074827560762, 0.01, -0.108, 0.988, 192.0, 0.0, 0.0, 0.0, 0.0, 0.0, 0.0, 0.0, 0.0, 0.0, 1.645920950284931E9, 0.0, 2022-02-27 11:15:50.284
252.0, -2513.967754121751, -5864.516599716735, -2119.8170923968664, -11044.131045833952, -824.1535215560821, 62.9648641306, -5243.160455603655, -2215.348448198849, -3506.8769463154017, -7351.64521356168, -4298.195755266637, -3498.5620973780274, -4515.387656138856, -3411.2785352800533, -9985.194800519324, -14563.949652188976, 0.01, -0.108, 0.988, 192.0, 0.0, 0.0, 0.0, 0.0, 0.0, 0.0, 0.0, 0.0, 0.0, 1.645920950292519E9, 0.0, 2022-02-27 11:15:50.292
254.0, -2581.8276502880635, -5924.5980888126005, -2195.0754159778853, -11103.810203529622, -907.3020109298243, -4.380941913240184, -5328.342953722829, -2245.3668410023265, -3746.532350365204, -7647.112923516384, -4581.884095893395, -3806.0326941052313, -4823.886433111004, -3713.272954615707, -10290.296112334265, -14789.83638165431, 0.012, -0.106, 0.988, 192.0, 0.0, 48.0, 126.0, 88.0, 15.0, 112.0, 0.0, 0.0, 0.0, 1.645920950300385E9, 0.0, 2022-02-27 11:15:50.300
0.0, -2332.9633275226747, -5689.435385398315, -1957.4316689290606, -10884.025500300588, -650.7710398162651, 232.12286616836386, -5074.7624128773705, -2044.9611002160432, -3419.77219817307, -7322.16326262513, -4279.599103879822, -3496.5280886325945, -4519.701542818731, -3406.4058549887964, -9995.118975057481, -14485.96441578441, 0.012, -0.106, 0.988, 192.0, 0.0, 0.0, 0.0, 0.0, 0.0, 0.0, 0.0, 0.0, 0.0, 1.64592095030847E9, 0.0, 2022-02-27 11:15:50.308
2.0, -2634.510711969222, -5977.3705574715805, -2251.0665358384294, -11175.961634631352, -965.8635814027288, -77.15822185971999, -5361.177666327675, -2332.98567926713, -3663.450916224828, -7517.405750442237, -4434.407285977279, -3657.1253725439756, -4667.245407968212, -3552.698022448781, -10141.992287873303, -14723.116424455218, 0.012, -0.106, 0.988, 192.0, 0.0, 0.0, 0.0, 0.0, 0.0, 0.0, 0.0, 0.0, 0.0, 1.645920950315063E9, 0.0, 2022-02-27 11:15:50.315
4.0, -2344.7426968506215, -5697.638475613413, -1973.7707941258902, -10893.368529482905, -676.4084907065023, 216.70016249420198, -5085.603008938195, -2052.9853764754985, -3589.444290333306, -7524.737122623578, -4480.250713855114, -3721.431341341894, -4726.790455197151, -3626.078799495554, -10201.917314757982, -14650.56266195329, 0.012, -0.106, 0.988, 192.0, 0.0, 0.0, 0.0, 0.0, 0.0, 0.0, 0.0, 0.0, 0.0, 1.645920950323023E9, 0.0, 2022-02-27 11:15:50.323
6.0, -2467.1855529767936, -5806.2008984328395, -2098.8511560977886, -11027.769568892667, -806.2721259918363, 86.52360278649364, -5236.924318900624, -2187.185250185162, -3480.2113151802205, -7323.839643459278, -4273.0500427544175, -3480.3007221580415, -4493.214725639192, -3385.1493460117995, -9973.88481782494, -14553.64549799508, 0.012, -0.106, 0.988, 192.0, 0.0, 0.0, 0.0, 0.0, 0.0, 0.0, 0.0, 0.0, 0.0, 1.64592095033117E9, 0.0, 2022-02-27 11:15:50.331
8.0, -2555.564350553078, -5898.982989666819, -2187.185250185162, -11100.546848839147, -905.0668364842936, 5.9902675140222925, -5303.0407789994215, -2237.2978612539605, -3724.02414369871, -7617.765083046566, -4560.113496793926, -3821.6342117350355, -4801.244115977778, -3694.7433584622577, -10280.506048262841, -14779.64398618269, 0.012, -0.1, 0.988, 192.0, 0.0, 48.0, 126.0, 112.0, 15.0, 112.0, 0.0, 0.0, 0.0, 1.645920950344836E9, 0.0, 2022-02-27 11:15:50.344
10.0, -2308.3540568773815, -5670.749327033678, -1952.4025264266165, -10871.53087515007, -650.391060160525, 237.44258134872692, -5080.886790858125, -2039.2167018910293, -3409.222174790165, -7314.273096832407, -4274.748775333021, -3491.4318908967844, -4508.100987446426, -3417.4029132608075, -9991.565047689086, -14484.958587283922, 0.012, -0.1, 0.988, 192.0, 0.0, 0.0, 0.0, 0.0, 0.0, 0.0, 0.0, 0.0, 0.0, 1.645920950352828E9, 0.0, 2022-02-27 11:15:50.352
12.0, -2613.008333803217, -5951.330775181148, -2256.1627335742396, -11168.049117094173, -972.2338285724913, -77.06881488189875, -5379.34963456984, -2340.719382848666, -3642.7084973703027, -7503.726482835589, -4420.459797437167, -3640.67448862487, -4654.147285717402, -3561.549313253083, -10143.288689051711, -14721.5741540878, 0.012, -0.1, 0.988, 192.0, 0.0, 0.0, 0.0, 0.0, 0.0, 0.0, 0.0, 0.0, 0.0, 1.645920950360729E9, 0.0, 2022-02-27 11:15:50.360
14.0, -2325.073161729951, -5679.1759346933295, -1981.7950703853453, -10887.735889880169, -693.3511130036251, 204.51846176605963, -5105.764282436881, -2057.0086904774535, -3587.4549850767835, -7527.754608125045, -4478.596684765421, -3709.4731580583048, -4724.93526040736, -3633.6560408659034, -10211.349750918122, -14655.837673644743, 0.012, -0.1, 0.988, 192.0, 0.0, 0.0, 0.0, 0.0, 0.0, 0.0, 0.0, 0.0, 0.0, 1.645920950367794E9, 0.0, 2022-02-27 11:15:50.367
16.0, -2445.012622477129, -5794.265066893705, -2098.9182113311545, -11021.600487423002, -819.3255447537357, 78.74519571604678, -5255.7891912209025, -2210.3193056964046, -3454.506809056617, -7310.518003763915, -4252.084106455339, -3450.2376258656536, -4487.31386510299, -3397.4651572066737, -9983.049033051615, -14560.127503887119, 0.012, -0.1, 0.988, 192.0, 0.0, 0.0, 0.0, 0.0, 0.0, 0.0, 0.0, 0.0, 0.0, 1.645920950375238E9, 0.0, 2022-02-27 11:15:50.375
18.0, -2542.622690513455, -5872.987910865297, -2189.889811264254, -11097.082328448574, -920.5342436473661, -10.170043727164714, -5320.363380952284, -2271.473678526125, -3704.2875533446736, -7613.495899855602, -4551.262205989624, -3784.5079641947705, -4798.159575242946, -3694.6763032288914, -10288.88795243358, -14786.662433941656, 0.014, -0.10200000000000001, 0.988, 192.0, 0.0, 56.0, 126.0, 104.0, 15.0, 112.0, 0.0, 0.0, 0.0, 1.645920950383282E9, 0.0, 2022-02-27 11:15:50.383
20.0, -2288.7739287345325, -5632.147864359363, -1944.4006019116166, -10873.028442028575, -665.2549702233041, 222.4445608192159, -5104.289067302831, -2056.74046954399, -3380.9695697986567, -7285.618160440703, -4263.595254849823, -3476.500925600639, -4500.36728386489, -3404.327142754453, -9993.263780267689, -14490.747689097845, 0.014, -0.10200000000000001, 0.988, 192.0, 0.0, 0.0, 0.0, 0.0, 0.0, 0.0, 0.0, 0.0, 0.0, 1.645920950390407E9, 0.0, 2022-02-27 11:15:50.390
22.0, -2601.7654063421974, -5934.74578079531, -2246.1268003138066, -11169.345518272581, -990.3834450702007, -84.60135276333723, -5408.317495383918, -2336.1596269797838, -3620.9155465263784, -7477.396127867238, -4410.245050221092, -3622.48016863825, -4649.609881592975, -3561.6163684864487, -10147.826093176138, -14722.222354677006, 0.014, -0.10200000000000001, 0.988, 192.0, 0.0, 0.0, 0.0, 0.0, 0.0, 0.0, 0.0, 0.0, 0.0, 1.645920950396907E9, 0.0, 2022-02-27 11:15:50.396
24.0, -2321.496882617102, -5662.993271707687, -1974.7542708819237, -10897.615360929414, -703.9458398754406, 197.36590354036136, -5122.103407633711, -2090.379844949227, -3564.209170843264, -7510.096730005352, -4471.824106195463, -3705.6063062675366, -4719.414379526899, -3627.8445873075234, -10218.68112309946, -14661.291499291838, 0.014, -0.10200000000000001, 0.988, 192.0, 0.0, 0.0, 0.0, 0.0, 0.0, 0.0, 0.0, 0.0, 0.0, 1.645920950405635E9, 0.0, 2022-02-27 11:15:50.405
26.0, -2448.566549845523, -5787.760709257211, -2092.9502955615876, -11024.126234546451, -831.5295972263333, 72.33024505737366, -5252.347022574785, -2198.249363690539, -3444.6943932407376, -7291.96605586601, -4250.988870977029, -3451.9140066998016, -4489.280818615058, -3390.156136769788, -9987.295864498123, -14555.858320696154, 0.014, -0.10200000000000001, 0.988, 192.0, 0.0, 0.0, 0.0, 0.0, 0.0, 0.0, 0.0, 0.0, 0.0, 1.645920950412917E9, 0.0, 2022-02-27 11:15:50.412
28.0, -2548.0318126716393, -5878.598198723579, -2183.8995437502317, -11104.368997141004, -934.5711391652989, -16.450883919105998, -5342.692773663137, -2268.8808761693094, -3707.819128968612, -7612.17714693274, -4550.435191444778, -3779.7693943702457, -4803.792214845684, -3695.659779984925, -10293.760632724838, -14784.270797284938, 0.014, -0.10200000000000001, 0.986, 192.0, 0.0, 56.0, 126.0, 104.0, 15.0, 104.0, 0.0, 0.0, 0.0, 1.645920950420015E9, 0.0, 2022-02-27 11:15:50.420
30.0, -2293.6913125147003, -5630.806759692045, -1934.8787587736558, -10873.900160062332, -669.5018016698125, 223.7856654865343, -5096.264791043376, -2064.384766147705, -3381.461308176674, -7301.957285637533, -4265.517504872979, -3479.1384314463658, -4507.698656046231, -3408.5963259454165, -10009.379388019966, -14487.573741385191, 0.014, -0.10200000000000001, 0.986, 192.0, 0.0, 0.0, 0.0, 0.0, 0.0, 0.0, 0.0, 0.0, 0.0, 1.645920950428214E9, 0.0, 2022-02-27 11:15:50.428
32.0, -2609.2532407347253, -5929.6495830595, -2235.1967972751618, -11173.748811930278, -987.1200903797258, -87.97646617608859, -5400.226163891097, -2367.4520692172136, -3626.4811308957496, -7460.833485225855, -4410.423864176734, -3627.978697774255, -4649.833399037529, -3563.6950807207922, -10149.860101921571, -14727.34090415727, 0.014, -0.10200000000000001, 0.986, 192.0, 0.0, 0.0, 0.0, 0.0, 0.0, 0.0, 0.0, 0.0, 0.0, 1.645920950435536E9, 0.0, 2022-02-27 11:15:50.435
34.0, -2347.3802026963476, -5682.573399850536, -1975.9165615935997, -10903.829145887988, -711.9924678793511, 187.15115632428603, -5135.335640351253, -2066.8211062933333, -3587.4102815878728, -7529.162768025729, -4490.3537023489125, -3713.563527293626, -4732.825426200084, -3628.2916221966298, -10230.885175572059, -14664.33133653776, 0.014, -0.10200000000000001, 0.986, 192.0, 0.0, 0.0, 0.0, 0.0, 0.0, 0.0, 0.0, 0.0, 0.0, 1.645920950443615E9, 0.0, 2022-02-27 11:15:50.443
36.0, -2450.779372546598, -5786.62077028999, -2080.2992081998837, -11024.103882801995, -826.7463239128977, 67.3905095327508, -5260.840685467802, -2199.1881369576618, -3456.451410824229, -7305.041826372365, -4261.248321682015, -3449.0082799206116, -4489.571391292977, -3388.390348957819, -9989.799259877118, -14555.299527084771, 0.016, -0.10400000000000001, 0.987, 192.0, 0.0, 72.0, 126.0, 88.0, 15.0, 112.0, 0.0, 0.0, 0.0, 1.645920950450511E9, 0.0, 2022-02-27 11:15:50.450
38.0, -2561.107583177994, -5891.584562252112, -2180.435023359659, -11109.95693325483, -933.5429589203547, -26.62092764627071, -5337.708334649603, -2273.731204716111, -3701.7171027323134, -7615.775777790043, -4549.4070111998335, -3768.370004698039, -4798.248982220767, -3696.5762015075925, -10290.98901641238, -14789.858733398765, 0.016, -0.10400000000000001, 0.987, 192.0, 0.0, 0.0, 0.0, 0.0, 0.0, 0.0, 0.0, 0.0, 0.0, 1.645920950465193E9, 0.0, 2022-02-27 11:15:50.465
40.0, -2303.8166527529543, -5645.000117421165, -1929.4472848710163, -10870.457991416215, -663.9809207893516, 226.84785447691138, -5105.272544058865, -2055.1758474321186, -3387.1610030127767, -7303.521907749404, -4273.98881602154, -3470.3318441309743, -4511.610211325909, -3410.5856312019387, -10006.920696129882, -14489.943026297455, 0.016, -0.10400000000000001, 0.987, 192.0, 0.0, 0.0, 0.0, 0.0, 0.0, 0.0, 0.0, 0.0, 0.0, 1.645920950473329E9, 0.0, 2022-02-27 11:15:50.473
42.0, -2630.777970645186, -5954.482371149346, -2229.0053640610413, -11166.730364171312, -985.9354479235946, -78.72284397159147, -5419.336905400384, -2357.4831911901465, -3621.988430260233, -7473.082241187363, -4410.44621592119, -3604.732883540736, -4642.814951278562, -3538.41525774184, -10139.712409938862, -14718.042578463863, 0.016, -0.10400000000000001, 0.987, 192.0, 0.0, 0.0, 0.0, 0.0, 0.0, 0.0, 0.0, 0.0, 0.0, 1.645920950479977E9, 0.0, 2022-02-27 11:15:50.479
44.0, -2394.765900941599, -5722.13598753643, -1975.1566022821191, -10907.137204067374, -719.7038197164321, 188.0452261024983, -5143.6728410330825, -2073.370167418738, -3589.9807322002334, -7518.545689409458, -4493.326484361468, -3711.8424429705674, -4735.395876812444, -3622.055485493599, -10230.818120338694, -14671.841522674744, 0.016, -0.10400000000000001, 0.987, 192.0, 0.0, 0.0, 0.0, 0.0, 0.0, 0.0, 0.0, 0.0, 0.0, 1.645920950487904E9, 0.0, 2022-02-27 11:15:50.487
46.0, -2539.1581701228824, -5879.671082457434, -2083.741376846001, -11025.713208402778, -822.6783064220317, 80.95801841712218, -5243.9874701485005, -2191.208564187117, -3474.0422337105556, -7317.402341056149, -4282.594237636833, -3467.44846909624, -4496.925115218773, -3384.411738444774, -9978.64573939392, -14551.477378782914, 0.016, -0.10400000000000001, 0.9864999999999999, 192.0, 0.0, 64.0, 126.0, 96.0, 15.0, 104.0, 0.0, 0.0, 0.0, 1.645920950495861E9, 0.0, 2022-02-27 11:15:50.495
48.0, -2692.6252475530205, -6025.538566772767, -2196.125947967285, -11122.58566887208, -946.1940462820586, -28.721991625069574, -5358.070773848388, -2287.1422513892953, -3747.426420143416, -7640.250937968605, -4589.751909941663, -3802.0540835921865, -4808.910764325949, -3696.4420910408608, -10290.56433326773, -14793.703233445078, 0.016, -0.10400000000000001, 0.9864999999999999, 192.0, 0.0, 0.0, 0.0, 0.0, 0.0, 0.0, 0.0, 0.0, 0.0, 1.645920950502595E9, 0.0, 2022-02-27 11:15:50.502
50.0, -2456.076735982506, -5810.224212434794, -1935.9963459964213, -10878.325805464483, -666.774888846265, 235.96736621467667, -5096.488308487929, -2059.020347478431, -3442.1462943728325, -7334.702591264558, -4321.978011367084, -3511.3025917175523, -4526.094141732949, -3409.9374306127347, -10014.810861922606, -14502.281189236784, 0.016, -0.10400000000000001, 0.9864999999999999, 192.0, 0.0, 0.0, 0.0, 0.0, 0.0, 0.0, 0.0, 0.0, 0.0, 1.645920950510424E9, 0.0, 2022-02-27 11:15:50.510
52.0, -2802.148795384025, -6133.586899469722, -2239.10835255484, -11181.750736445278, -979.7887181983851, -59.500343740027404, -5379.975483414589, -2337.1878072247277, -3677.241942553752, -7495.38928215376, -4456.043774610016, -3654.890198098445, -4651.465076382766, -3519.6844958882925, -10136.270241292745, -14716.254438907437, 0.016, -0.10400000000000001, 0.9864999999999999, 192.0, 0.0, 0.0, 0.0, 0.0, 0.0, 0.0, 0.0, 0.0, 0.0, 1.645920950517642E9, 0.0, 2022-02-27 11:15:50.517
54.0, -2560.593493055522, -5894.222068097838, -1987.6959309215465, -10915.384997771383, -710.4054940230244, 203.06559837646466, -5105.29489580332, -2061.0767079683196, -3669.0612040831097, -7573.329815069415, -4557.610101414932, -3772.9297605669217, -4756.026536944692, -3634.5948141330264, -10230.102864516124, -14674.009641886907, 0.016, -0.10400000000000001, 0.9864999999999999, 192.0, 0.0, 0.0, 0.0, 0.0, 0.0, 0.0, 0.0, 0.0, 0.0, 1.645920950525851E9, 0.0, 2022-02-27 11:15:50.525
56.0, -2658.3600233030347, -6001.778662416776, -2082.9590657900653, -11029.445949726814, -808.574355670733, 94.9502104461444, -5243.6968974705815, -2174.6906250346456, -3522.1655395228318, -7345.8114082588445, -4319.47461598809, -3493.3094374310303, -4497.036873941049, -3378.130898252833, -9979.964492316782, -14546.045904880275, 0.014, -0.10400000000000001, 0.98625, 192.0, 0.0, 48.0, 126.0, 96.0, 15.0, 104.0, 0.0, 0.0, 0.0, 1.645920950532162E9, 0.0, 2022-02-27 11:15:50.532
58.0, -2777.74069043883, -6093.778442594819, -2201.7138840811117, -11135.661439378435, -933.4312001980783, -19.893052565223286, -5324.543157165427, -2249.524265471013, -3783.233914760818, -7647.783475850043, -4616.551651543576, -3851.9655289608872, -4802.652275878462, -3684.1262798459866, -10288.642083244573, -14795.26785555695, 0.014, -0.10400000000000001, 0.98625, 192.0, 0.0, 0.0, 0.0, 0.0, 0.0, 0.0, 0.0, 0.0, 0.0, 1.645920950540124E9, 0.0, 2022-02-27 11:15:50.540
60.0, -2499.528527203623, -5846.501093685758, -1941.159598965597, -10877.543494408548, -653.0062142617959, 247.1879419312408, -5082.7419856479155, -2017.9601929140322, -3476.836201767469, -7352.583986828803, -4349.269491347014, -3543.958490366756, -4534.18547322577, -3428.668192466282, -10015.50376600072, -14497.162639756518, 0.014, -0.10400000000000001, 0.98625, 192.0, 0.0, 0.0, 0.0, 0.0, 0.0, 0.0, 0.0, 0.0, 0.0, 1.645920950548203E9, 0.0, 2022-02-27 11:15:50.548
62.0, -2793.610429002098, -6118.611230684666, -2236.560253686935, -11171.49128574029, -976.212439085536, -57.68985243914753, -5381.808326459924, -2312.8020540239877, -3688.9319049038777, -7513.96358179612, -4464.112754358382, -3661.573369690582, -4649.162846703869, -3533.4308187283063, -10137.320773282145, -14712.834622005776, 0.014, -0.10400000000000001, 0.98625, 192.0, 0.0, 0.0, 0.0, 0.0, 0.0, 0.0, 0.0, 0.0, 0.0, 1.645920950555258E9, 0.0, 2022-02-27 11:15:50.555
64.0, -2529.457513029279, -5869.165762563439, -1990.1546228116301, -10924.102178108953, -717.4239417819908, 202.70797046517976, -5131.088808904745, -2062.5295713579144, -3662.15451504642, -7582.851658207376, -4554.436153702278, -3770.0240337877317, -4755.981833455781, -3643.24493923723, -10236.093132030146, -14677.80943844431, 0.014, -0.10400000000000001, 0.98625, 192.0, 0.0, 0.0, 0.0, 0.0, 0.0, 0.0, 0.0, 0.0, 0.0, 1.645920950563148E9, 0.0, 2022-02-27 11:15:50.563
66.0, -2591.975342270773, -5921.6029550555895, -2071.64908309568, -11022.47220545676, -802.6287916456213, 102.25923088302982, -5259.432525567117, -2177.1269651802736, -3501.8031003240467, -7328.086474905786, -4304.23072626957, -3506.251097470653, -4489.705501759709, -3379.896686064802, -9981.953797573304, -14551.633840994102, 0.014, -0.10500000000000001, 0.985125, 192.0, 0.0, 56.0, 126.0, 88.0, 15.0, 96.0, 0.0, 0.0, 0.0, 1.645920950570826E9, 0.0, 2022-02-27 11:15:50.570
68.0, -2720.073189744138, -6038.8825582125855, -2197.467052634603, -11124.82084331761, -943.8918166031619, -21.480026421550086, -5325.258412987997, -2272.054823881963, -3768.615873887047, -7640.116827501873, -4599.921953668828, -3809.273697051251, -4807.524956169719, -3711.4848150592825, -10285.356376809643, -14794.798468923387, 0.014, -0.10500000000000001, 0.985125, 192.0, 0.0, 0.0, 0.0, 0.0, 0.0, 0.0, 0.0, 0.0, 0.0, 1.645920950578822E9, 0.0, 2022-02-27 11:15:50.578
70.0, -2428.248814135649, -5760.491581021736, -1927.0332964698432, -10866.881712303366, -657.0518800082065, 251.56888384448098, -5094.789575909326, -2032.131198898697, -3455.8926172128463, -7322.92322193661, -4334.696153962154, -3517.1363970203874, -4541.13686575137, -3436.0219163920783, -10018.454196268822, -14499.464869435415, 0.014, -0.10500000000000001, 0.985125, 192.0, 0.0, 0.0, 0.0, 0.0, 0.0, 0.0, 0.0, 0.0, 0.0, 1.645920950592497E9, 0.0, 2022-02-27 11:15:50.592
72.0, -2717.9497740208835, -6028.399590063047, -2220.6234598903015, -11168.406745005459, -963.0919650902707, -47.98919534554426, -5372.8899804222565, -2331.1081327328843, -3659.9640440897997, -7471.42821209767, -4440.598719191399, -3630.8173693200793, -4644.781904790629, -3526.479426202706, -10128.58124120012, -14709.638322548668, 0.014, -0.10500000000000001, 0.985125, 192.0, 0.0, 0.0, 0.0, 0.0, 0.0, 0.0, 0.0, 0.0, 0.0, 1.645920950600508E9, 0.0, 2022-02-27 11:15:50.600
74.0, -2463.855143052953, -5781.278703365172, -1981.39273898515, -10915.49675649366, -709.6008312226334, 202.37269429835015, -5123.288050089843, -2045.1175624272303, -3638.998107790722, -7549.033468846496, -4537.739400594163, -3773.756775111768, -4752.383202598477, -3646.217721249786, -10233.232108739867, -14676.04365063234, 0.014, -0.10500000000000001, 0.985125, 192.0, 0.0, 0.0, 0.0, 0.0, 0.0, 0.0, 0.0, 0.0, 0.0, 1.645920950608454E9, 0.0, 2022-02-27 11:15:50.608
76.0, -2540.029888156639, -5868.942245118886, -2066.128202215219, -11013.330341974539, -800.9077073225627, 108.49536758606048, -5231.872824653724, -2157.8821132042544, -3489.3531786624408, -7305.622971728203, -4293.792461608942, -3464.028652194578, -4498.467385586189, -3387.250409990598, -9973.750707358207, -14537.01580012033, 0.015, -0.10650000000000001, 0.9855625, 192.0, 0.0, 64.0, 126.0, 80.0, 15.0, 104.0, 0.0, 0.0, 0.0, 1.645920950615073E9, 0.0, 2022-02-27 11:15:50.615
78.0, -2669.4241368084117, -5984.366653486091, -2189.800404286433, -11129.15708174194, -939.1979502675474, -20.876529321256797, -5344.972651597578, -2266.9362744016976, -3753.662556846447, -7624.694123827711, -4588.9695988857275, -3795.102691066586, -4804.842746835083, -3689.1330706039753, -10279.209647084434, -14787.578855464322, 0.015, -0.10650000000000001, 0.9855625, 192.0, 0.0, 0.0, 0.0, 0.0, 0.0, 0.0, 0.0, 0.0, 0.0, 1.645920950623155E9, 0.0, 2022-02-27 11:15:50.623
80.0, -2376.9962640996296, -5708.769644352155, -1921.6912295450247, -10867.284043703563, -654.8167055626757, 255.61454959089156, -5092.755567163893, -2017.7366754694792, -3437.3406693149414, -7331.081608662797, -4326.2918980469585, -3509.4921004166727, -4535.370115681901, -3421.9850208741454, -10013.536812488654, -14495.48625892237, 0.015, -0.10650000000000001, 0.9855625, 192.0, 0.0, 0.0, 0.0, 0.0, 0.0, 0.0, 0.0, 0.0, 0.0, 1.6459209506311E9, 0.0, 2022-02-27 11:15:50.631
82.0, -2677.873096212518, -5984.076080808173, -2219.505872667536, -11166.059811837651, -964.9471598800612, -46.64809067822584, -5384.401128816739, -2307.9070219882756, -3649.1010962845203, -7474.736270277056, -4434.675506910742, -3616.0652179795766, -4639.886872754917, -3523.7525133791582, -10122.81449113065, -14699.937665455063, 0.015, -0.10650000000000001, 0.9855625, 192.0, 0.0, 0.0, 0.0, 0.0, 0.0, 0.0, 0.0, 0.0, 0.0, 1.64592095063765E9, 0.0, 2022-02-27 11:15:50.637
84.0, -2423.2643751221153, -5732.328383008049, -1978.5987709282365, -10918.022503617109, -706.6951044434434, 209.12292112385288, -5120.7175994774825, -2044.9163967271325, -3623.9330320278445, -7539.288108263983, -4533.447865658744, -3748.499303877271, -4753.724307265796, -3633.6113373769927, -10229.991105793846, -14668.354650539715, 0.015, -0.10650000000000001, 0.9855625, 192.0, 0.0, 0.0, 0.0, 0.0, 0.0, 0.0, 0.0, 0.0, 0.0, 1.64592095064485E9, 0.0, 2022-02-27 11:15:50.644
86.0, -2492.7335968892094, -5801.887011752965, -2049.587911318292, -11005.954266304287, -775.6949395769763, 126.04148698347653, -5202.815556861825, -2152.6518050017125, -3453.344518344941, -7283.852372628734, -4277.453336412113, -3466.9567307182233, -4480.384824321845, -3363.0434707455006, -9958.77503857315, -14523.425939491504, 0.014499999999999999, -0.10825000000000001, 0.9867812499999999, 192.0, 0.0, 56.0, 126.0, 72.0, 15.0, 112.0, 0.0, 0.0, 0.0, 1.645920950652851E9, 0.0, 2022-02-27 11:15:50.652
88.0, -2623.290136252658, -5928.911975492475, -2178.088090191852, -11126.698389851856, -914.2534034554247, -8.895994293212212, -5325.280764732453, -2259.0908120978847, -3716.1563296504414, -7603.772891017544, -4563.443906717766, -3778.6071036585695, -4784.2791419362, -3671.3634337620065, -10260.702402675439, -14774.436029724602, 0.014499999999999999, -0.10825000000000001, 0.9867812499999999, 192.0, 0.0, 0.0, 0.0, 0.0, 0.0, 0.0, 0.0, 0.0, 0.0, 1.645920950660771E9, 0.0, 2022-02-27 11:15:50.660
90.0, -2328.0682954869626, -5645.201283121262, -1905.0838834147316, -10858.477456388171, -627.614632560567, 275.2840847115618, -5068.816848852259, -2016.1497016131523, -3407.501090467106, -7318.139948623175, -4304.409540225213, -3507.569850393516, -4522.651973086831, -3424.7566371866033, -10004.394949006433, -14488.266645463305, 0.014499999999999999, -0.10825000000000001, 0.9867812499999999, 192.0, 0.0, 0.0, 0.0, 0.0, 0.0, 0.0, 0.0, 0.0, 0.0, 1.645920950667351E9, 0.0, 2022-02-27 11:15:50.667
92.0, -2629.973307844795, -5933.6952488059105, -2196.6176863453015, -11151.464122708336, -940.6731654015978, -26.196244501619876, -5369.671329220692, -2288.5280595455242, -3607.213927175275, -7446.148389118718, -4400.007951260562, -3599.279057893641, -4618.451549822277, -3514.1412632633765, -10102.250886231766, -14680.826923945777, 0.014499999999999999, -0.10825000000000001, 0.9867812499999999, 192.0, 0.0, 0.0, 0.0, 0.0, 0.0, 0.0, 0.0, 0.0, 0.0, 1.645920950675448E9, 0.0, 2022-02-27 11:15:50.675
94.0, -2393.0224648740846, -5703.31581870506, -1966.3276632222728, -10906.421948244804, -694.3792932485692, 222.62337477485835, -5115.129663363656, -2036.35567860075, -3601.625991061448, -7529.542747681469, -4508.726836291175, -3738.8433502725784, -4746.370583339999, -3649.77164861818, -10223.330285946166, -14665.828903416266, 0.014499999999999999, -0.10825000000000001, 0.9867812499999999, 192.0, 0.0, 0.0, 0.0, 0.0, 0.0, 0.0, 0.0, 0.0, 0.0, 1.645920950683512E9, 0.0, 2022-02-27 11:15:50.683
96.0, -2456.1214394714166, -5776.540133540647, -2035.126332655708, -10994.621931865446, -770.5540383522557, 141.1736179797194, -5248.591929506294, -2140.8724356737657, -3438.771180960081, -7287.048672085843, -4258.275539669459, -3448.15891363131, -4473.83576319644, -3369.704290593182, -9957.143361227914, -14512.227715519395, 0.014249999999999999, -0.109125, 0.990390625, 192.0, 0.0, 56.0, 126.0, 72.0, 15.5, 8.0, 0.0, 0.0, 0.0, 1.645920950690406E9, 0.0, 2022-02-27 11:15:50.690
98.0, -2596.043359761639, -5897.396015810492, -2174.7129767791007, -11123.859718306032, -921.18244423657, -6.77257856995804, -5317.591764639827, -2271.4960302705804, -3697.604381752537, -7598.006140948074, -4546.724801865197, -3766.2912924636953, -4782.46865063532, -3686.0261781246877, -10267.474981245397, -14779.062840826851, 0.014249999999999999, -0.109125, 0.990390625, 192.0, 0.0, 0.0, 0.0, 0.0, 0.0, 0.0, 0.0, 0.0, 0.0, 1.64592095069806E9, 0.0, 2022-02-27 11:15:50.698
100.0, -2303.1684521637503, -5618.4238932638045, -1896.880793199634, -10855.77289530908, -620.1715016569498, 277.2286864791735, -5072.169610520556, -1997.2848292928732, -3392.927753082246, -7283.405337739628, -4292.876040086275, -3502.2948387020638, -4520.305039919024, -3433.4738175241732, -10001.176297804868, -14488.400755930037, 0.014249999999999999, -0.109125, 0.990390625, 192.0, 0.0, 0.0, 0.0, 0.0, 0.0, 0.0, 0.0, 0.0, 0.0, 1.645920950712945E9, 0.0, 2022-02-27 11:15:50.712
102.0, -2612.4942436807446, -5916.864385231064, -2192.9743519990866, -11152.268785508728, -947.8927788606619, -30.376020714762298, -5350.58293945586, -2288.0363211675076, -3595.278095636141, -7447.981232164054, -4386.015759231539, -3593.8699357354567, -4613.288296853101, -3517.0022865536557, -10103.860211832549, -14683.57618851378, 0.014249999999999999, -0.109125, 0.990390625, 192.0, 0.0, 0.0, 0.0, 0.0, 0.0, 0.0, 0.0, 0.0, 0.0, 1.6459209507202E9, 0.0, 2022-02-27 11:15:50.720
104.0, -2382.85242114692, -5684.629760340424, -1970.0380528018538, -10917.419006516815, -698.8272903951753, 205.97132515565457, -5104.780805680848, -2054.6394055651913, -3595.7474822697027, -7523.306610978439, -4506.759882779108, -3745.303004420162, -4741.766123982206, -3647.6482328949255, -10225.967791791893, -14674.6131389872, 0.014249999999999999, -0.109125, 0.990390625, 192.0, 0.0, 0.0, 0.0, 0.0, 0.0, 0.0, 0.0, 0.0, 0.0, 1.645920950727572E9, 0.0, 2022-02-27 11:15:50.727
106.0, -2450.2652824241263, -5770.728679982267, -2033.8969867106662, -10992.342053931005, -768.7882505402864, 132.72465857561335, -5209.498728453962, -2138.2796333169504, -3425.427189520263, -7288.546238964348, -4254.296929156414, -3441.989832161645, -4466.571446248466, -3379.6955203647044, -9956.629271105441, -14520.810785390233, 0.012, -0.11, 0.992, 192.0, 0.0, 48.0, 126.0, 72.0, 15.5, 0.0, 0.0, 0.0, 0.0, 1.645920950735549E9, 0.0, 2022-02-27 11:15:50.735
108.0, -2595.5292696391666, -5891.875134930031, -2178.6468838032347, -11125.737264840278, -921.8753483146845, -17.12143625276521, -5339.004735828011, -2278.559181518457, -3700.979495165288, -7597.1567746587725, -4547.149485009848, -3749.0580974886534, -4771.628054574497, -3683.589837979059, -10260.523588719796, -14775.151285547172, 0.012, -0.11, 0.992, 192.0, 0.0, 0.0, 0.0, 0.0, 0.0, 0.0, 0.0, 0.0, 0.0, 1.64592095074271E9, 0.0, 2022-02-27 11:15:50.742
110.0, -2301.246202140594, -5613.126529827897, -1899.7641682343685, -10850.676697573268, -617.8916237225085, 275.4405469227489, -5084.6195321821615, -2002.2469165619514, -3393.7324158826373, -7299.63270421418, -4297.771072121986, -3489.6213995959047, -4514.091254960448, -3426.8129976764917, -10009.111167086503, -14489.406584430526, 0.012, -0.11, 0.992, 192.0, 0.0, 0.0, 0.0, 0.0, 0.0, 0.0, 0.0, 0.0, 0.0, 1.645920950750297E9, 0.0, 2022-02-27 11:15:50.750
112.0, -2603.911173809907, -5898.290085588705, -2195.187174700162, -11148.089009295585, -933.118275775704, -28.409067202695276, -5355.723840680581, -2285.8234984664323, -3593.2887903796186, -7423.886051641232, -4390.4861081226, -3581.1294413959317, -4604.280543837613, -3510.766149850625, -10098.316979207633, -14680.268130334394, 0.012, -0.11, 0.992, 192.0, 0.0, 0.0, 0.0, 0.0, 0.0, 0.0, 0.0, 0.0, 0.0, 1.645920950758337E9, 0.0, 2022-02-27 11:15:50.758
114.0, -2375.208124543205, -5684.182725451318, -1968.67459639008, -10910.914648880322, -686.355016989114, 209.30173507949533, -5119.644715743628, -2052.158361930652, -3602.4306538618393, -7530.950907582153, -4517.019333484093, -3740.2515101732624, -4739.2403768587565, -3663.2944540136405, -10224.604335380118, -14667.99702262843, 0.012, -0.11, 0.992, 192.0, 0.0, 0.0, 0.0, 0.0, 0.0, 0.0, 0.0, 0.0, 0.0, 1.64592095076524E9, 0.0, 2022-02-27 11:15:50.765
116.0, -2428.1817589022826, -5740.017383100675, -2023.6151842612248, -10978.953359002277, -748.5822735526889, 150.78486809550145, -5211.197461032565, -2141.677098474157, -3405.3329712549416, -7270.687195144558, -4238.583652804334, -3424.9578028867013, -4451.506370485588, -3358.5954735988944, -9950.214320446768, -14509.187878273473, 0.012, -0.10400000000000001, 0.99, 192.0, 0.0, 48.0, 126.0, 96.0, 15.0, 120.0, 0.0, 0.0, 0.0, 1.645920950772399E9, 0.0, 2022-02-27 11:15:50.772
118.0, -2596.9597812843062, -5889.461146528858, -2181.150279182229, -11122.205689216338, -914.0075342664164, -2.861023290279304, -5331.33808747984, -2244.5174747130245, -3697.7831957081794, -7585.176239630729, -4542.969708796705, -3755.4730481473266, -4766.375394627499, -3676.370224519995, -10253.102809560634, -14765.025945308918, 0.012, -0.10400000000000001, 0.99, 192.0, 0.0, 0.0, 0.0, 0.0, 0.0, 0.0, 0.0, 0.0, 0.0, 1.645920950780268E9, 0.0, 2022-02-27 11:15:50.780
120.0, -2295.054768926474, -5601.660084922324, -1898.9371536895221, -10843.702953303213, -610.3590858410699, 289.63390465186893, -5089.603971195695, -2001.6881229505686, -3398.2251165181538, -7300.906753648133, -4298.396920966736, -3501.4231206683066, -4517.265202673102, -3414.8771661373576, -10009.379388019966, -14480.175313970485, 0.012, -0.10400000000000001, 0.99, 192.0, 0.0, 0.0, 0.0, 0.0, 0.0, 0.0, 0.0, 0.0, 0.0, 1.645920950787915E9, 0.0, 2022-02-27 11:15:50.787
122.0, -2609.1861855013594, -5896.948980921386, -2196.818852045399, -11137.87426207951, -928.4020576956342, -22.821131088868512, -5338.557700938904, -2291.50084155808, -3595.5463165696046, -7432.178548834151, -4388.317988910436, -3581.75529024068, -4600.346636813479, -3522.9702023232226, -10093.936037294394, -14676.021298887885, 0.012, -0.10400000000000001, 0.99, 192.0, 0.0, 0.0, 0.0, 0.0, 0.0, 0.0, 0.0, 0.0, 0.0, 1.645920950795861E9, 0.0, 2022-02-27 11:15:50.795
124.0, -2389.110909594406, -5688.943647020298, -1984.6337419311694, -10914.625038459902, -700.2354502958597, 206.39600830030543, -5124.495044290429, -2065.3011876703727, -3615.305258668096, -7544.943099611176, -4521.422627141789, -3737.9045770054554, -4745.387106583966, -3651.984471319255, -10230.393437194043, -14674.434325031558, 0.012, -0.10400000000000001, 0.99, 192.0, 0.0, 0.0, 0.0, 0.0, 0.0, 0.0, 0.0, 0.0, 0.0, 1.645920950802564E9, 0.0, 2022-02-27 11:15:50.802
126.0, -2423.018505933107, -5731.747237652211, -2022.5646522718255, -10967.777486774623, -742.9943374388621, 159.5467519219818, -5188.21986773251, -2135.128037348752, -3411.7255701691593, -7260.718317117491, -4239.678888282644, -3420.86743365138, -4451.126390829849, -3357.2320171871206, -9948.87321577945, -14503.10820378163, 0.012, -0.108, 0.994, 192.0, 0.0, 48.0, 126.0, 80.0, 15.5, 8.0, 0.0, 0.0, 0.0, 1.64592095081055E9, 0.0, 2022-02-27 11:15:50.810
128.0, -2599.9549150413177, -5888.343559306092, -2190.247439175539, -11126.29605845166, -921.3389064477572, -9.074808248854668, -5324.900785076712, -2240.315346755427, -3698.721968975302, -7580.102393639374, -4539.616947128409, -3755.1377719804973, -4761.033327702681, -3672.3469105180397, -10247.850149613638, -14761.717887129533, 0.012, -0.108, 0.994, 192.0, 0.0, 0.0, 0.0, 0.0, 0.0, 0.0, 0.0, 0.0, 0.0, 1.645920950818518E9, 0.0, 2022-02-27 11:15:50.818
130.0, -2307.951725477186, -5618.468596752715, -1905.1732903925529, -10851.503712118116, -613.8459579760979, 283.08484352646394, -5063.653595883084, -1985.7289774094795, -3413.96074461469, -7317.625858500703, -4312.076188573384, -3514.923574319312, -4528.865758045406, -3437.3406693149414, -10013.022722366182, -14480.778811070779, 0.012, -0.108, 0.994, 192.0, 0.0, 0.0, 0.0, 0.0, 0.0, 0.0, 0.0, 0.0, 0.0, 1.64592095082567E9, 0.0, 2022-02-27 11:15:50.825
132.0, -2610.549641913133, -5906.314361848159, -2198.9199160241983, -11147.999602317763, -923.0823425152711, -20.720067110069646, -5347.408991743207, -2284.415338565748, -3600.016665460666, -7439.442865782126, -4390.664922078243, -3579.8777437064346, -4599.050235635071, -3510.8108533395357, -10090.51622039273, -14672.936758153053, 0.012, -0.108, 0.994, 192.0, 0.0, 0.0, 0.0, 0.0, 0.0, 0.0, 0.0, 0.0, 0.0, 1.645920950840152E9, 0.0, 2022-02-27 11:15:50.840
134.0, -2385.959313626208, -5693.682216844823, -1985.550163453837, -10922.425797274804, -695.4298252379687, 209.34643856840594, -5129.255965859409, -2053.4100596201492, -3615.662886579381, -7540.405695486748, -4522.383752153368, -3743.3136991636397, -4743.9342431943705, -3651.5821399190595, -10233.455626184419, -14676.468333776991, 0.012, -0.108, 0.994, 192.0, 0.0, 0.0, 0.0, 0.0, 0.0, 0.0, 0.0, 0.0, 0.0, 1.645920950848219E9, 0.0, 2022-02-27 11:15:50.848
136.0, -2430.4392850922686, -5743.526606980158, -2031.550053542859, -10984.183667204818, -740.0439071707615, 152.28243497400703, -5187.6387223766715, -2135.4633135155814, -3420.4651022511844, -7275.358709735717, -4245.691507541122, -3430.4786837671622, -4451.372260018857, -3361.300034677987, -9944.91695701086, -14504.248142748851, 0.008, -0.112, 0.99, 192.0, 0.0, 32.0, 126.0, 64.0, 15.0, 120.0, 0.0, 0.0, 0.0, 1.645920950854765E9, 0.0, 2022-02-27 11:15:50.854
138.0, -2604.6711331213874, -5898.64771349999, -2195.6789130781785, -11133.783892844189, -921.4506651700336, -12.136997239231736, -5346.20199754262, -2271.0713471259296, -3704.086387644576, -7594.966303702153, -4543.215577985714, -3765.419574429938, -4757.345289867555, -3672.302207029129, -10248.274832758289, -14771.418544223136, 0.008, -0.112, 0.99, 192.0, 0.0, 0.0, 0.0, 0.0, 0.0, 0.0, 0.0, 0.0, 0.0, 1.645920950864183E9, 0.0, 2022-02-27 11:15:50.864
140.0, -2304.576612064435, -5613.2606402946285, -1909.7553980058908, -10853.314203418995, -615.8352632326202, 284.3141894715058, -5067.185171507022, -1982.8008988858342, -3412.8878608808354, -7321.06802714682, -4315.071322330395, -3518.8798330879017, -4522.853138786929, -3435.0160878915895, -10014.810861922606, -14484.422145416993, 0.008, -0.112, 0.99, 192.0, 0.0, 0.0, 0.0, 0.0, 0.0, 0.0, 0.0, 0.0, 0.0, 1.645920950870762E9, 0.0, 2022-02-27 11:15:50.870
142.0, -2605.073464521583, -5905.308533347671, -2198.986971257564, -11146.747904628266, -918.7684558353968, -14.752151340502662, -5360.931797138667, -2283.6106757653565, -3598.407339859884, -7432.871452912266, -4387.0439394764835, -3591.5900578010155, -4592.165898342836, -3502.585411379983, -10084.302435434156, -14667.795856928333, 0.008, -0.112, 0.99, 192.0, 0.0, 0.0, 0.0, 0.0, 0.0, 0.0, 0.0, 0.0, 0.0, 1.64592095087799E9, 0.0, 2022-02-27 11:15:50.877
144.0, -2390.2508485616268, -5696.833812813022, -1992.5239077238928, -10925.487986265181, -699.1625665620049, 214.28617409302882, -5139.560120053306, -2037.4956175679706, -3618.412151147384, -7546.284204278494, -4521.646144586342, -3758.0658505041424, -4744.157760638924, -3647.447067194828, -10231.779245350272, -14674.970766898487, 0.008, -0.112, 0.99, 192.0, 0.0, 0.0, 0.0, 0.0, 0.0, 0.0, 0.0, 0.0, 0.0, 1.645920950886829E9, 0.0, 2022-02-27 11:15:50.886
146.0, -2429.5452153140563, -5736.016420843175, -2030.968908187021, -10979.400393891383, -732.4219623115018, 161.29018798949576, -5180.486164150973, -2128.0425343564193, -3416.419436504774, -7272.7882591233565, -4243.925719729152, -3436.8489309369247, -4450.701707685198, -3355.8462090308917, -9936.78092202913, -14497.96730255691, 0.006, -0.112, 0.992, 192.0, 0.0, 24.0, 126.0, 64.0, 15.5, 0.0, 0.0, 0.0, 0.0, 1.645920950892369E9, 0.0, 2022-02-27 11:15:50.892
148.0, -2608.3144674676023, -5897.463071043858, -2199.7469305690447, -11138.477759179803, -919.4166564246007, -6.705523336592119, -5349.130076066265, -2274.1335361163065, -3704.086387644576, -7594.586324046412, -4539.527540150588, -3770.4710686768376, -4755.713612522318, -3658.891160355945, -10240.07174254319, -14770.25625351146, 0.006, -0.112, 0.992, 192.0, 0.0, 0.0, 0.0, 0.0, 0.0, 0.0, 0.0, 0.0, 0.0, 1.645920950900447E9, 0.0, 2022-02-27 11:15:50.900
150.0, -2304.21898415315, -5614.154710072841, -1907.296706115807, -10849.201482439219, -617.2657748777599, 294.6853988987683, -5058.758563847371, -1972.5637999253036, -3413.804282403503, -7317.8270242008, -4312.478519973579, -3527.7534756366585, -4527.770522567096, -3428.802302933014, -10017.582478235065, -14485.450325661937, 0.006, -0.112, 0.992, 192.0, 0.0, 0.0, 0.0, 0.0, 0.0, 0.0, 0.0, 0.0, 0.0, 1.645920950907641E9, 0.0, 2022-02-27 11:15:50.907
152.0, -2603.911173809907, -5903.07335890214, -2196.572982856391, -11142.434017948392, -919.6401738691538, -9.298325693407739, -5329.326430478863, -2272.6136174933454, -3591.210078145275, -7421.226194051051, -4379.332587639402, -3578.0001971721886, -4587.628494218408, -3489.0402542400666, -10072.768935295217, -14656.552929467312, 0.006, -0.112, 0.992, 192.0, 0.0, 0.0, 0.0, 0.0, 0.0, 0.0, 0.0, 0.0, 0.0, 1.64592095091511E9, 0.0, 2022-02-27 11:15:50.915
154.0, -2398.051607376529, -5700.901830303887, -2000.4587770055268, -10931.83588169049, -708.5055957443233, 193.16377558276363, -5131.692306005038, -2049.677318296113, -3628.559843130093, -7549.659317691246, -4526.965859766706, -3762.4467924173828, -4749.388068841466, -3650.419849207384, -10230.236974982856, -14679.61992974519, 0.006, -0.112, 0.992, 192.0, 0.0, 0.0, 0.0, 0.0, 0.0, 0.0, 0.0, 0.0, 0.0, 1.645920950923074E9, 0.0, 2022-02-27 11:15:50.923
156.0, -2421.9456221992523, -5732.686010919334, -2028.5549197858477, -10977.165219445851, -733.8748257010968, 155.00934779755448, -5188.532792154884, -2107.4565777130815, -3420.7556749291034, -7269.301386988329, -4243.545740073412, -3441.900425183824, -4445.605509949388, -3364.0940027349, -9937.362067384967, -14497.54261941226, 0.01, -0.108, 0.992, 192.0, 0.0, 40.0, 126.0, 80.0, 15.5, 0.0, 0.0, 0.0, 0.0, 1.64592095093112E9, 0.0, 2022-02-27 11:15:50.931
158.0, -2602.5700691425886, -5895.7196349763435, -2200.7751108139887, -11142.992811559774, -919.8860430581622, -20.340087454329428, -5331.673363646671, -2248.4290299927034, -3701.605344010037, -7573.4415737916925, -4532.486740647166, -3762.424440672927, -4747.532874051675, -3659.0476225671323, -10237.568347164197, -14767.059954054352, 0.01, -0.108, 0.992, 192.0, 0.0, 0.0, 0.0, 0.0, 0.0, 0.0, 0.0, 0.0, 0.0, 1.645920950937997E9, 0.0, 2022-02-27 11:15:50.937
160.0, -2292.3949113362924, -5603.962314601221, -1901.9769909354438, -10839.94786023472, -603.2735828487376, 285.1412040163522, -5065.419383695053, -1977.7494046389347, -3408.350456756408, -7314.295448576862, -4304.498947203034, -3527.664068658837, -4520.37209515239, -3430.5010355116174, -10013.156832832914, -14490.457116419926, 0.01, -0.108, 0.992, 192.0, 0.0, 0.0, 0.0, 0.0, 0.0, 0.0, 0.0, 0.0, 0.0, 1.645920950945792E9, 0.0, 2022-02-27 11:15:50.945
162.0, -2579.9277520093624, -5876.4077277669585, -2187.185250185162, -11128.754750341745, -910.3641999202014, -16.316773452374157, -5358.651919204226, -2281.017873408541, -3585.1751071423423, -7407.70338865559, -4363.775773498509, -3565.863199932957, -4571.71405216623, -3482.8935245148573, -10072.187789939378, -14660.576243469268, 0.01, -0.108, 0.992, 192.0, 0.0, 0.0, 0.0, 0.0, 0.0, 0.0, 0.0, 0.0, 0.0, 1.645920950961372E9, 0.0, 2022-02-27 11:15:50.961
164.0, -2371.989473341641, -5679.287693415606, -1991.3392652677614, -10931.880585179399, -709.7349416893652, 184.98303711212125, -5158.447344118041, -2074.1301267302188, -3614.634706334437, -7531.800273871455, -4508.2574496576135, -3750.2203882003296, -4735.574690768086, -3643.691974126336, -10235.959021563414, -14693.701528752033, 0.01, -0.108, 0.992, 192.0, 0.0, 0.0, 0.0, 0.0, 0.0, 0.0, 0.0, 0.0, 0.0, 1.645920950967411E9, 0.0, 2022-02-27 11:15:50.967
166.0, -2407.6628574923106, -5719.833757857533, -2017.1108266247306, -10968.269225152639, -735.5959100241554, 149.93550180619977, -5209.208155776043, -2112.776292893445, -3410.2727067795645, -7251.174122235075, -4226.379600331736, -3428.019991877078, -4437.2906610120135, -3351.3088049064645, -9939.798407530596, -14501.364767714116, 0.01, -0.108, 0.99, 192.0, 0.0, 40.0, 126.0, 80.0, 15.0, 120.0, 0.0, 0.0, 0.0, 1.64592095097533E9, 0.0, 2022-02-27 11:15:50.975
168.0, -2592.8917637934405, -5888.343559306092, -2198.763453813011, -11134.38738994448, -927.6197466396984, -29.99604105902208, -5372.867628677801, -2270.959588403653, -3697.7384922192687, -7555.403716016259, -4516.4158363838005, -3756.7470975812794, -4741.654365259929, -3649.883407340456, -10242.150454777535, -14771.239730267494, 0.01, -0.108, 0.99, 192.0, 0.0, 0.0, 0.0, 0.0, 0.0, 0.0, 0.0, 0.0, 0.0, 1.645920950983352E9, 0.0, 2022-02-27 11:15:50.983
170.0, -2266.466887768136, -5582.8175643465, -1890.0635111407653, -10835.47751134366, -603.161824126461, 286.6834743837684, -5094.767224164871, -2001.7775299283899, -3410.384465501841, -7307.142890351163, -4296.117043032294, -3520.2656412441306, -4518.651010829331, -3428.802302933014, -10023.572745749087, -14498.481392679381, 0.01, -0.108, 0.99, 192.0, 0.0, 0.0, 0.0, 0.0, 0.0, 0.0, 0.0, 0.0, 0.0, 1.645920950990076E9, 0.0, 2022-02-27 11:15:50.990
172.0, -2568.1483826814156, -5869.92572187492, -2175.3611773683047, -11125.804320073643, -903.278696927869, -20.071866520865743, -5350.694698178137, -2285.443518810692, -3565.3267580660295, -7386.111603511764, -4337.624232485799, -3546.595996212482, -4556.939549081272, -3473.7293092881814, -10067.449220114853, -14663.325508037271, 0.01, -0.108, 0.99, 192.0, 0.0, 0.0, 0.0, 0.0, 0.0, 0.0, 0.0, 0.0, 0.0, 1.645920950998025E9, 0.0, 2022-02-27 11:15:50.998
174.0, -2371.698900663722, -5679.466507371248, -1983.58320994177, -10925.711503709736, -700.8836508850636, 183.79839465598997, -5156.435687117063, -2068.475135383026, -3607.9291829978447, -7540.070419319919, -4498.802661753019, -3742.1290567075084, -4732.3113360776115, -3645.6812793828585, -10233.030943039768, -14690.57228452829, 0.01, -0.10600000000000001, 0.992, 192.0, 0.0, 40.0, 126.0, 96.0, 15.5, 8.0, 0.0, 0.0, 0.0, 1.645920951006003E9, 0.0, 2022-02-27 11:15:51.006
176.0, -2381.5783717129675, -5686.127327218929, -1998.0894920932642, -10952.019506933631, -720.8884621725634, 148.84026632788974, -5210.862184865736, -2129.7859704239336, -3392.0113315595786, -7238.634793595647, -4207.939411156108, -3401.264953764076, -4425.310125983969, -3340.445857101185, -9935.082189450526, -14497.833192090178, 0.01, -0.10600000000000001, 0.992, 192.0, 0.0, 0.0, 0.0, 0.0, 0.0, 0.0, 0.0, 0.0, 0.0, 1.645920951013252E9, 0.0, 2022-02-27 11:15:51.013
178.0, -2575.815031029586, -5869.299873030171, -2183.5642675834024, -11130.609945131535, -921.473016914489, -43.22827377656386, -5377.15916361322, -2278.9838646631083, -3670.4917157282493, -7541.053896075952, -4492.566525049988, -3725.5217105772153, -4724.108245862513, -3637.5452444011266, -10235.869614585592, -14771.195026778583, 0.01, -0.10600000000000001, 0.992, 192.0, 0.0, 0.0, 0.0, 0.0, 0.0, 0.0, 0.0, 0.0, 0.0, 1.645920951019599E9, 0.0, 2022-02-27 11:15:51.019
180.0, -2264.187009833695, -5584.96333181421, -1881.5027930143826, -10837.71268578919, -597.7974054571874, 264.53289562855906, -5088.53108746184, -1992.970942612999, -3386.333988467931, -7300.929105392588, -4285.075281271373, -3494.40467290934, -4508.2574496576135, -3428.8917099108353, -10022.298696315134, -14499.643683391057, 0.01, -0.10600000000000001, 0.992, 192.0, 0.0, 0.0, 0.0, 0.0, 0.0, 0.0, 0.0, 0.0, 0.0, 1.645920951027683E9, 0.0, 2022-02-27 11:15:51.027
182.0, -2565.8685047469744, -5876.273617300227, -2171.4272703441707, -11128.173604985906, -902.3399236607461, -31.337145726340502, -5380.82484970389, -2284.348283332382, -3556.4978190061834, -7398.9862083180205, -4344.441514544668, -3547.154789823865, -4551.686889134275, -3473.4387366102624, -10068.723269548807, -14662.09616209223, 0.01, -0.10600000000000001, 0.992, 192.0, 0.0, 0.0, 0.0, 0.0, 0.0, 0.0, 0.0, 0.0, 0.0, 1.645920951035643E9, 0.0, 2022-02-27 11:15:51.035
184.0, -2382.2265723021715, -5692.36346392196, -1988.4335384885717, -10935.16629161433, -713.1994620799378, 156.9539495651662, -5175.971111771001, -2068.385728405205, -3605.3810841299396, -7541.791503642978, -4507.0281037125715, -3730.4167426129275, -4735.529987279176, -3656.00778532121, -10239.69176288745, -14698.775374743389, 0.011, -0.10600000000000001, 0.99, 192.0, 0.0, 48.0, 126.0, 88.0, 15.0, 112.0, 0.0, 0.0, 0.0, 1.645920951042879E9, 0.0, 2022-02-27 11:15:51.042
186.0, -2401.2255550891823, -5718.827929357044, -1997.709512437524, -10964.156504172863, -722.2742703287925, 136.79267606647923, -5220.965173359535, -2124.0415720989195, -3387.898610579802, -7245.072095998776, -4223.8091497193755, -3409.8480236349137, -4436.463646467167, -3351.3088049064645, -9939.306669152578, -14500.358939213627, 0.011, -0.10600000000000001, 0.99, 192.0, 0.0, 0.0, 0.0, 0.0, 0.0, 0.0, 0.0, 0.0, 0.0, 1.645920951050255E9, 0.0, 2022-02-27 11:15:51.050
188.0, -2623.2454327637474, -5928.889623748019, -2192.214392687606, -11146.166759272428, -931.6207088971984, -59.701509440125164, -5397.432195834183, -2290.9420479466976, -3679.9241518883887, -7565.97609114362, -4517.444016628744, -3726.3487251220618, -4737.116961135503, -3654.7113841428027, -10237.948326819936, -14776.626500681223, 0.011, -0.10600000000000001, 0.99, 192.0, 0.0, 0.0, 0.0, 0.0, 0.0, 0.0, 0.0, 0.0, 0.0, 1.645920951058296E9, 0.0, 2022-02-27 11:15:51.058
190.0, -2336.6290136133453, -5654.678422770313, -1886.5319355168267, -10848.28506091655, -602.424216559436, 248.30552915400617, -5100.690436445527, -2007.6336869756803, -3419.3922185173296, -7336.513082565437, -4327.4094852697235, -3529.049876815066, -4538.834636072474, -3454.059774167511, -10033.228699353778, -14510.528982940792, 0.011, -0.10600000000000001, 0.99, 192.0, 0.0, 0.0, 0.0, 0.0, 0.0, 0.0, 0.0, 0.0, 0.0, 1.64592095106625E9, 0.0, 2022-02-27 11:15:51.066
192.0, -2662.2492268382584, -5971.760269613299, -2164.3417673518384, -11132.979230043797, -891.633438066654, -42.64712842072588, -5389.832602719379, -2309.851623755887, -3578.9613221837667, -7414.341856758816, -4365.027471188006, -3556.900150406379, -4561.186380527781, -3479.9207425023014, -10065.951653236349, -14661.246795802928, 0.011, -0.10600000000000001, 0.99, 192.0, 0.0, 0.0, 0.0, 0.0, 0.0, 0.0, 0.0, 0.0, 0.0, 1.645920951072961E9, 0.0, 2022-02-27 11:15:51.072
194.0, -2528.921071162352, -5847.506922186247, -1996.1001868367418, -10950.968974944231, -714.451159769435, 151.34366170688412, -5186.387024687174, -2062.0154812354426, -3641.300337469618, -7575.296768581483, -4540.063982017516, -3772.4827256778153, -4742.481379804776, -3666.7813261486685, -10242.329268733176, -14708.185459159073, 0.010499999999999999, -0.10600000000000001, 0.989, 192.0, 0.0, 40.0, 126.0, 88.0, 15.0, 112.0, 0.0, 0.0, 0.0, 1.645920951088001E9, 0.0, 2022-02-27 11:15:51.088
196.0, -2581.5594293545996, -5895.674931487433, -2002.8727654067, -10966.257568151661, -706.9856771213624, 143.45349591416073, -5183.526001396895, -2106.7860253794224, -3437.2289105926648, -7291.094337832254, -4266.36687116228, -3457.054907924522, -4440.598719191399, -3356.0473747309898, -9929.315439381056, -14496.11210776712, 0.010499999999999999, -0.10600000000000001, 0.989, 192.0, 0.0, 0.0, 0.0, 0.0, 0.0, 0.0, 0.0, 0.0, 0.0, 1.64592095109507E9, 0.0, 2022-02-27 11:15:51.095
198.0, -2818.353810114123, -6109.357608480169, -2205.603087616335, -11152.40289597546, -921.9647552925057, -49.64322443523699, -5387.753890485035, -2280.9284664307197, -3751.650899845469, -7612.020684721552, -4573.792764400574, -3776.148411768486, -4743.733077494273, -3650.173980018375, -10228.35942844861, -14775.039526824896, 0.010499999999999999, -0.10600000000000001, 0.989, 192.0, 0.0, 0.0, 0.0, 0.0, 0.0, 0.0, 0.0, 0.0, 0.0, 1.645920951102567E9, 0.0, 2022-02-27 11:15:51.102
200.0, -2490.0290358101174, -5803.116357698007, -1894.8914879431115, -10847.815674282989, -589.4378530309026, 264.6893578397462, -5106.837166170736, -2009.6229922322027, -3475.6292075668825, -7357.009632230954, -4371.755346269053, -3561.638720230904, -4538.5440633945545, -3441.8110182060027, -10032.22287085329, -14512.697102152957, 0.010499999999999999, -0.10600000000000001, 0.989, 192.0, 0.0, 0.0, 0.0, 0.0, 0.0, 0.0, 0.0, 0.0, 0.0, 1.645920951110526E9, 0.0, 2022-02-27 11:15:51.110
202.0, -2784.4015102865114, -6072.477230128912, -2184.1901164281508, -11141.383485958993, -905.6479818401316, -36.723916140069505, -5367.659672219715, -2255.9168643852313, -3628.1575117298976, -7423.975458619054, -4405.305314696469, -3596.5968485590042, -4569.702395165253, -3465.2803498840753, -10055.401629853444, -14659.928042880065, 0.010499999999999999, -0.10600000000000001, 0.989, 192.0, 0.0, 0.0, 0.0, 0.0, 0.0, 0.0, 0.0, 0.0, 0.0, 1.645920951118495E9, 0.0, 2022-02-27 11:15:51.118
204.0, -2588.108490480005, -5891.249286085283, -2011.3664282997167, -10952.444190078282, -723.0565813847281, 135.7421440770798, -5188.845716577258, -2089.217554237551, -3695.5033177737378, -7590.7418240001, -4582.979331371705, -3808.1784615729407, -4768.431755117387, -3671.855172140023, -10238.820044853694, -14705.793822502355, 0.00825, -0.10700000000000001, 0.9895, 192.0, 0.0, 24.0, 126.0, 80.0, 15.0, 120.0, 0.0, 0.0, 0.0, 1.645920951125142E9, 0.0, 2022-02-27 11:15:51.125
206.0, -2560.235865144237, -5881.481573758313, -1999.6764659495911, -10958.143884914385, -717.5133487598121, 142.82764706941214, -5230.218795564031, -2130.769447179967, -3442.2357013506535, -7278.353843492729, -4270.546647375422, -3433.0044308906117, -4447.237187294625, -3348.0678019604447, -9933.182291171825, -14500.671863636002, 0.00825, -0.10700000000000001, 0.9895, 192.0, 0.0, 0.0, 0.0, 0.0, 0.0, 0.0, 0.0, 0.0, 0.0, 1.645920951133132E9, 0.0, 2022-02-27 11:15:51.133
208.0, -2757.244140773313, -6053.6794130419985, -2198.741102068556, -11152.82757912011, -929.0279065403828, -55.18645706015314, -5400.293219124463, -2278.7156437296444, -3731.8025507691564, -7583.45515530767, -4557.632453159386, -3745.727687564813, -4746.594100784552, -3627.7551803297024, -10230.102864516124, -14766.881140098709, 0.00825, -0.10700000000000001, 0.9895, 192.0, 0.0, 0.0, 0.0, 0.0, 0.0, 0.0, 0.0, 0.0, 0.0, 1.645920951140133E9, 0.0, 2022-02-27 11:15:51.140
210.0, -2424.2925553670593, -5737.446932488315, -1890.9128774300668, -10843.702953303213, -603.9441351823968, 260.7554508156122, -5083.591351937217, -1989.551125711337, -3456.8537422244244, -7345.07380069182, -4366.726203766609, -3555.7155079502477, -4555.75490662514, -3462.195809149243, -10032.356981320023, -14508.137346284075, 0.00825, -0.10700000000000001, 0.9895, 192.0, 0.0, 0.0, 0.0, 0.0, 0.0, 0.0, 0.0, 0.0, 0.0, 1.645920951148182E9, 0.0, 2022-02-27 11:15:51.148
212.0, -2684.57861954911, -5994.3355315131585, -2164.1406016517403, -11116.19306995786, -892.8180805227853, -21.23415723254171, -5431.608013106348, -2260.8342481653985, -3596.2615723921745, -7411.190260790618, -4387.379215643313, -3540.113990320443, -4571.557589955043, -3462.1734574047873, -10051.154798406935, -14642.448978716015, 0.00825, -0.10700000000000001, 0.9895, 192.0, 0.0, 0.0, 0.0, 0.0, 0.0, 0.0, 0.0, 0.0, 0.0, 1.645920951154809E9, 0.0, 2022-02-27 11:15:51.154
214.0, -2504.9823528507177, -5812.280572924683, -2002.291620050862, -10948.68909700979, -723.3918575515578, 130.55653936344856, -5186.029396775889, -2108.3729992357494, -3651.0009945632214, -7558.8235329179215, -4556.1572380253365, -3744.8112660421452, -4760.854513747038, -3655.024308565177, -10247.2690042578, -14701.211714889017, 0.010125, -0.10550000000000001, 0.98875, 192.0, 0.0, 48.0, 126.0, 96.0, 15.0, 112.0, 0.0, 0.0, 0.0, 1.645920951162769E9, 0.0, 2022-02-27 11:15:51.162
216.0, -2488.3079514870587, -5803.853965265032, -1992.8591838907223, -10957.11570466944, -698.6261246950776, 143.52055114752665, -5165.823419788292, -2109.535289947425, -3418.7440179281257, -7257.544369404837, -4262.0753362268615, -3421.6273929628605, -4446.92426287225, -3354.9521392526794, -9915.3903025854, -14491.842924576154, 0.010125, -0.10550000000000001, 0.98875, 192.0, 0.0, 0.0, 0.0, 0.0, 0.0, 0.0, 0.0, 0.0, 0.0, 1.645920951170768E9, 0.0, 2022-02-27 11:15:51.170
218.0, -2695.5309743322105, -5993.977903601874, -2208.821738817899, -11157.54379720018, -936.7839618663743, -65.62472172078154, -5385.183439872675, -2266.9809778906083, -3717.2515651287517, -7573.016890647041, -4553.206807757236, -3739.670364817425, -4742.5260832936865, -3650.8445323520345, -10214.099015486123, -14757.761628360944, 0.010125, -0.10550000000000001, 0.98875, 192.0, 0.0, 0.0, 0.0, 0.0, 0.0, 0.0, 0.0, 0.0, 0.0, 1.645920951178154E9, 0.0, 2022-02-27 11:15:51.178
220.0, -2354.666871388778, -5670.704623544768, -1894.5338600318266, -10847.614508582892, -605.8663852055532, 253.82641003446702, -5099.282276544843, -1996.3907595146609, -3450.4611433102064, -7353.187483929096, -4368.491991578579, -3548.764115424647, -4563.846238117962, -3472.5223150875945, -10036.201481366335, -14505.63395090508, 0.010125, -0.10550000000000001, 0.98875, 192.0, 0.0, 0.0, 0.0, 0.0, 0.0, 0.0, 0.0, 0.0, 0.0, 1.64592095118549E9, 0.0, 2022-02-27 11:15:51.185
222.0, -2624.318316497602, -5926.3638766245695, -2164.7217470075784, -11126.765445085222, -886.4925368419334, -23.75990435599141, -5383.2164863606085, -2298.698103272689, -3568.366595311951, -7383.675263366135, -4368.357881111847, -3534.771923395625, -4562.61689217292, -3473.3716813768965, -10046.66209777142, -14643.253641516405, 0.010125, -0.10550000000000001, 0.98875, 192.0, 0.0, 0.0, 0.0, 0.0, 0.0, 0.0, 0.0, 0.0, 0.0, 1.64592095119343E9, 0.0, 2022-02-27 11:15:51.193
224.0, -2474.2487042246707, -5775.579008529068, -2016.8202539468116, -10964.22355940623, -737.093476902661, 140.90539704625573, -5210.750426143459, -2076.633522109213, -3652.051526552621, -7556.454248005659, -4564.740307896174, -3760.301024949673, -4768.61056907303, -3673.3527390185286, -10244.340925734154, -14703.245723634449, 0.0100625, -0.10675000000000001, 0.986375, 192.0, 0.0, 40.0, 126.0, 80.0, 15.0, 96.0, 0.0, 0.0, 0.0, 1.645920951207056E9, 0.0, 2022-02-27 11:15:51.207
226.0, -2446.107857955439, -5759.843380432532, -2003.1856898290744, -10960.490818082193, -722.2966220732477, 140.5030656460602, -5225.256708294954, -2122.119322075763, -3415.257145793098, -7251.5988053797255, -4270.211371208593, -3427.997640132623, -4461.318786301468, -3362.61878760085, -9932.355276626979, -14486.590264629158, 0.0100625, -0.10675000000000001, 0.986375, 192.0, 0.0, 0.0, 0.0, 0.0, 0.0, 0.0, 0.0, 0.0, 0.0, 1.645920951215056E9, 0.0, 2022-02-27 11:15:51.215
228.0, -2658.292968069669, -5955.3540891831035, -2214.5661371429132, -11159.734268156799, -945.0094038259273, -59.030957106465955, -5416.252364665552, -2310.07514120044, -3703.1923178663637, -7571.675785979723, -4548.04355478806, -3729.5450245791703, -4752.293795620656, -3656.857151610512, -10224.02319002428, -14767.104657543261, 0.0100625, -0.10675000000000001, 0.986375, 192.0, 0.0, 0.0, 0.0, 0.0, 0.0, 0.0, 0.0, 0.0, 0.0, 1.645920951223068E9, 0.0, 2022-02-27 11:15:51.223
230.0, -2326.8613012863757, -5639.59099526298, -1907.7884444938238, -10848.95561325021, -610.0461614186956, 263.3035496835172, -5118.638887243139, -2011.1205591107082, -3440.089933882944, -7343.956213469054, -4362.0993926643605, -3540.359859509452, -4566.573150941509, -3466.062660940011, -10042.102341902535, -14512.562991686225, 0.0100625, -0.10675000000000001, 0.986375, 192.0, 0.0, 0.0, 0.0, 0.0, 0.0, 0.0, 0.0, 0.0, 0.0, 1.645920951230253E9, 0.0, 2022-02-27 11:15:51.230
232.0, -2603.710008109809, -5905.97908568133, -2184.2124681726063, -11125.96078228483, -895.2991241573244, -20.608308387793112, -5378.835544447368, -2274.4911640275914, -3576.413223315862, -7389.017330290953, -4373.923465481218, -3531.6203274274267, -4577.14552606887, -3462.888713227357, -10054.619318797508, -14644.37122873917, 0.0100625, -0.10675000000000001, 0.986375, 192.0, 0.0, 0.0, 0.0, 0.0, 0.0, 0.0, 0.0, 0.0, 0.0, 1.645920951237759E9, 0.0, 2022-02-27 11:15:51.237
234.0, -2448.879474267897, -5751.394421028426, -2031.2594808649399, -10967.26339665215, -733.3160320897141, 134.11046673184237, -5191.751443356448, -2102.583897421825, -3654.1972940203304, -7566.289015565993, -4563.309796251035, -3757.0600220036536, -4774.489077864776, -3668.8600383830117, -10248.006611824825, -14703.893924223654, 0.009031250000000001, -0.107375, 0.9861875, 192.0, 0.0, 32.0, 126.0, 80.0, 15.0, 104.0, 0.0, 0.0, 0.0, 1.64592095124574E9, 0.0, 2022-02-27 11:15:51.245
236.0, -2419.844558220453, -5733.781246397644, -2012.7522364559456, -10961.83192274951, -718.0721423711947, 138.84903655636748, -5216.405417490651, -2125.449731999604, -3404.260087521087, -7248.558968133804, -4258.990795492029, -3418.4981487391174, -4457.988376377628, -3359.6907090772047, -9936.535052840121, -14485.897360551044, 0.009031250000000001, -0.107375, 0.9861875, 192.0, 0.0, 0.0, 0.0, 0.0, 0.0, 0.0, 0.0, 0.0, 0.0, 1.645920951253934E9, 0.0, 2022-02-27 11:15:51.253
238.0, -2651.006299377239, -5943.820589044165, -2227.798369860455, -11168.160875816451, -952.4972382184552, -87.26121035351878, -5419.6721815672145, -2320.535757605524, -3703.080559144087, -7569.082983622907, -4541.181569240281, -3728.203919911852, -4749.879807219482, -3655.404288220917, -10232.650963384029, -14768.669279655132, 0.009031250000000001, -0.107375, 0.9861875, 192.0, 0.0, 0.0, 0.0, 0.0, 0.0, 0.0, 0.0, 0.0, 0.0, 1.645920951259889E9, 0.0, 2022-02-27 11:15:51.259
240.0, -2314.701952302689, -5620.860233409433, -1914.292802130318, -10852.844816785433, -618.8974522229972, 238.44840984921575, -5114.950849408013, -2020.128312126197, -3447.7565822311144, -7356.808466530856, -4364.669843276721, -3545.992499112189, -4571.579941699498, -3475.7633180336143, -10056.653327542941, -14521.59309644617, 0.009031250000000001, -0.107375, 0.9861875, 192.0, 0.0, 0.0, 0.0, 0.0, 0.0, 0.0, 0.0, 0.0, 0.0, 1.645920951267342E9, 0.0, 2022-02-27 11:15:51.267
242.0, -2590.9471620258287, -5884.588466237601, -2187.8558025188213, -11123.524442139202, -909.537185375355, -48.145657556731415, -5390.547858541949, -2291.9925799360967, -3574.021586659144, -7388.7938128464, -4366.81561074443, -3529.9439465932783, -4573.971578356216, -3485.061643727022, -10060.542531078165, -14650.585013697746, 0.009031250000000001, -0.107375, 0.9861875, 192.0, 0.0, 0.0, 0.0, 0.0, 0.0, 0.0, 0.0, 0.0, 0.0, 1.645920951277185E9, 0.0, 2022-02-27 11:15:51.277
244.0, -2437.301270640048, -5725.041714315619, -2043.4858850819928, -10966.838713507499, -752.5608840657335, 117.52547234600453, -5227.089551340288, -2122.454598242593, -3656.5218754436823, -7558.0635736064405, -4557.051307803548, -3755.1154202360417, -4778.3335779110885, -3682.1816780783747, -10264.524550977296, -14718.28844765287, 0.01, -0.10200000000000001, 0.986, 192.0, 0.0, 40.0, 126.0, 104.0, 15.0, 104.0, 0.0, 0.0, 0.0, 1.645920951283432E9, 0.0, 2022-02-27 11:15:51.283
246.0, -2405.2935725800485, -5699.806594825577, -2012.5957742447586, -10950.186663888297, -711.9477643904405, 139.36312667883954, -5222.7980164048695, -2148.539084021936, -3404.260087521087, -7247.799008822323, -4247.904330242197, -3413.424302747763, -4452.333385030435, -3357.7237555651377, -9945.878082022438, -14492.178200742985, 0.01, -0.10200000000000001, 0.986, 192.0, 0.0, 0.0, 0.0, 0.0, 0.0, 0.0, 0.0, 0.0, 0.0, 1.645920951289848E9, 0.0, 2022-02-27 11:15:51.289
