%OpenBCI Raw EEG Data
%Number of channels = 16
%Sample Rate = 125 Hz
%Board = OpenBCI_GUI$BoardCytonSerialDaisy
Sample Index, EXG Channel 0, EXG Channel 1, EXG Channel 2, EXG Channel 3, EXG Channel 4, EXG Channel 5, EXG Channel 6, EXG Channel 7, EXG Channel 8, EXG Channel 9, EXG Channel 10, EXG Channel 11, EXG Channel 12, EXG Channel 13, EXG Channel 14, EXG Channel 15, Accel Channel 0, Accel Channel 1, Accel Channel 2, Other, Other, Other, Other, Other, Other, Other, Analog Channel 0, Analog Channel 1, Analog Channel 2, Timestamp, Other, Timestamp (Formatted)
0.0, -3857.0617266966974, -6919.787158940692, -1685.1650697189655, -10045.209234381824, -900.8200050377852, 1289.5391928600304, -5779.289398108649, -3513.358952207441, 0.0, 0.0, 0.0, 0.0, 0.0, 0.0, 0.0, 0.0, 0.0, 0.0, 0.0, 192.0, 0.0, 0.0, 0.0, 0.0, 0.0, 0.0, 0.0, 0.0, 0.0, 1.645920274848898E9, 0.0, 2022-02-27 11:04:34.848
216.0, -3787.0337113182204, -6939.479045805818, -1683.823965051647, -9987.631140664953, -828.7132774249646, 1304.872489556371, -5777.56831378559, -3387.1162995238665, -2306.878841743331, -7463.247473627028, -3693.3575503060283, -1800.790643786269, -4995.726644483405, -3820.2931070677173, -11208.975161191842, -12940.408341933293, 0.016, -0.10400000000000001, 0.9560000000000001, 192.0, 0.0, 64.0, 126.0, 96.0, 14.5, 112.0, 0.0, 0.0, 0.0, 1.645920274848903E9, 0.0, 2022-02-27 11:04:34.848
218.0, -3573.7533657256804, -6775.3725380149535, -1578.7931178561591, -9888.881133661405, -664.450307422913, 1466.2073810347774, -5756.08828736404, -3485.061643727022, -5092.107366574689, -8278.437945656533, -3687.881372914478, -2206.541860883458, -4960.74616441085, -3908.269573243806, -11921.057036049013, -14154.666859467849, 0.016, -0.10400000000000001, 0.9560000000000001, 192.0, 0.0, 0.0, 0.0, 0.0, 0.0, 0.0, 0.0, 0.0, 0.0, 1.645920274848906E9, 0.0, 2022-02-27 11:04:34.848
0.0, -2037.9873559459872, -3474.4669168552064, -843.1972078320036, -5050.823694565737, -491.0007704497302, 515.00654399473, -2885.3419882466783, -1667.7977642771918, -2223.7080006251335, -4212.4768152805345, -1870.7292521869247, -981.5992094992649, -2502.903640616374, -1960.8291340862675, -5824.082293997085, -7033.714000429392, 0.018000000000000002, -0.10400000000000001, 0.9630000000000001, 192.0, 0.0, 80.0, 126.0, 96.0, 15.0, 40.0, 0.0, 0.0, 0.0, 1.64592027492826E9, 0.0, 2022-02-27 11:04:34.928
2.0, -3643.893139826434, -6720.4319501438085, -1528.6134515539948, -9870.28448227459, -634.8118942751759, 1296.4905853856308, -5787.134860412462, -3338.7918280114923, -3148.7125931635615, -7590.093623410896, -3772.1027460220753, -1980.230448273474, -4982.092080365668, -3879.2570089408173, -11483.789859269842, -13217.793490623653, 0.018000000000000002, -0.10400000000000001, 0.9630000000000001, 192.0, 0.0, 0.0, 0.0, 0.0, 0.0, 0.0, 0.0, 0.0, 0.0, 1.645920274935773E9, 0.0, 2022-02-27 11:04:34.935
4.0, -3849.462133581893, -6772.846790891504, -1582.2576382467316, -10002.919733872382, -819.7502278983865, 1190.208040500646, -5809.643067078957, -3465.995605706645, -5319.648125129715, -8554.92902456868, -3813.8334529201334, -2158.798534726922, -5000.845193963671, -3984.9807602144197, -11938.357286257422, -14356.212539221353, 0.018000000000000002, -0.10400000000000001, 0.9630000000000001, 192.0, 0.0, 0.0, 0.0, 0.0, 0.0, 0.0, 0.0, 0.0, 0.0, 1.645920274949528E9, 0.0, 2022-02-27 11:04:34.949
6.0, -3902.3240092186943, -6865.494771658751, -1626.9611271573458, -10007.725358930275, -850.7297457134421, 1128.494874059543, -5789.548848813635, -3324.7325807491043, -2481.1553932613606, -7561.729259697111, -3795.1250428110416, -1794.1745274274979, -5008.824766734215, -3866.8070872792114, -11262.284071717748, -13046.579128096, 0.018000000000000002, -0.10400000000000001, 0.9630000000000001, 192.0, 0.0, 0.0, 0.0, 0.0, 0.0, 0.0, 0.0, 0.0, 0.0, 1.645920274958892E9, 0.0, 2022-02-27 11:04:34.958
8.0, -3609.2702876651633, -6658.9199494028035, -1498.05861688359, -9866.596444439465, -620.0150394457626, 1332.9462805922367, -5800.0988721965405, -3411.8820323803466, -4888.102994931101, -8188.04749107927, -3781.043443804198, -2197.2435351900504, -4983.679054221994, -3952.235454587395, -11904.740262596639, -14020.377578780364, 0.018000000000000002, -0.10400000000000001, 0.978, 192.0, 0.0, 72.0, 126.0, 96.0, 15.0, 72.0, 0.0, 0.0, 0.0, 1.645920274965359E9, 0.0, 2022-02-27 11:04:34.965
10.0, -4033.8193218492656, -6890.908705104435, -1657.404203105474, -10095.2324384728, -970.982130882994, 1047.8944835537056, -5790.420566847392, -3410.473872479662, -3860.7274127873675, -8188.785098646295, -3822.9976681468092, -1901.5746595352484, -5022.012295962846, -3936.58923346868, -11557.103581083249, -13768.763991446971, 0.018000000000000002, -0.10400000000000001, 0.978, 192.0, 0.0, 0.0, 0.0, 0.0, 0.0, 0.0, 0.0, 0.0, 0.0, 1.645920274972083E9, 0.0, 2022-02-27 11:04:34.972
12.0, -3633.6783926103585, -6702.908182490848, -1520.0080299387014, -9873.369023009423, -639.5951675886116, 1290.0979864714132, -5783.402119088426, -3349.9900519836015, -3096.9906564939806, -7572.59220750239, -3769.889923321, -1966.8194016002897, -4990.60809500314, -3875.9042472725214, -11478.626606300666, -13205.27651372868, 0.018000000000000002, -0.10400000000000001, 0.978, 192.0, 0.0, 0.0, 0.0, 0.0, 0.0, 0.0, 0.0, 0.0, 0.0, 1.645920274980161E9, 0.0, 2022-02-27 11:04:34.980
14.0, -3822.170653601963, -6741.3308312095205, -1568.734832851271, -9997.376501247467, -831.5295972263333, 1183.4131101862324, -5805.284476910171, -3481.9323995032787, -5328.141788022732, -8539.036934260957, -3802.210545803374, -2149.2990433334166, -5007.8412899781815, -3987.5735625712355, -11960.284347568077, -14367.455466682371, 0.018000000000000002, -0.10400000000000001, 0.978, 192.0, 0.0, 0.0, 0.0, 0.0, 0.0, 0.0, 0.0, 0.0, 0.0, 1.645920274988067E9, 0.0, 2022-02-27 11:04:34.988
16.0, -3894.00916028132, -6844.6405940819495, -1625.4635602788403, -10019.92941140287, -873.0367866798385, 1108.7582837055068, -5789.280627880172, -3351.3758601398304, -2480.686006627799, -7575.140306370296, -3783.7703566277455, -1780.3387976096628, -5016.960801715947, -3859.5427703312366, -11280.791316126742, -13067.522712650623, 0.018000000000000002, -0.10700000000000001, 0.982, 192.0, 0.0, 72.0, 126.0, 72.0, 15.0, 104.0, 0.0, 0.0, 0.0, 1.645920274995053E9, 0.0, 2022-02-27 11:04:34.995
18.0, -3587.9467234548, -6640.815036394005, -1496.1140151159782, -9869.412764240833, -633.5601965856787, 1325.1008182884239, -5819.4107794059255, -3423.2590703080978, -4837.073962339636, -8162.387688444578, -3773.1532780114744, -2184.5253925949805, -4992.105661881646, -3949.910873164043, -11913.345684211932, -14018.365921779387, 0.018000000000000002, -0.10700000000000001, 0.982, 192.0, 0.0, 0.0, 0.0, 0.0, 0.0, 0.0, 0.0, 0.0, 0.0, 1.645920275001737E9, 0.0, 2022-02-27 11:04:35.001
20.0, -4017.3460861857043, -6870.88154207248, -1654.8784559820242, -10094.606589628052, -975.7877559408852, 1050.6213963772532, -5798.62365706249, -3415.8159394044806, -3912.3152389902166, -8200.072729596226, -3807.5973162171026, -1898.8030432227904, -5024.158063430556, -3935.9186811350205, -11588.86540995424, -13807.901895988214, 0.018000000000000002, -0.10700000000000001, 0.982, 192.0, 0.0, 0.0, 0.0, 0.0, 0.0, 0.0, 0.0, 0.0, 0.0, 1.645920275009813E9, 0.0, 2022-02-27 11:04:35.009
22.0, -3634.080724010554, -6695.621513798418, -1524.8136549965925, -9883.561418481042, -658.7953160757204, 1281.6266753228517, -5772.896799194432, -3364.451630646185, -3051.3260425717885, -7559.918768396231, -3760.435135416405, -1947.9321775355552, -4995.704292738949, -3879.681692085468, -11479.31951037878, -13203.644836383444, 0.018000000000000002, -0.10700000000000001, 0.982, 192.0, 0.0, 0.0, 0.0, 0.0, 0.0, 0.0, 0.0, 0.0, 0.0, 1.64592027501772E9, 0.0, 2022-02-27 11:04:35.017
24.0, -3817.745008199812, -6733.552424139074, -1561.9399025368575, -9999.87989662646, -816.2410040189034, 1186.788223598984, -5787.872467979488, -3473.7963645215473, -5347.163122554198, -8551.352745455832, -3801.0482550916977, -2149.9472439226206, -5009.204746389955, -3998.034178976319, -11971.41551630682, -14382.520542445249, 0.018000000000000002, -0.10700000000000001, 0.982, 192.0, 0.0, 0.0, 0.0, 0.0, 0.0, 0.0, 0.0, 0.0, 0.0, 1.645920275025738E9, 0.0, 2022-02-27 11:04:35.025
26.0, -3907.1519860210406, -6840.30435565762, -1624.9047666674576, -10029.026571396182, -870.7792604898525, 1114.0332953969594, -5758.4799240207585, -3342.8151420134477, -2499.908506859363, -7593.31227461246, -3786.921952595944, -1778.7071202644254, -5018.011333705346, -3877.424165895482, -11282.780621383265, -13082.63249190241, 0.018000000000000002, -0.10850000000000001, 0.985, 192.0, 0.0, 72.0, 126.0, 72.0, 15.0, 112.0, 0.0, 0.0, 0.0, 1.645920275032471E9, 0.0, 2022-02-27 11:04:35.032
28.0, -3588.952551955289, -6628.968611832692, -1488.3356080455314, -9873.592540453976, -615.4776353213352, 1336.0755248159796, -5783.625636532979, -3416.7994161605143, -4786.581371615097, -8142.85226379064, -3775.500211179282, -2176.2328954020613, -4991.748033970361, -3947.5862917406907, -11905.343759696932, -13984.972415563157, 0.018000000000000002, -0.10850000000000001, 0.985, 192.0, 0.0, 0.0, 0.0, 0.0, 0.0, 0.0, 0.0, 0.0, 0.0, 1.645920275040405E9, 0.0, 2022-02-27 11:04:35.040
30.0, -4017.837824563721, -6860.0185942672015, -1642.18266513141, -10100.596857142074, -961.5496947228545, 1060.947902315605, -5774.550828284125, -3410.317410268475, -3960.6397105025903, -8216.523613515332, -3817.6108977330805, -1907.5649270492706, -5021.677019796017, -3941.2160445709283, -11600.085985670805, -13827.526727619974, 0.018000000000000002, -0.10850000000000001, 0.985, 192.0, 0.0, 0.0, 0.0, 0.0, 0.0, 0.0, 0.0, 0.0, 0.0, 1.645920275047482E9, 0.0, 2022-02-27 11:04:35.047
32.0, -3629.543319886127, -6687.485478816686, -1512.0731606570675, -9881.505057991155, -650.4134119049802, 1293.1825272062454, -5777.411851574404, -3360.5624271109614, -2993.6138383881857, -7539.466922219625, -3754.9366062803992, -1939.5055698759045, -4985.7130629674275, -3873.713776315901, -11469.03770792934, -13174.855789525009, 0.018000000000000002, -0.10850000000000001, 0.985, 192.0, 0.0, 0.0, 0.0, 0.0, 0.0, 0.0, 0.0, 0.0, 0.0, 1.645920275054978E9, 0.0, 2022-02-27 11:04:35.054
34.0, -3801.18236555843, -6715.067531474535, -1547.1653994518995, -9994.180201790357, -800.8406520891967, 1206.7259796531177, -5771.9803776717645, -3473.1481639323433, -5348.101895821321, -8536.824111559881, -3793.2921997657063, -2149.835485200344, -5001.269877108321, -3985.517202081347, -11982.569036790019, -14378.027841809731, 0.018000000000000002, -0.10850000000000001, 0.985, 192.0, 0.0, 0.0, 0.0, 0.0, 0.0, 0.0, 0.0, 0.0, 0.0, 1.64592027506202E9, 0.0, 2022-02-27 11:04:35.062
36.0, -3918.461968715426, -6844.819408037592, -1617.6851532083933, -10042.012934924715, -862.6208737636655, 1113.2286325965683, -5742.699592435311, -3313.288487587987, -2517.3205157900475, -7607.12565268584, -3788.173650285441, -1775.0190824292997, -5010.411740590542, -3870.785697792256, -11283.250008016827, -13088.82392511653, 0.019000000000000003, -0.10925000000000001, 0.9864999999999999, 192.0, 0.0, 80.0, 126.0, 72.0, 15.0, 112.0, 0.0, 0.0, 0.0, 1.645920275077056E9, 0.0, 2022-02-27 11:04:35.077
38.0, -3583.8116507305685, -6621.637239651352, -1477.2714945401544, -9871.156200308347, -614.5612137986677, 1339.4059347398204, -5781.323406854082, -3411.099721324411, -4742.07904840458, -8122.1545484250255, -3768.4817634203155, -2176.992854713542, -4980.929789653992, -3945.68639346199, -11893.922018280271, -13959.804351306482, 0.019000000000000003, -0.10925000000000001, 0.9864999999999999, 192.0, 0.0, 0.0, 0.0, 0.0, 0.0, 0.0, 0.0, 0.0, 0.0, 1.64592027508475E9, 0.0, 2022-02-27 11:04:35.084
40.0, -4019.4695019089586, -6860.756201834226, -1645.3342610996083, -10112.599743914574, -971.5185727499215, 1047.8944835537056, -5753.204912329306, -3400.639104919327, -4023.3363536997267, -8239.478855070933, -3809.2513453067954, -1916.4832730869382, -5019.710066283949, -3948.815637685733, -11616.492166101, -13852.605384898829, 0.019000000000000003, -0.10925000000000001, 0.9864999999999999, 192.0, 0.0, 0.0, 0.0, 0.0, 0.0, 0.0, 0.0, 0.0, 0.0, 1.645920275092692E9, 0.0, 2022-02-27 11:04:35.092
42.0, -3634.505407155205, -6685.56322879353, -1518.3316491045534, -9894.3349593085, -649.8322665491422, 1279.5256113440528, -5780.965778942797, -3344.938557736702, -2959.3262623937444, -7534.460131461637, -3757.618815615036, -1932.6659360725805, -4985.8918769230695, -3870.808049536711, -11460.40993456959, -13156.639117793933, 0.019000000000000003, -0.10925000000000001, 0.9864999999999999, 192.0, 0.0, 0.0, 0.0, 0.0, 0.0, 0.0, 0.0, 0.0, 0.0, 1.645920275100583E9, 0.0, 2022-02-27 11:04:35.100
44.0, -3794.633304433025, -6706.4621098592415, -1549.9817192532682, -10000.729262915762, -799.8348235887079, 1204.3343429963998, -5770.683976493357, -3459.9159312148013, -5359.166009326698, -8531.414989401697, -3794.99093234431, -2152.025956156964, -4991.591571759173, -3983.483193335914, -11990.61566479393, -14375.300928986184, 0.019000000000000003, -0.10925000000000001, 0.9864999999999999, 192.0, 0.0, 0.0, 0.0, 0.0, 0.0, 0.0, 0.0, 0.0, 0.0, 1.645920275107234E9, 0.0, 2022-02-27 11:04:35.107
46.0, -3917.8584716151327, -6831.251899153221, -1623.7648277002368, -10050.059562928625, -872.8579727241961, 1101.0245801239705, -5728.953269595298, -3327.034810428001, -2530.1280653629383, -7614.07704521144, -3792.5322404542258, -1770.4593265604171, -5005.382598088097, -3869.3775378915716, -11288.122688308084, -13096.244704275692, 0.0175, -0.108625, 0.98925, 192.0, 0.0, 64.0, 126.0, 80.0, 15.5, 0.0, 0.0, 0.0, 0.0, 1.645920275115411E9, 0.0, 2022-02-27 11:04:35.115
48.0, -3570.0653278905547, -6610.439015679242, -1479.5960759635063, -9878.353462022957, -599.4514345468801, 1332.8792253588708, -5756.960005397797, -3393.0842152934333, -4687.920771589372, -8096.31593183469, -3769.107612265064, -2165.794630741433, -4975.766536684816, -3939.271442803317, -11882.612035585886, -13938.212566162654, 0.0175, -0.108625, 0.98925, 192.0, 0.0, 0.0, 0.0, 0.0, 0.0, 0.0, 0.0, 0.0, 0.0, 1.645920275124794E9, 0.0, 2022-02-27 11:04:35.124
50.0, -4005.767882557855, -6842.45012312533, -1644.082563410111, -10112.689150892396, -962.823744156807, 1061.0373092934262, -5759.1281246099625, -3392.5924769154167, -4067.61515946569, -8249.06775344226, -3808.2902202952173, -1915.7233137754577, -5007.394255089075, -3938.1315038360963, -11627.690390073109, -13872.163161297221, 0.0175, -0.108625, 0.98925, 192.0, 0.0, 0.0, 0.0, 0.0, 0.0, 0.0, 0.0, 0.0, 0.0, 1.645920275130805E9, 0.0, 2022-02-27 11:04:35.130
52.0, -3653.3255759865733, -6697.923743477314, -1533.7767045231706, -9907.187212370303, -652.3356619281366, 1272.127183929346, -5748.578101227057, -3317.1106358898446, -2914.5780699942197, -7532.180253527195, -3765.464277918849, -1928.9778982374548, -4988.75290021335, -3870.4727733698815, -11454.64318450012, -13141.730504242243, 0.0175, -0.108625, 0.98925, 192.0, 0.0, 0.0, 0.0, 0.0, 0.0, 0.0, 0.0, 0.0, 0.0, 1.64592027513702E9, 0.0, 2022-02-27 11:04:35.137
54.0, -3805.3844935160273, -6726.668086846839, -1566.991396783757, -10005.177260062368, -787.4966606493784, 1198.7911103714837, -5762.346775811527, -3434.0773146244665, -5392.313646353919, -8556.605405402828, -3818.8625954225777, -2178.155145425218, -5004.130900398601, -3991.999207973386, -11999.869286998426, -14378.139600532008, 0.0175, -0.108625, 0.98925, 192.0, 0.0, 0.0, 0.0, 0.0, 0.0, 0.0, 0.0, 0.0, 0.0, 1.645920275145023E9, 0.0, 2022-02-27 11:04:35.145
56.0, -3929.973117109909, -6847.725134816782, -1638.8075517186585, -10057.23447289878, -874.5120018138888, 1086.0265595944595, -5743.034868602142, -3317.311801589942, -2564.1921239128264, -7645.481246171146, -3808.0890545951197, -1784.205649400431, -5014.189185403488, -3878.586456607158, -11302.986598370862, -13114.662541706866, 0.01575, -0.1083125, 0.988625, 192.0, 0.0, 56.0, 126.0, 80.0, 15.0, 112.0, 0.0, 0.0, 0.0, 1.64592027515295E9, 0.0, 2022-02-27 11:04:35.152
58.0, -3582.47054606325, -6627.493396698642, -1497.253954083199, -9888.612912727942, -598.0656263906511, 1325.9278328332703, -5753.115505351485, -3396.2805147505424, -4645.899492013395, -8092.9855219108495, -3780.618760659547, -2173.7965552564333, -4979.946312897959, -3945.8652074176325, -11879.482791362143, -13917.671313008228, 0.01575, -0.1083125, 0.988625, 192.0, 0.0, 0.0, 0.0, 0.0, 0.0, 0.0, 0.0, 0.0, 0.0, 1.645920275159621E9, 0.0, 2022-02-27 11:04:35.159
60.0, -4014.3062489397826, -6854.3859546644635, -1660.0193572067449, -10120.579316685118, -949.3232905058015, 1055.0246900349487, -5736.239938287728, -3381.2824942210314, -4134.603337598245, -8274.146410721112, -3826.1492641150076, -1936.5774913522591, -5015.195013903977, -3948.5921202411796, -11645.012992025971, -13904.774356457516, 0.01575, -0.1083125, 0.988625, 192.0, 0.0, 0.0, 0.0, 0.0, 0.0, 0.0, 0.0, 0.0, 0.0, 1.645920275167794E9, 0.0, 2022-02-27 11:04:35.167
62.0, -3663.8085441361127, -6704.472804602719, -1549.8699605309916, -9912.953962439771, -653.8108770621869, 1255.0504511654915, -5724.237051515228, -3311.768568965026, -2881.85511611165, -7539.019887330519, -3771.007510543765, -1922.6970580455136, -4985.198972844955, -3878.7652705628007, -11436.873547658151, -13125.011399389674, 0.01575, -0.1083125, 0.988625, 192.0, 0.0, 0.0, 0.0, 0.0, 0.0, 0.0, 0.0, 0.0, 0.0, 1.645920275175652E9, 0.0, 2022-02-27 11:04:35.175
64.0, -3786.3631589845613, -6713.122929706923, -1565.4491264163407, -9992.16854478938, -771.2245906859149, 1200.847470861372, -5745.068877347574, -3436.424247792274, -5396.113442911321, -8553.990251301557, -3806.1221010830527, -2172.5448575669357, -4993.245600848866, -3986.3218648817383, -11996.337711374488, -14374.27274874124, 0.01575, -0.1083125, 0.988625, 192.0, 0.0, 0.0, 0.0, 0.0, 0.0, 0.0, 0.0, 0.0, 0.0, 1.64592027518275E9, 0.0, 2022-02-27 11:04:35.182
66.0, -3939.2490910588613, -6848.082762728067, -1645.1554471439658, -10052.94293796336, -873.3720628466682, 1084.528992715954, -5726.472225960759, -3318.7199614906267, -2588.84609804703, -7662.42386846827, -3797.1814033009296, -1777.9918644418556, -5004.332066098698, -3860.548598831725, -11294.895266878042, -13124.877288922942, 0.013875, -0.10915625000000001, 0.9883124999999999, 192.0, 0.0, 48.0, 126.0, 72.0, 15.0, 112.0, 0.0, 0.0, 0.0, 1.64592027519727E9, 0.0, 2022-02-27 11:04:35.197
68.0, -3579.6095227729706, -6621.50312918462, -1496.2704773271653, -9874.508961976644, -574.7527569237658, 1323.0221060540803, -5738.6986301778115, -3411.3008870245085, -4614.3388288425, -8081.876704916562, -3783.2562665052733, -2163.5594562959022, -4975.922998896003, -3924.7651606518225, -11863.613052798873, -13890.46924000612, 0.013875, -0.10915625000000001, 0.9883124999999999, 192.0, 0.0, 0.0, 0.0, 0.0, 0.0, 0.0, 0.0, 0.0, 0.0, 1.645920275205214E9, 0.0, 2022-02-27 11:04:35.205
70.0, -4019.5589088867796, -6854.83298955357, -1662.433345607918, -10116.064264305147, -944.2494445144469, 1054.6670621236638, -5729.735580651233, -3389.57499141395, -4205.614829732755, -8310.266829760889, -3825.3893048035275, -1946.0769827457648, -5003.281534109299, -3940.299623048261, -11650.3997624397, -13931.529394570518, 0.013875, -0.10915625000000001, 0.9883124999999999, 192.0, 0.0, 0.0, 0.0, 0.0, 0.0, 0.0, 0.0, 0.0, 0.0, 1.645920275212362E9, 0.0, 2022-02-27 11:04:35.212
72.0, -3661.081631312565, -6704.249287158166, -1550.406402397919, -9908.86359320445, -653.0509177507065, 1259.4313930787318, -5752.869636162476, -3299.743330448071, -2856.0612030102257, -7532.493177949569, -3772.4156704444495, -1920.7301045334466, -4978.851077419648, -3853.1948749059293, -11428.692809187509, -13105.028939846628, 0.013875, -0.10915625000000001, 0.9883124999999999, 192.0, 0.0, 0.0, 0.0, 0.0, 0.0, 0.0, 0.0, 0.0, 0.0, 1.645920275219873E9, 0.0, 2022-02-27 11:04:35.219
74.0, -3770.336958210106, -6696.8955632323705, -1560.6211496139945, -9989.419280221377, -758.4617446019346, 1204.71432265214, -5741.0455633456195, -3427.081218609955, -5417.3252483994065, -8543.082600007368, -3793.6721794214463, -2179.0492152034303, -4976.079461107191, -3969.580408284713, -12005.971313234724, -14378.631338910025, 0.013875, -0.10915625000000001, 0.9883124999999999, 192.0, 0.0, 0.0, 0.0, 0.0, 0.0, 0.0, 0.0, 0.0, 0.0, 1.645920275227848E9, 0.0, 2022-02-27 11:04:35.227
76.0, -3931.9177188775207, -6841.846626025036, -1642.8085139761586, -10053.009993196725, -864.5654755312772, 1086.9653328615825, -5719.61024041298, -3301.5985252378614, -2618.104531539027, -7671.096345316929, -3789.850031119589, -1775.7343382518695, -4983.187315843978, -3857.776982519267, -11297.488069234858, -13135.986105917229, 0.012937500000000001, -0.109578125, 0.99015625, 192.0, 0.0, 48.0, 126.0, 72.0, 15.5, 0.0, 0.0, 0.0, 0.0, 1.645920275234888E9, 0.0, 2022-02-27 11:04:35.234
78.0, -3571.2052668577753, -6623.470082696686, -1491.800128436104, -9861.835522870484, -569.1424690654837, 1339.808266140016, -5719.319667735061, -3365.099831235389, -4561.007566572138, -8055.367535992567, -3766.671272119436, -2147.6226624992687, -4948.229187515877, -3911.8235006121995, -11842.222433355146, -13848.73853310806, 0.012937500000000001, -0.109578125, 0.99015625, 192.0, 0.0, 0.0, 0.0, 0.0, 0.0, 0.0, 0.0, 0.0, 0.0, 1.645920275242517E9, 0.0, 2022-02-27 11:04:35.242
80.0, -4003.4656528789587, -6843.120675458989, -1648.3517466010746, -10099.211048985846, -928.536168162366, 1068.5698471748647, -5715.430464199837, -3385.5740291564503, -4261.851818782308, -8316.614725186197, -3821.813025690678, -1946.9934042684324, -4991.658626992539, -3924.3404775071717, -11656.21121599808, -13932.691685282194, 0.012937500000000001, -0.109578125, 0.99015625, 192.0, 0.0, 0.0, 0.0, 0.0, 0.0, 0.0, 0.0, 0.0, 0.0, 1.645920275249401E9, 0.0, 2022-02-27 11:04:35.249
82.0, -3663.115640057998, -6697.61081905494, -1538.671736558883, -9902.202773356768, -647.4406298924243, 1268.1485734163016, -5698.577248880536, -3286.332283774887, -2817.102112424626, -7512.108387006329, -3766.4477546748826, -1905.0838834147316, -4960.165019055012, -3830.1278746280523, -11403.5918001642, -13079.056212789561, 0.012937500000000001, -0.109578125, 0.99015625, 192.0, 0.0, 0.0, 0.0, 0.0, 0.0, 0.0, 0.0, 0.0, 0.0, 1.645920275257415E9, 0.0, 2022-02-27 11:04:35.257
84.0, -3757.328242937117, -6692.089938174479, -1541.8009807826259, -9976.4552684373, -748.0681834302168, 1231.0223258760366, -5725.42169397136, -3417.3358580274416, -5420.45449262315, -8535.97474527058, -3788.196002029896, -2166.196962141629, -4966.021176102302, -3958.9186261795317, -11991.912065972338, -14359.878225312023, 0.012937500000000001, -0.109578125, 0.99015625, 192.0, 0.0, 0.0, 0.0, 0.0, 0.0, 0.0, 0.0, 0.0, 0.0, 1.645920275264546E9, 0.0, 2022-02-27 11:04:35.264
86.0, -3928.520253720314, -6836.750428289227, -1632.7055254823597, -10055.401629853444, -872.2768273683581, 1097.2918387999343, -5696.409129668371, -3294.0883391008783, -2637.416438748412, -7683.434508256258, -3781.1999060153853, -1771.5769137831826, -4978.046414619257, -3841.884892211544, -11293.28594127726, -13145.373838588457, 0.01146875, -0.1097890625, 0.991078125, 192.0, 0.0, 40.0, 126.0, 72.0, 15.5, 0.0, 0.0, 0.0, 0.0, 1.645920275272226E9, 0.0, 2022-02-27 11:04:35.272
88.0, -3550.8875311479014, -6603.554678387008, -1484.8040324215929, -9858.460409457733, -565.0968033190732, 1349.4418680002534, -5722.2030427697955, -3368.072613247945, -4492.901801216817, -8026.0643990116605, -3751.3826789120058, -2143.576996752858, -4943.557672924719, -3898.7700818503004, -11826.687970958707, -13824.509242118507, 0.01146875, -0.1097890625, 0.991078125, 192.0, 0.0, 0.0, 0.0, 0.0, 0.0, 0.0, 0.0, 0.0, 0.0, 1.645920275280073E9, 0.0, 2022-02-27 11:04:35.280
90.0, -3996.1566324420733, -6833.777646276671, -1648.3517466010746, -10098.495793163276, -927.5973948952432, 1077.4434897236217, -5719.319667735061, -3374.308749950975, -4296.497022688034, -8321.867385133193, -3811.8441476636112, -1945.4734856454713, -4987.165926357023, -3925.1898437964733, -11671.58921618333, -13960.407848406774, 0.01146875, -0.1097890625, 0.991078125, 192.0, 0.0, 0.0, 0.0, 0.0, 0.0, 0.0, 0.0, 0.0, 0.0, 1.645920275288216E9, 0.0, 2022-02-27 11:04:35.288
92.0, -3672.1680965623973, -6704.472804602719, -1543.0750302165784, -9904.10267163547, -651.195722960916, 1268.3497391163992, -5709.395493196905, -3283.583019206884, -2772.286864791735, -7509.649695116245, -3765.084298263109, -1902.2899153578182, -4965.596492957651, -3835.8275694641557, -11396.573352405234, -13068.930872551307, 0.01146875, -0.1097890625, 0.991078125, 192.0, 0.0, 0.0, 0.0, 0.0, 0.0, 0.0, 0.0, 0.0, 0.0, 1.645920275294803E9, 0.0, 2022-02-27 11:04:35.294
94.0, -3740.8997107624664, -6683.37275783691, -1535.1401609349443, -9966.195817732312, -737.674622258499, 1239.3148230689553, -5716.503347933692, -3420.7109714401927, -5406.21643140512, -8529.291573678443, -3780.4846501928155, -2175.8529157463213, -4967.071708091701, -3953.8894836770874, -11995.488345085187, -14359.051210767177, 0.01146875, -0.1097890625, 0.991078125, 192.0, 0.0, 0.0, 0.0, 0.0, 0.0, 0.0, 0.0, 0.0, 0.0, 1.645920275302655E9, 0.0, 2022-02-27 11:04:35.302
96.0, -3928.3861432535823, -6835.1634544329, -1624.5918422450832, -10050.350135606544, -869.7063767559978, 1096.4871759995433, -5702.578211138036, -3307.9240689187136, -2647.385316775479, -7688.463650758702, -3766.26894071924, -1761.8092014562133, -4979.879257664592, -3849.2609678817953, -11297.890400635053, -13161.534149829646, 0.012, -0.11, 0.99, 192.0, 0.0, 48.0, 126.0, 72.0, 15.0, 120.0, 0.0, 0.0, 0.0, 1.645920275309659E9, 0.0, 2022-02-27 11:04:35.309
98.0, -3544.025545600122, -6601.7441870861285, -1474.8798578834364, -9848.156255263837, -567.8907713759866, 1355.4768390031861, -5716.3915892114155, -3359.4001363992857, -4425.310125983969, -7991.307436383658, -3730.796722268668, -2119.571223207858, -4939.802579856227, -3891.170488735496, -11812.114633573847, -13797.396576094221, 0.012, -0.11, 0.99, 192.0, 0.0, 0.0, 0.0, 0.0, 0.0, 0.0, 0.0, 0.0, 0.0, 1.645920275324398E9, 0.0, 2022-02-27 11:04:35.324
100.0, -3984.4443183474923, -6828.949669474325, -1644.4625430658512, -10083.989511011781, -930.212548996514, 1087.2559055395016, -5716.346885722504, -3386.0434157900117, -4332.662145216721, -8328.997591614436, -3794.5215457107483, -1945.9205205345775, -4983.254371077343, -3916.1820907809847, -11682.78744015544, -13981.843171339415, 0.012, -0.11, 0.99, 192.0, 0.0, 0.0, 0.0, 0.0, 0.0, 0.0, 0.0, 0.0, 0.0, 1.645920275332374E9, 0.0, 2022-02-27 11:04:35.332
102.0, -3670.402308750428, -6709.859575016449, -1541.5551115936175, -9899.520564022132, -651.8662752945752, 1265.4663640816646, -5697.437309913315, -3299.1398333477778, -2725.616422369054, -7484.034595970464, -3755.853027803067, -1880.429909280528, -4961.081440577679, -3824.003496647298, -11380.927131286518, -13056.302136934059, 0.012, -0.11, 0.99, 192.0, 0.0, 0.0, 0.0, 0.0, 0.0, 0.0, 0.0, 0.0, 0.0, 1.645920275340346E9, 0.0, 2022-02-27 11:04:35.340
104.0, -3735.5576438376484, -6685.94320844927, -1536.7494865357264, -9958.931500784338, -731.706706488932, 1244.7239452271397, -5719.029095057142, -3421.9403173852347, -5400.1814604021865, -8512.30424789241, -3772.818001844645, -2181.418500115693, -4966.535266224774, -3952.2131028429394, -11992.917894472826, -14357.285422955207, 0.012, -0.11, 0.99, 192.0, 0.0, 0.0, 0.0, 0.0, 0.0, 0.0, 0.0, 0.0, 0.0, 1.645920275347472E9, 0.0, 2022-02-27 11:04:35.347
106.0, -3939.0479253587637, -6843.858283026014, -1641.9367959424014, -10051.624185040497, -888.5488973318216, 1095.1684230766803, -5686.149678963385, -3311.2544788425544, -2672.285160098691, -7710.0330841580735, -3765.665443618947, -1782.1492889105427, -4991.36805431462, -3849.462133581893, -11301.556086725723, -13181.203684950315, 0.012, -0.108, 0.99, 192.0, 0.0, 48.0, 126.0, 80.0, 15.0, 120.0, 0.0, 0.0, 0.0, 1.645920275354994E9, 0.0, 2022-02-27 11:04:35.354
108.0, -3551.2898625480966, -6610.930754057259, -1487.1062621004894, -9851.956051821238, -577.8372976585982, 1351.2747110455884, -5704.70162686129, -3360.584778855417, -4373.230561403103, -7987.574695059621, -3733.6130420700365, -2132.244662314017, -4964.769478412804, -3894.813823081711, -11803.531563703009, -13777.034136895436, 0.012, -0.108, 0.99, 192.0, 0.0, 0.0, 0.0, 0.0, 0.0, 0.0, 0.0, 0.0, 0.0, 1.645920275362932E9, 0.0, 2022-02-27 11:04:35.362
110.0, -3974.6319025316125, -6820.120730414478, -1640.4615808083513, -10079.608569098542, -927.8656158287068, 1095.011960865493, -5701.974714037742, -3382.3330262104305, -4375.242218404081, -8350.70113548054, -3782.295141493695, -1963.6901573765467, -4996.46425205043, -3923.8710908736102, -11693.538629238443, -14010.542811220028, 0.012, -0.108, 0.99, 192.0, 0.0, 0.0, 0.0, 0.0, 0.0, 0.0, 0.0, 0.0, 0.0, 1.645920275370221E9, 0.0, 2022-02-27 11:04:35.370
112.0, -3672.8386488960564, -6704.048121458069, -1547.3218616630868, -9897.486555276699, -654.1014497401059, 1266.9862827046256, -5701.41592042636, -3290.355597776842, -2673.0898228990823, -7477.95492147862, -3733.50128334776, -1870.818659164746, -4968.010481358824, -3817.655601221991, -11367.851360780163, -13049.663668830834, 0.012, -0.108, 0.99, 192.0, 0.0, 0.0, 0.0, 0.0, 0.0, 0.0, 0.0, 0.0, 0.0, 1.645920275376715E9, 0.0, 2022-02-27 11:04:35.376
114.0, -3737.725763049813, -6679.9305891907925, -1541.4880563602517, -9948.895567523905, -716.418113281502, 1253.910512198271, -5715.877499088943, -3418.274631294564, -5391.330169597884, -8507.610381556795, -3768.884094820511, -2178.736290781056, -4976.168868085011, -3953.241283087884, -11993.431984595298, -14350.468140896339, 0.012, -0.108, 0.99, 192.0, 0.0, 0.0, 0.0, 0.0, 0.0, 0.0, 0.0, 0.0, 0.0, 1.645920275384733E9, 0.0, 2022-02-27 11:04:35.384
116.0, -3952.4813237764033, -6848.060410983612, -1645.5130750552507, -10055.871016487004, -877.9318187155508, 1088.4181962511775, -5689.345978420494, -3311.835624198392, -2705.164576192448, -7733.770636769609, -3769.7781645987234, -1775.1755446404868, -5001.89572595307, -3854.1112964285967, -11306.115842594605, -13199.487411914757, 0.016, -0.112, 0.99, 192.0, 0.0, 64.0, 126.0, 64.0, 15.0, 120.0, 0.0, 0.0, 0.0, 1.645920275392758E9, 0.0, 2022-02-27 11:04:35.392
118.0, -3552.832132915513, -6609.544945901031, -1489.475547012752, -9851.911348332329, -565.4544312303581, 1351.9452633792478, -5717.017438056164, -3370.2630842045646, -4309.461034472112, -7967.502828538755, -3733.8812630035, -2130.635336713235, -4966.021176102302, -3894.031512025775, -11784.532580915999, -13750.457912738075, 0.016, -0.112, 0.99, 192.0, 0.0, 0.0, 0.0, 0.0, 0.0, 0.0, 0.0, 0.0, 0.0, 1.645920275401133E9, 0.0, 2022-02-27 11:04:35.401
120.0, -3991.3733591286373, -6829.933146230358, -1647.3682698450411, -10089.935075036892, -928.1338367621705, 1083.7690334044735, -5692.8552022999775, -3398.4709857071625, -4424.617221905854, -8374.41633634762, -3787.0337113182204, -1975.6930441490465, -5011.171699902022, -3928.1849775534843, -11702.702844465119, -14030.34645680743, 0.016, -0.112, 0.99, 192.0, 0.0, 0.0, 0.0, 0.0, 0.0, 0.0, 0.0, 0.0, 0.0, 1.645920275407373E9, 0.0, 2022-02-27 11:04:35.407
122.0, -3699.616038753514, -6718.688514076294, -1559.6153211135056, -9917.446663075289, -674.9556273169073, 1250.8930266968046, -5682.3498824059825, -3306.851185184859, -2653.0850116115826, -7500.5972386118465, -3746.085315476098, -1892.1198716306535, -4994.877278194103, -3839.5156072992813, -11356.809599019241, -13036.520843091112, 0.016, -0.112, 0.99, 192.0, 0.0, 0.0, 0.0, 0.0, 0.0, 0.0, 0.0, 0.0, 0.0, 1.645920275415403E9, 0.0, 2022-02-27 11:04:35.415
124.0, -3725.141730921475, -6666.184266350779, -1538.4929226032405, -9952.985936759227, -719.1450261050494, 1262.1136024133687, -5703.762853594167, -3431.5962709899272, -5382.098899137843, -8499.519050063975, -3759.7422313382904, -2194.762491555511, -4984.930751911492, -3955.1411813665845, -11994.2813508846, -14346.64599259448, 0.016, -0.112, 0.99, 192.0, 0.0, 0.0, 0.0, 0.0, 0.0, 0.0, 0.0, 0.0, 0.0, 1.645920275423296E9, 0.0, 2022-02-27 11:04:35.423
126.0, -3964.1489343820735, -6846.428733638374, -1650.0951826685887, -10064.85641775804, -892.4157491225898, 1081.399748492211, -5692.564629622058, -3320.7986737249703, -2735.9205765629504, -7746.3099654090365, -3772.7732983557344, -1794.4203966165062, -5006.768406244327, -3857.106430185608, -11310.586191485667, -13212.876106843485, 0.014, -0.112, 0.99, 192.0, 0.0, 56.0, 126.0, 64.0, 15.0, 120.0, 0.0, 0.0, 0.0, 1.64592027543151E9, 0.0, 2022-02-27 11:04:35.431
128.0, -3559.7164702077475, -6616.40693144881, -1495.5775732490508, -9857.879264101895, -576.7867656691988, 1351.1182488344014, -5718.9173363348655, -3385.708139623182, -4255.749792546009, -7938.71378168032, -3738.9998124837653, -2137.0279356274527, -4969.776269170794, -3899.239468483862, -11776.24008372308, -13718.271400722433, 0.014, -0.112, 0.99, 192.0, 0.0, 0.0, 0.0, 0.0, 0.0, 0.0, 0.0, 0.0, 0.0, 1.645920275444979E9, 0.0, 2022-02-27 11:04:35.444
130.0, -3987.8864869936097, -6826.625088050972, -1648.9775954458232, -10096.417080928932, -926.5468629058437, 1084.7301584160518, -5714.849318843999, -3399.4768142076514, -4487.895010458828, -8382.798240518361, -3795.5497259556923, -2007.7901491868674, -5014.390351103586, -3936.388067768582, -11718.08084465037, -14045.992677926146, 0.014, -0.112, 0.99, 192.0, 0.0, 0.0, 0.0, 0.0, 0.0, 0.0, 0.0, 0.0, 0.0, 1.645920275452227E9, 0.0, 2022-02-27 11:04:35.452
132.0, -3715.0610941721316, -6726.757493824661, -1580.3800917124859, -9933.20464291628, -690.870069369086, 1239.7395062136063, -5722.471263703259, -3306.6276677403057, -2632.3202410126023, -7484.459279115114, -3754.0648882466426, -1891.0246361523434, -5000.979304430402, -3840.8343602221444, -11356.20610191895, -13023.601534795946, 0.014, -0.112, 0.99, 192.0, 0.0, 0.0, 0.0, 0.0, 0.0, 0.0, 0.0, 0.0, 0.0, 1.645920275459652E9, 0.0, 2022-02-27 11:04:35.459
134.0, -3733.2554141587516, -6678.634188012385, -1556.150800722933, -9963.535960142131, -729.449180298946, 1244.7239452271397, -5728.238013772728, -3438.6370704933493, -5403.489518581572, -8510.627867058261, -3780.819926359645, -2215.706076110134, -5007.595420789173, -3963.321919837227, -12007.915915002337, -14344.924908271421, 0.014, -0.112, 0.99, 192.0, 0.0, 0.0, 0.0, 0.0, 0.0, 0.0, 0.0, 0.0, 0.0, 1.645920275467577E9, 0.0, 2022-02-27 11:04:35.467
136.0, -3982.7008822799785, -6868.422850182396, -1670.3235114006416, -10079.094478976069, -912.7111330880086, 1066.0888035403257, -5711.183632753329, -3325.291374360487, -2791.375254556567, -7780.239913492193, -3787.3242839961395, -1797.4378821179728, -5035.982136247413, -3863.588436077647, -11325.517156781812, -13240.61462171252, 0.014, -0.108, 0.988, 192.0, 0.0, 56.0, 126.0, 80.0, 15.0, 112.0, 0.0, 0.0, 0.0, 1.645920275476212E9, 0.0, 2022-02-27 11:04:35.476
138.0, -3558.531827751616, -6621.190204762245, -1504.898250686914, -9861.991985081671, -572.4281755004139, 1337.9307196057703, -5739.257423789194, -3378.4438226752072, -4219.964649673063, -7936.813883401619, -3747.716992821335, -2128.2660518009725, -4993.759690971338, -3899.7312068618785, -11763.65605159474, -13698.735976068494, 0.014, -0.108, 0.988, 192.0, 0.0, 0.0, 0.0, 0.0, 0.0, 0.0, 0.0, 0.0, 0.0, 1.645920275482255E9, 0.0, 2022-02-27 11:04:35.482
140.0, -3979.5716380562353, -6829.284945641154, -1641.5568162866614, -10095.992397784281, -915.6839151005645, 1092.240344553035, -5734.921185364865, -3415.6594771932937, -4535.593633126454, -8403.674769839618, -3791.8616881205667, -2001.9563438840323, -5022.414627363041, -3936.7903991687776, -11728.764978500007, -14073.910006750824, 0.014, -0.108, 0.988, 192.0, 0.0, 0.0, 0.0, 0.0, 0.0, 0.0, 0.0, 0.0, 0.0, 1.645920275490415E9, 0.0, 2022-02-27 11:04:35.490
142.0, -3728.3156786341287, -6753.825456360038, -1565.247960716243, -9940.312497653067, -684.2316012658598, 1244.3216138269443, -5729.445007973315, -3312.03678989849, -2597.4068161734126, -7487.968502994598, -3742.9337195078997, -1876.8312784232235, -5004.7343974988935, -3829.7255432278566, -11343.15268315705, -13018.974723693696, 0.014, -0.108, 0.988, 192.0, 0.0, 0.0, 0.0, 0.0, 0.0, 0.0, 0.0, 0.0, 0.0, 1.645920275497479E9, 0.0, 2022-02-27 11:04:35.497
144.0, -3764.9725395408323, -6724.455264145764, -1547.0759924740782, -9964.87706480945, -705.1081305871166, 1273.0436054520137, -5727.031019572141, -3436.2677855810866, -5399.555611557438, -8505.755186767004, -3772.7509466112792, -2218.7235616116004, -5007.461310322441, -3954.0459458882747, -11996.985911963691, -14333.681980810403, 0.014, -0.108, 0.988, 192.0, 0.0, 0.0, 0.0, 0.0, 0.0, 0.0, 0.0, 0.0, 0.0, 1.645920275505489E9, 0.0, 2022-02-27 11:04:35.505
146.0, -4058.227426794461, -6948.084467421111, -1668.535371844217, -10088.169287224924, -896.6402288246428, 1086.2724287834678, -5710.334266464027, -3331.8851389748024, -2844.6618133380193, -7812.895812141396, -3792.688702665413, -1818.8061498172463, -5029.455426866463, -3858.939273230943, -11321.71736022441, -13250.427037528401, 0.016, -0.106, 0.986, 192.0, 0.0, 64.0, 126.0, 88.0, 15.0, 104.0, 0.0, 0.0, 0.0, 1.645920275511861E9, 0.0, 2022-02-27 11:04:35.511
148.0, -3680.72881468878, -6753.512531937663, -1514.1295211469558, -9873.10080207596, -564.359195752048, 1354.6274727138846, -5709.730769363734, -3376.454517418685, -4196.227097061526, -7942.37946777099, -3759.921045293933, -2146.3933165542267, -4991.41275780353, -3884.844945054644, -11745.79700777495, -13668.002327442447, 0.016, -0.106, 0.986, 192.0, 0.0, 0.0, 0.0, 0.0, 0.0, 0.0, 0.0, 0.0, 0.0, 1.645920275519898E9, 0.0, 2022-02-27 11:04:35.519
150.0, -4151.635366873189, -7005.640209393527, -1671.9104852569683, -10105.693054877884, -906.6091068517097, 1108.0653796273923, -5699.963057036764, -3388.971494313657, -4654.214340950768, -8473.278102073444, -3837.883929954044, -2058.327443400317, -5045.258110196365, -3938.8914631475764, -11737.66097279322, -14082.537780110571, 0.016, -0.106, 0.986, 192.0, 0.0, 0.0, 0.0, 0.0, 0.0, 0.0, 0.0, 0.0, 0.0, 1.645920275529506E9, 0.0, 2022-02-27 11:04:35.529
152.0, -3936.2539573018503, -6957.2263309033315, -1599.6472954329606, -9954.416448404367, -669.0547667807064, 1245.6627184942627, -5690.687083087812, -3309.84631894187, -2656.3036628131467, -7547.245329290072, -3806.882060394533, -1926.3850958806393, -5024.09100819719, -3834.2852990967394, -11328.556994027735, -13003.708482230722, 0.016, -0.106, 0.986, 192.0, 0.0, 0.0, 0.0, 0.0, 0.0, 0.0, 0.0, 0.0, 0.0, 1.645920275536417E9, 0.0, 2022-02-27 11:04:35.536
154.0, -3939.4502567589593, -6901.302266276153, -1561.0681845031006, -9968.095716011014, -678.7777756187648, 1283.5936288349187, -5701.684141359823, -3431.328050056464, -5463.280434999519, -8550.816303588905, -3828.7420664718234, -2272.4795070266136, -5015.217365648433, -3951.453143531459, -11989.140449659879, -14320.74032077078, 0.016, -0.106, 0.986, 192.0, 0.0, 0.0, 0.0, 0.0, 0.0, 0.0, 0.0, 0.0, 0.0, 1.645920275542914E9, 0.0, 2022-02-27 11:04:35.542
156.0, -4213.728512970032, -7095.248352914853, -1684.2709999407532, -10103.837860088093, -890.0688159547825, 1089.9828183630489, -5684.607408595969, -3315.2107376111435, -2943.858855230672, -7872.932597748351, -3847.9422149589323, -1869.231685308419, -5049.013203264857, -3863.2084564219067, -11326.522985282301, -13265.782685969198, 0.012, -0.108, 0.984, 192.0, 0.0, 48.0, 126.0, 80.0, 15.0, 96.0, 0.0, 0.0, 0.0, 1.645920275550461E9, 0.0, 2022-02-27 11:04:35.550
158.0, -3786.8325456181224, -6842.964213247802, -1522.5561288066065, -9880.231008557203, -556.6701956594223, 1359.9248361497923, -5715.877499088943, -3365.7927353135033, -4187.956951613063, -7956.259901077736, -3804.8704033935555, -2180.926761737676, -5009.830595234704, -3883.4367851539596, -11733.838824491362, -13632.463053758509, 0.012, -0.108, 0.984, 192.0, 0.0, 0.0, 0.0, 0.0, 0.0, 0.0, 0.0, 0.0, 0.0, 1.645920275557608E9, 0.0, 2022-02-27 11:04:35.557
160.0, -4171.997806071974, -7015.34086648713, -1660.3993368624851, -10100.373339697522, -901.4682056269892, 1115.4861587865544, -5720.459606702281, -3417.738189427637, -4705.399835753422, -8485.01276791248, -3841.683726511446, -2074.666568597146, -5034.149293202078, -3947.005146384853, -11755.072981723903, -14102.766108842625, 0.012, -0.108, 0.984, 192.0, 0.0, 0.0, 0.0, 0.0, 0.0, 0.0, 0.0, 0.0, 0.0, 1.645920275572193E9, 0.0, 2022-02-27 11:04:35.572
162.0, -3919.9818873383865, -6928.727856722815, -1589.9019348504467, -9956.897492038905, -692.0994153141279, 1243.360488815366, -5694.196306967296, -3306.851185184859, -2609.297944223636, -7529.721561637111, -3791.4146532314603, -1916.5726800647594, -5019.486548839396, -3838.308613098695, -11326.76885447131, -12995.19246759325, 0.012, -0.108, 0.984, 192.0, 0.0, 0.0, 0.0, 0.0, 0.0, 0.0, 0.0, 0.0, 0.0, 1.64592027558021E9, 0.0, 2022-02-27 11:04:35.580
164.0, -3865.2424651673396, -6834.291736399143, -1540.7504487932265, -9960.11614324047, -685.5727059331782, 1283.4371666237316, -5734.831778387043, -3442.5709775174832, -5418.331076899895, -8516.014637471992, -3797.56138295667, -2255.9392161296864, -5002.141595142079, -3959.3209575797273, -11993.2308188952, -14313.900686967456, 0.009000000000000001, -0.11, 0.988, 192.0, 0.0, 24.0, 126.0, 64.0, 15.5, 0.0, 0.0, 0.0, 0.0, 1.645920275587441E9, 0.0, 2022-02-27 11:04:35.587
166.0, -4158.095021020773, -7034.563366718694, -1682.661674339971, -10111.459804947353, -911.9958772654388, 1074.2471902665127, -5698.577248880536, -3350.6382525728054, -2945.021145942348, -7869.199856424315, -3815.241612820818, -1851.4173449775394, -5033.4340373795085, -3873.400851893527, -11337.430636576491, -13300.696110808387, 0.009000000000000001, -0.11, 0.988, 192.0, 0.0, 0.0, 0.0, 0.0, 0.0, 0.0, 0.0, 0.0, 0.0, 1.645920275594789E9, 0.0, 2022-02-27 11:04:35.594
168.0, -3722.392466353472, -6790.191744588822, -1517.482282815252, -9881.370947524423, -566.9072946199531, 1350.9170831343035, -5709.619010641457, -3379.8519825758917, -4101.165127893106, -7920.966496582806, -3783.926818838933, -2170.66731103269, -5001.381635830598, -3903.419244697004, -11718.706693495118, -13623.947039121038, 0.009000000000000001, -0.11, 0.988, 192.0, 0.0, 0.0, 0.0, 0.0, 0.0, 0.0, 0.0, 0.0, 0.0, 1.645920275602851E9, 0.0, 2022-02-27 11:04:35.602
170.0, -4114.95615422203, -6967.150505441488, -1650.497514068784, -10100.2839327197, -902.2058131940142, 1110.747588962029, -5703.025246027141, -3423.840215663936, -4733.7194959782955, -8490.354834837299, -3835.8722729530664, -2086.6247518807354, -5031.869415267636, -3953.1742278545175, -11765.198321962158, -14125.98957133169, 0.009000000000000001, -0.11, 0.988, 192.0, 0.0, 0.0, 0.0, 0.0, 0.0, 0.0, 0.0, 0.0, 0.0, 1.645920275610835E9, 0.0, 2022-02-27 11:04:35.610
172.0, -3878.072366484686, -6883.197353267355, -1587.2197255158098, -9947.822683790051, -691.0265315802732, 1220.6287647043187, -5698.689007602812, -3321.6703917587274, -2575.680920562854, -7524.804177856944, -3787.503097951782, -1908.5260520608488, -5011.909307469047, -3839.2473863658174, -11314.944781654453, -12992.934941403264, 0.009000000000000001, -0.11, 0.988, 192.0, 0.0, 0.0, 0.0, 0.0, 0.0, 0.0, 0.0, 0.0, 0.0, 1.645920275617393E9, 0.0, 2022-02-27 11:04:35.617
174.0, -3822.617688491069, -6782.033357862635, -1543.566768594595, -9942.122988953948, -679.7612523747983, 1276.4410706092203, -5711.116577519962, -3444.6273380073712, -5405.948210471655, -8501.262486131489, -3799.573039957648, -2252.7429166725774, -5001.0910631526785, -3963.6348442596013, -11992.917894472826, -14310.011483432232, 0.0085, -0.11, 0.989, 192.0, 0.0, 32.0, 126.0, 72.0, 15.0, 120.0, 0.0, 0.0, 0.0, 1.645920275624511E9, 0.0, 2022-02-27 11:04:35.624
176.0, -4107.803595996332, -6977.052328235189, -1674.8162120361583, -10091.544400637675, -903.0998829722265, 1070.715614642574, -5690.105937731974, -3352.6499095737827, -2980.850992304205, -7871.837362270041, -3806.8373569056225, -1838.8556645936567, -5021.94524072948, -3870.8304012811664, -11344.650250035555, -13315.045930748694, 0.0085, -0.11, 0.989, 192.0, 0.0, 0.0, 0.0, 0.0, 0.0, 0.0, 0.0, 0.0, 0.0, 1.645920275632546E9, 0.0, 2022-02-27 11:04:35.632
178.0, -3669.1506110609307, -6730.892566548892, -1515.8506054700144, -9866.887017117384, -561.3193585061263, 1339.9870800956585, -5716.413940955871, -3379.136726753322, -4036.926214328553, -7885.583685110055, -3755.987138269799, -2133.18343558114, -4986.2271530899, -3900.513517917814, -11708.536649767953, -13589.503000915409, 0.0085, -0.11, 0.989, 192.0, 0.0, 0.0, 0.0, 0.0, 0.0, 0.0, 0.0, 0.0, 0.0, 1.645920275640604E9, 0.0, 2022-02-27 11:04:35.640
180.0, -4071.482011256458, -6920.1894903408875, -1660.9804822183232, -10098.384034440998, -902.764606805397, 1101.9410016466381, -5719.543185179614, -3439.0394018935444, -4768.968196984315, -8485.973892924058, -3813.274659308751, -2072.4313941516157, -5025.6332785646055, -3968.842800717688, -11787.460659439643, -14145.949679130279, 0.0085, -0.11, 0.989, 192.0, 0.0, 0.0, 0.0, 0.0, 0.0, 0.0, 0.0, 0.0, 0.0, 1.64592027564707E9, 0.0, 2022-02-27 11:04:35.647
182.0, -3861.5991308211246, -6865.852399570036, -1605.6599146914382, -9971.560236401587, -708.2373748108596, 1203.4179214737323, -5699.627780869935, -3328.979412195613, -2553.418583085368, -7520.646753388257, -3779.724690881335, -1903.1392816471198, -5014.010371447846, -3862.493200599337, -11320.867993935108, -12993.247865825639, 0.0085, -0.11, 0.989, 192.0, 0.0, 0.0, 0.0, 0.0, 0.0, 0.0, 0.0, 0.0, 0.0, 1.645920275655088E9, 0.0, 2022-02-27 11:04:35.655
184.0, -3790.878211364533, -6752.90903483737, -1552.4851146322626, -9954.550558871098, -684.5668774326894, 1276.6645880537735, -5723.186519525829, -3441.475742039173, -5395.577001044393, -8480.430660299142, -3800.3777027580386, -2273.5523907604684, -5005.851984721659, -3978.1858299000064, -12001.590371321485, -14299.796736216156, 0.00825, -0.109, 0.9915, 192.0, 0.0, 32.0, 126.0, 80.0, 15.5, 8.0, 0.0, 0.0, 0.0, 1.645920275663132E9, 0.0, 2022-02-27 11:04:35.663
186.0, -4090.771566721388, -6957.718069281348, -1685.5226976302504, -10103.770804854728, -915.9744877784834, 1062.6019314052978, -5692.184649966318, -3355.063897974956, -3028.2813940383667, -7899.017083527695, -3818.9520024003987, -1850.0315368213103, -5034.909252513558, -3890.3434741906494, -11368.365450902636, -13341.64450665051, 0.00825, -0.109, 0.9915, 192.0, 0.0, 0.0, 0.0, 0.0, 0.0, 0.0, 0.0, 0.0, 0.0, 1.645920275669674E9, 0.0, 2022-02-27 11:04:35.669
188.0, -3647.6929363838362, -6704.338694135988, -1518.666925271383, -9866.328223506001, -565.9908730972854, 1348.3913360108538, -5694.330417434027, -3362.99876725659, -3981.4715363349364, -7870.585664580544, -3765.0619465186533, -2118.900670874199, -4991.390406059076, -3904.447424941948, -11697.517239751487, -13560.490436612421, 0.00825, -0.109, 0.9915, 192.0, 0.0, 0.0, 0.0, 0.0, 0.0, 0.0, 0.0, 0.0, 0.0, 1.645920275677973E9, 0.0, 2022-02-27 11:04:35.677
190.0, -4016.072036751752, -6854.877693042481, -1643.4790663098177, -10072.500714361753, -882.5362780733441, 1118.5036442880207, -5696.342074435005, -3434.122018113377, -4808.2849154812, -8481.660006244183, -3796.4884992228153, -2044.9611002160432, -5018.301906383265, -3953.8000766992664, -11795.462583954642, -14154.46569376775, 0.00825, -0.109, 0.9915, 192.0, 0.0, 0.0, 0.0, 0.0, 0.0, 0.0, 0.0, 0.0, 0.0, 1.645920275692741E9, 0.0, 2022-02-27 11:04:35.692
192.0, -3814.7275226983456, -6808.58723027554, -1601.5471937116617, -9947.375648900945, -704.7952061647424, 1221.5675379714417, -5680.31587366055, -3296.770548435515, -2524.1154461044607, -7491.634189085268, -3747.3817166545055, -1839.2132925049416, -5002.6780370090055, -3837.079267153653, -11310.653246719034, -12977.020499351085, 0.00825, -0.109, 0.9915, 192.0, 0.0, 0.0, 0.0, 0.0, 0.0, 0.0, 0.0, 0.0, 0.0, 1.645920275699394E9, 0.0, 2022-02-27 11:04:35.699
194.0, -3737.5469490941705, -6711.357141894954, -1541.957442993813, -9932.332924882523, -664.7855835897427, 1291.2826289275442, -5713.552917665591, -3434.904329169313, -5363.725765195581, -8455.664927442662, -3768.8170395871452, -2222.6574686357344, -4999.5711445297175, -3954.872960433121, -12001.679778299305, -14278.495523750249, 0.012125, -0.10650000000000001, 0.99175, 192.0, 0.0, 64.0, 126.0, 96.0, 15.5, 0.0, 0.0, 0.0, 0.0, 1.645920275707214E9, 0.0, 2022-02-27 11:04:35.707
196.0, -4056.7522116604105, -6923.631658987005, -1677.3643109040631, -10094.338368694589, -917.1367784901594, 1067.0052250629933, -5685.769699307644, -3347.4419531156964, -3051.5495600163413, -7901.22990622877, -3791.660522420469, -1832.4630656794388, -5022.973420974425, -3886.454270655426, -11379.138991730093, -13361.001117348806, 0.012125, -0.10650000000000001, 0.99175, 192.0, 0.0, 0.0, 0.0, 0.0, 0.0, 0.0, 0.0, 0.0, 0.0, 1.645920275715435E9, 0.0, 2022-02-27 11:04:35.715
198.0, -3620.490863381727, -6688.111327661434, -1515.4706258142742, -9863.62366242691, -558.7712596382213, 1347.0949348324461, -5698.800766325088, -3365.099831235389, -3899.887669073066, -7836.186329863826, -3749.393373655483, -2104.7520166339896, -4983.053205377246, -3888.9353142899654, -11689.403556514211, -13535.434131078022, 0.012125, -0.10650000000000001, 0.99175, 192.0, 0.0, 0.0, 0.0, 0.0, 0.0, 0.0, 0.0, 0.0, 0.0, 1.645920275722387E9, 0.0, 2022-02-27 11:04:35.722
200.0, -3993.295609151794, -6850.653213340428, -1642.3838308315076, -10074.624130085007, -887.4983653424222, 1123.5998420238307, -5701.125347748441, -3423.706105197204, -4831.061343081158, -8497.373282596265, -3800.1318335690303, -2064.384766147705, -5012.6022115471615, -3959.142143624085, -11815.713264431151, -14174.470505055251, 0.012125, -0.10650000000000001, 0.99175, 192.0, 0.0, 0.0, 0.0, 0.0, 0.0, 0.0, 0.0, 0.0, 0.0, 1.645920275729937E9, 0.0, 2022-02-27 11:04:35.729
202.0, -3807.105577839086, -6808.698988997816, -1595.9145541089242, -9957.836265306029, -726.1858256084712, 1211.330439010911, -5690.798841810089, -3308.907545674747, -2489.2914282430925, -7498.272657188494, -3758.0434987596873, -1852.1102490556539, -5004.242659120877, -3843.8965492125217, -11311.614371730611, -12975.634691194857, 0.012125, -0.10650000000000001, 0.99175, 192.0, 0.0, 0.0, 0.0, 0.0, 0.0, 0.0, 0.0, 0.0, 0.0, 1.645920275738037E9, 0.0, 2022-02-27 11:04:35.738
204.0, -3702.0523788991427, -6686.457298571742, -1533.441428356341, -9929.650715547887, -671.9157900709856, 1288.3769021483545, -5720.101978790996, -3439.6205472493825, -5325.705447877103, -8441.985659836015, -3759.630472616014, -2217.58362264438, -4991.9939031593685, -3963.657196004057, -12004.585505078496, -14273.533436481172, 0.013062500000000001, -0.10625000000000001, 0.990875, 192.0, 0.0, 56.0, 126.0, 88.0, 15.0, 120.0, 0.0, 0.0, 0.0, 1.645920275744903E9, 0.0, 2022-02-27 11:04:35.744
206.0, -4035.4062957055926, -6898.441242985874, -1678.727767315837, -10100.798022842173, -928.0667815288045, 1058.2209894920575, -5692.139946477407, -3357.008499742568, -3075.08594692778, -7912.606944156521, -3779.2553042477734, -1813.7323038258917, -5029.924813500025, -3886.0966427441413, -11389.890180813096, -13387.622044995076, 0.013062500000000001, -0.10625000000000001, 0.990875, 192.0, 0.0, 0.0, 0.0, 0.0, 0.0, 0.0, 0.0, 0.0, 0.0, 1.645920275752106E9, 0.0, 2022-02-27 11:04:35.752
208.0, -3602.341246884018, -6665.558417506029, -1522.2432043842323, -9867.982252595693, -567.5107917202463, 1334.9132341043037, -5698.756062836178, -3362.6858428342157, -3838.107447398597, -7807.0620068385615, -3738.1280944500086, -2077.706405843068, -4993.491470037874, -3887.773023578289, -11681.334576765845, -13519.452633792476, 0.013062500000000001, -0.10625000000000001, 0.990875, 192.0, 0.0, 0.0, 0.0, 0.0, 0.0, 0.0, 0.0, 0.0, 0.0, 1.645920275759707E9, 0.0, 2022-02-27 11:04:35.759
210.0, -3977.716443266445, -6832.704762542816, -1641.8026854756697, -10080.145010965469, -885.732577530453, 1111.462844784599, -5700.834775070522, -3428.6905442107377, -4871.7191662453615, -8493.394672083221, -3794.342731755106, -2058.5062573559594, -5023.912194241548, -3968.0828414062075, -11831.806520438973, -14199.012720467177, 0.013062500000000001, -0.10625000000000001, 0.990875, 192.0, 0.0, 0.0, 0.0, 0.0, 0.0, 0.0, 0.0, 0.0, 0.0, 1.645920275767648E9, 0.0, 2022-02-27 11:04:35.767
212.0, -3814.7945779317115, -6803.1557563729, -1603.7823681571924, -9972.633120135442, -734.2995088457476, 1194.9019068362602, -5690.083585987519, -3314.8531096998586, -2479.3449019604805, -7494.003473997531, -3759.116382493542, -1839.9956035608775, -5012.80337724726, -3859.0286802087644, -11311.390854286057, -12984.262464554604, 0.013062500000000001, -0.10625000000000001, 0.990875, 192.0, 0.0, 0.0, 0.0, 0.0, 0.0, 0.0, 0.0, 0.0, 0.0, 1.645920275774782E9, 0.0, 2022-02-27 11:04:35.774
214.0, -3700.599515509548, -6690.100632917957, -1538.023535969679, -9930.813006259563, -661.097545754617, 1296.6693993412732, -5717.620935156458, -3438.7264774711703, -5311.377979681251, -8425.937107317104, -3767.4759349198266, -2225.5184919260137, -4996.8665834506255, -3974.4083850870593, -12007.155955690856, -14268.996032356745, 0.013531250000000002, -0.106125, 0.9894375, 192.0, 0.0, 56.0, 126.0, 88.0, 15.0, 112.0, 0.0, 0.0, 0.0, 1.645920275782368E9, 0.0, 2022-02-27 11:04:35.782
216.0, -4030.9806503034415, -6894.373225495008, -1679.1077469715772, -10099.546325152674, -920.9365750475616, 1064.010091305982, -5711.161281008874, -3390.6255234033497, -3121.935203306103, -7923.827519873085, -3781.8704583490444, -1824.5505481422601, -5016.893746482581, -3886.3872154220603, -11404.821146109241, -13421.887269245062, 0.013531250000000002, -0.106125, 0.9894375, 192.0, 0.0, 0.0, 0.0, 0.0, 0.0, 0.0, 0.0, 0.0, 0.0, 1.645920275790344E9, 0.0, 2022-02-27 11:04:35.790
218.0, -3597.04388344811, -6661.803324437538, -1519.9633264497909, -9866.127057805903, -576.87617264702, 1340.9929085961471, -5762.279720578161, -3365.256293446576, -3773.913237322955, -7777.647111135378, -3732.048419958165, -2066.6869958266016, -4977.286455307777, -3880.665168841502, -11675.545474951921, -13506.10864235266, 0.013531250000000002, -0.106125, 0.9894375, 192.0, 0.0, 0.0, 0.0, 0.0, 0.0, 0.0, 0.0, 0.0, 0.0, 1.645920275798293E9, 0.0, 2022-02-27 11:04:35.798
220.0, -3975.816544987744, -6833.062390454101, -1647.8376564786026, -10085.062394745635, -888.7053595430089, 1113.0051151520152, -5676.270207914139, -3421.180358073754, -4910.007704497302, -8504.861116988792, -3792.46518522086, -2071.514972628948, -5020.04534245078, -3965.646501260579, -11851.386648581822, -14223.666694601381, 0.013531250000000002, -0.106125, 0.9894375, 192.0, 0.0, 0.0, 0.0, 0.0, 0.0, 0.0, 0.0, 0.0, 0.0, 1.645920275804517E9, 0.0, 2022-02-27 11:04:35.804
222.0, -3813.498176753304, -6796.494936525219, -1608.3868275149857, -9973.97422480276, -741.5861775381777, 1193.136119024291, -5681.522867861137, -3307.611144496339, -2466.8726285544194, -7496.775090309989, -3762.625606373025, -1840.0179553053326, -5018.838348250192, -3854.848903995622, -11305.154717583027, -12991.124450102383, 0.013531250000000002, -0.106125, 0.9894375, 192.0, 0.0, 0.0, 0.0, 0.0, 0.0, 0.0, 0.0, 0.0, 0.0, 1.645920275819871E9, 0.0, 2022-02-27 11:04:35.819
224.0, -3679.6112274660145, -6664.12790586089, -1533.3967248674305, -9928.711942280763, -657.0742317526617, 1292.2661056835777, -5709.931935063832, -3436.9159861702906, -5276.308092630875, -8400.031435493402, -3752.5226178792263, -2212.6885906086673, -4997.201859617456, -3963.321919837227, -12003.087938199991, -14261.8658258755, 0.011765625000000002, -0.1070625, 0.98971875, 192.0, 0.0, 40.0, 126.0, 80.0, 15.0, 120.0, 0.0, 0.0, 0.0, 1.645920275827868E9, 0.0, 2022-02-27 11:04:35.827
226.0, -4043.7211446429665, -6901.324618020609, -1685.5226976302504, -10115.95250558287, -934.504083931933, 1052.3424807003119, -5685.859106285466, -3356.382650897819, -3172.047814374902, -7941.060714848128, -3778.65180714748, -1830.786684845291, -5030.103627455667, -3901.3405324626606, -11420.377960250134, -13452.24093821537, 0.011765625000000002, -0.1070625, 0.98971875, 192.0, 0.0, 0.0, 0.0, 0.0, 0.0, 0.0, 0.0, 0.0, 0.0, 1.645920275834578E9, 0.0, 2022-02-27 11:04:35.834
228.0, -3602.0953776950096, -6668.620606496407, -1517.5940415375283, -9877.504095733655, -566.616721942034, 1337.6401469278512, -5690.463565643259, -3369.748994082093, -3725.6111175550363, -7776.373061701425, -3724.0911989320757, -2083.5625628903585, -4985.958932156436, -3896.1325760045743, -11660.480399189044, -13486.774383398819, 0.011765625000000002, -0.1070625, 0.98971875, 192.0, 0.0, 0.0, 0.0, 0.0, 0.0, 0.0, 0.0, 0.0, 0.0, 1.645920275842519E9, 0.0, 2022-02-27 11:04:35.842
230.0, -3961.4667250474367, -6819.561936803096, -1629.3974673029743, -10080.592045854575, -869.7510802449084, 1116.6037460093196, -5667.351861876472, -3458.418364336296, -4942.507140935319, -8516.327561894364, -3774.852010590078, -2088.256429225973, -5010.478795823908, -3977.9623124554532, -11856.05816317298, -14244.654982644914, 0.011765625000000002, -0.1070625, 0.98971875, 192.0, 0.0, 0.0, 0.0, 0.0, 0.0, 0.0, 0.0, 0.0, 0.0, 1.645920275850533E9, 0.0, 2022-02-27 11:04:35.850
232.0, -3833.2124153628847, -6809.101320398012, -1614.019467117723, -9989.106355799004, -746.8388374851748, 1178.1604502392352, -5659.506399572659, -3315.7918829669816, -2439.5811485744894, -7504.508793891525, -3745.4147631424385, -1843.8624553516456, -5004.533231798796, -3854.7818487622562, -11300.416147758502, -12997.695862972245, 0.011765625000000002, -0.1070625, 0.98971875, 192.0, 0.0, 0.0, 0.0, 0.0, 0.0, 0.0, 0.0, 0.0, 0.0, 1.645920275857706E9, 0.0, 2022-02-27 11:04:35.857
234.0, -3694.631599739981, -6680.489382802175, -1540.437524370852, -9932.847015004994, -657.5436183862232, 1286.6334660808404, -5684.093318473497, -3409.736264912637, -5268.105002415777, -8405.57466811832, -3767.922969808933, -2239.018945577019, -5000.129938141101, -3983.0808619357185, -12001.456260854753, -14247.873633846479, 0.014, -0.108, 0.988, 192.0, 0.0, 56.0, 126.0, 80.0, 15.0, 112.0, 0.0, 0.0, 0.0, 1.645920275865183E9, 0.0, 2022-02-27 11:04:35.865
236.0, -4044.034069065341, -6897.837745885581, -1681.6781975839374, -10109.068168290636, -942.4166014691117, 1042.0606782508705, -5677.566609092547, -3364.9880725131125, -3230.654088336717, -7972.397860574468, -3787.078414807131, -1834.0500395357658, -5032.9646507459465, -3921.322992005705, -11431.352666777691, -13477.967796083427, 0.014, -0.108, 0.988, 192.0, 0.0, 0.0, 0.0, 0.0, 0.0, 0.0, 0.0, 0.0, 0.0, 1.64592027587222E9, 0.0, 2022-02-27 11:04:35.872
238.0, -3597.110938681476, -6660.998661637147, -1513.0789891575564, -9870.217427041225, -579.9383616373971, 1325.2349287551558, -5691.871725543943, -3351.577025839928, -3663.0262330801766, -7759.117514981928, -3723.241832642774, -2051.197236919074, -4987.791775201771, -3896.95959054942, -11640.185015223626, -13456.532473150788, 0.014, -0.108, 0.988, 192.0, 0.0, 0.0, 0.0, 0.0, 0.0, 0.0, 0.0, 0.0, 0.0, 1.645920275880246E9, 0.0, 2022-02-27 11:04:35.880
240.0, -3933.5046927338476, -6791.890477167425, -1620.4791212653067, -10071.51723760572, -871.896847712618, 1123.2869176014565, -5696.252667457184, -3433.1161896128883, -4974.246618061855, -8523.189547442145, -3772.46037393336, -2072.341987173794, -5008.6683045230275, -3975.5706757987355, -11864.328308621443, -14257.551939195626, 0.014, -0.108, 0.988, 192.0, 0.0, 0.0, 0.0, 0.0, 0.0, 0.0, 0.0, 0.0, 0.0, 1.645920275886871E9, 0.0, 2022-02-27 11:04:35.886
242.0, -3810.234822062829, -6785.63198871994, -1599.9602198553348, -9985.664187152886, -749.5657503087224, 1179.0768717619028, -5681.880495772421, -3306.851185184859, -2412.244965105649, -7492.103575718829, -3728.293326889673, -1808.949030512456, -4992.84326944867, -3852.5690260611805, -11287.85446737462, -12989.068089612496, 0.014, -0.108, 0.988, 192.0, 0.0, 0.0, 0.0, 0.0, 0.0, 0.0, 0.0, 0.0, 0.0, 1.645920275894886E9, 0.0, 2022-02-27 11:04:35.894
244.0, -3658.3994219779283, -6651.700335943739, -1522.1314456619557, -9921.313514866057, -641.7856385452317, 1301.7655970770834, -5703.896964060898, -3439.3076228270083, -5209.096397053766, -8363.285167608878, -3733.210710669841, -2200.641000347257, -4983.74610945536, -3963.1878093704954, -11993.700205528761, -14227.399435925417, 0.012, -0.112, 0.99, 192.0, 0.0, 48.0, 126.0, 64.0, 15.0, 120.0, 0.0, 0.0, 0.0, 1.645920275902873E9, 0.0, 2022-02-27 11:04:35.902
246.0, -4034.5345776718355, -6890.998112082257, -1676.8949242705019, -10114.209069515357, -936.5157409329106, 1053.147143500703, -5687.311969675061, -3384.8811250783356, -3255.397469448742, -7979.036328677694, -3766.4924581637933, -1828.5515103997602, -5022.70520004096, -3902.167547007507, -11444.920175662062, -13503.985226629404, 0.012, -0.112, 0.99, 192.0, 0.0, 0.0, 0.0, 0.0, 0.0, 0.0, 0.0, 0.0, 0.0, 1.645920275909984E9, 0.0, 2022-02-27 11:04:35.909
248.0, -3601.693046294814, -6664.664347727818, -1515.53768104764, -9881.438002757788, -577.4349662584027, 1319.3340682189546, -5695.783280823623, -3371.9841685276233, -3597.2226974037526, -7721.343066852459, -3724.8511582435563, -2032.511178554437, -4984.08138562219, -3886.521325888792, -11634.77589306544, -13431.431464127478, 0.012, -0.112, 0.99, 192.0, 0.0, 0.0, 0.0, 0.0, 0.0, 0.0, 0.0, 0.0, 0.0, 1.645920275917396E9, 0.0, 2022-02-27 11:04:35.917
250.0, -3939.7408294368784, -6802.641666250428, -1612.0972170945665, -10079.183885953891, -865.280731353847, 1120.8952809447385, -5689.770661565145, -3449.8799979543687, -5004.130900398601, -8521.848442774826, -3776.8636675910557, -2080.7909465779003, -5005.740225999382, -3974.877771720621, -11884.578989097952, -14275.433334759873, 0.012, -0.112, 0.99, 192.0, 0.0, 0.0, 0.0, 0.0, 0.0, 0.0, 0.0, 0.0, 0.0, 1.64592027592549E9, 0.0, 2022-02-27 11:04:35.925
252.0, -3830.396095561516, -6801.524079027663, -1598.4179494879186, -10000.684559426853, -759.8699045026189, 1167.6104268563304, -5677.700719559279, -3319.1222928908223, -2400.33148531097, -7490.784822795967, -3741.7937805406787, -1806.5797456001933, -4996.128975883601, -3853.5748545616693, -11292.861258132609, -12991.169153591294, 0.012, -0.112, 0.99, 192.0, 0.0, 0.0, 0.0, 0.0, 0.0, 0.0, 0.0, 0.0, 0.0, 1.645920275939682E9, 0.0, 2022-02-27 11:04:35.939
254.0, -3648.5870061620485, -6649.241644053655, -1510.6202972674726, -9921.380570099422, -645.741897313821, 1298.1446144753236, -5705.394530939404, -3431.7527332011146, -5175.479373392985, -8339.569966741798, -3735.9376234933884, -2193.0190554879973, -4977.286455307777, -3962.874884948121, -11993.096708428468, -14212.691988073826, 0.012, -0.11, 0.992, 192.0, 0.0, 48.0, 126.0, 72.0, 15.5, 0.0, 0.0, 0.0, 0.0, 1.645920275947075E9, 0.0, 2022-02-27 11:04:35.947
0.0, -4028.164330502073, -6880.761013121726, -1674.3691771470521, -10122.143938796991, -950.4408777285669, 1038.1267712267365, -5696.722054090746, -3384.769366356059, -3297.418749024719, -7990.234552649803, -3764.6372633740025, -1816.9733067719112, -5016.781987760304, -3914.7962826247553, -11459.426457813557, -13528.192165874501, 0.012, -0.11, 0.992, 192.0, 0.0, 0.0, 0.0, 0.0, 0.0, 0.0, 0.0, 0.0, 0.0, 1.645920275955199E9, 0.0, 2022-02-27 11:04:35.955
2.0, -3589.466642077761, -6662.764449449116, -1516.3199921035757, -9888.881133661405, -588.0743966191288, 1305.319524445477, -5708.344961207505, -3379.740223853615, -3527.8875861033903, -7709.697807991244, -3714.9716871943106, -2019.8600911927333, -4982.002673387847, -3895.1267475040854, -11627.332762161823, -13413.393606352045, 0.012, -0.11, 0.992, 192.0, 0.0, 0.0, 0.0, 0.0, 0.0, 0.0, 0.0, 0.0, 0.0, 1.645920275963091E9, 0.0, 2022-02-27 11:04:35.963
4.0, -3908.135462777074, -6787.710700954283, -1613.1253973395108, -10076.769897552716, -863.1349638861375, 1121.0293914114704, -5717.352714222993, -3463.223989394187, -5032.696429812483, -8527.369323655286, -3764.391394184994, -2084.74720534649, -5008.914173712036, -3985.7630712703553, -11901.4098526728, -14299.617922260515, 0.012, -0.11, 0.992, 192.0, 0.0, 0.0, 0.0, 0.0, 0.0, 0.0, 0.0, 0.0, 0.0, 1.645920275969692E9, 0.0, 2022-02-27 11:04:35.969
6.0, -3825.724580970357, -6808.855451209003, -1607.5151094812286, -10012.50863224371, -766.7542417948534, 1150.84661851485, -5699.1360424919185, -3339.70824953416, -2387.881563649364, -7497.870325788299, -3736.5411205936816, -1799.78481528578, -5002.186298630989, -3868.4834681133593, -11303.634798960067, -13004.468441542202, 0.012, -0.11, 0.992, 192.0, 0.0, 0.0, 0.0, 0.0, 0.0, 0.0, 0.0, 0.0, 0.0, 1.645920275977822E9, 0.0, 2022-02-27 11:04:35.977
8.0, -3638.4169624348838, -6653.734344689173, -1512.408436823897, -9928.264907391656, -628.9110337389748, 1294.5906871069299, -5719.118502034963, -3452.763372989103, -5143.6728410330825, -8332.797388171839, -3737.1669694384304, -2201.311552680916, -4979.164001842022, -3970.139201896096, -11996.47182184122, -14208.892191516423, 0.014, -0.108, 0.99, 192.0, 0.0, 56.0, 126.0, 80.0, 15.0, 120.0, 0.0, 0.0, 0.0, 1.64592027598569E9, 0.0, 2022-02-27 11:04:35.985
10.0, -4017.547251885802, -6875.843629341559, -1669.2953311556973, -10124.222651031334, -932.1347990196705, 1042.4853613955213, -5688.742481320201, -3380.8801628208357, -3348.6936508051936, -8004.740834801297, -3768.280597720218, -1820.013144017833, -5016.245545893377, -3917.9702303374092, -11471.451696330512, -13556.645936566109, 0.014, -0.108, 0.99, 192.0, 0.0, 0.0, 0.0, 0.0, 0.0, 0.0, 0.0, 0.0, 0.0, 1.645920275992868E9, 0.0, 2022-02-27 11:04:35.992
12.0, -3597.8708979929565, -6670.341690819466, -1519.605698538506, -9895.094918619981, -580.2065825708607, 1312.4720826711755, -5705.573344895047, -3370.8218778159476, -3467.5602278185165, -7671.230455783661, -3721.1631204084306, -2004.7056084520352, -4980.929789653992, -3893.428014925482, -11609.943104975595, -13384.246931582324, 0.014, -0.108, 0.99, 192.0, 0.0, 0.0, 0.0, 0.0, 0.0, 0.0, 0.0, 0.0, 0.0, 1.645920276000287E9, 0.0, 2022-02-27 11:04:36.000
14.0, -3915.9585733364315, -6798.104262126, -1612.8124729171363, -10081.419060399421, -847.4440392785119, 1135.4015630962328, -5702.3099902045715, -3455.1773613902765, -5079.031596068335, -8534.767751069994, -3778.5847519141143, -2090.5586589048694, -5014.636220292595, -3994.6590655635678, -11905.991960286137, -14303.373015329005, 0.014, -0.108, 0.99, 192.0, 0.0, 0.0, 0.0, 0.0, 0.0, 0.0, 0.0, 0.0, 0.0, 1.645920276007147E9, 0.0, 2022-02-27 11:04:36.007
16.0, -3840.677898010957, -6818.623163535973, -1603.7376646682817, -10020.532908503164, -770.6657970745322, 1156.680423817685, -5677.700719559279, -3325.5595952939507, -2401.538479511557, -7511.8625178173215, -3748.0299172437094, -1793.3251611381963, -5015.977324959913, -3875.2113431944067, -11291.050766831728, -13005.586028764967, 0.014, -0.108, 0.99, 192.0, 0.0, 0.0, 0.0, 0.0, 0.0, 0.0, 0.0, 0.0, 0.0, 1.645920276014631E9, 0.0, 2022-02-27 11:04:36.014
18.0, -3622.5472238716156, -6637.1940537922455, -1495.0858348710342, -9926.074436435038, -620.0373911902179, 1308.001733780114, -5704.36635069446, -3437.027744892567, -5106.546593492817, -8319.83337638776, -3737.7704665387237, -2195.8800787782766, -4989.043472891268, -3977.7611467553556, -11983.03842342358, -14184.059403426578, 0.012, -0.106, 0.994, 192.0, 0.0, 48.0, 126.0, 88.0, 15.5, 8.0, 0.0, 0.0, 0.0, 1.645920276022618E9, 0.0, 2022-02-27 11:04:36.022
20.0, -4010.774673315844, -6864.667757113905, -1650.1175344130438, -10125.429645231921, -925.9433658055503, 1046.2851579529236, -5690.575324365535, -3381.9753982991456, -3392.48071819314, -8024.119797244049, -3764.749022096279, -1831.6807546235032, -5014.680923781505, -3919.713666404923, -11479.833600501252, -13582.64101536763, 0.012, -0.106, 0.994, 192.0, 0.0, 0.0, 0.0, 0.0, 0.0, 0.0, 0.0, 0.0, 0.0, 1.645920276030752E9, 0.0, 2022-02-27 11:04:36.030
22.0, -3577.4190518163505, -6644.436018995764, -1496.1363668604336, -9889.797555184074, -572.070547589129, 1312.2485652266223, -5714.983429310731, -3353.7898485410037, -3406.741131155626, -7652.678507885756, -3715.217556383319, -1992.4792042349823, -4985.310731567232, -3887.169526477996, -11595.302712357368, -13361.157579559993, 0.012, -0.106, 0.994, 192.0, 0.0, 0.0, 0.0, 0.0, 0.0, 0.0, 0.0, 0.0, 0.0, 1.645920276037265E9, 0.0, 2022-02-27 11:04:36.037
24.0, -3881.3804246640716, -6763.43670647582, -1592.1371092959773, -10065.906949747437, -841.8784549091405, 1149.03612721397, -5709.820176341555, -3452.4951520556397, -5093.448471242007, -8521.177890441168, -3766.8500860750783, -2091.251562982984, -5006.813109733237, -3985.807774759266, -11920.31942848199, -14309.318579354118, 0.012, -0.106, 0.994, 192.0, 0.0, 0.0, 0.0, 0.0, 0.0, 0.0, 0.0, 0.0, 0.0, 1.645920276045294E9, 0.0, 2022-02-27 11:04:36.045
26.0, -3833.8606159520887, -6801.702892983305, -1603.0894640790777, -10021.35992304801, -779.2712186898254, 1149.6172725698082, -5669.251760155173, -3323.3691243373305, -2388.3509502829256, -7503.4135584132155, -3737.9269287499105, -1782.462213332917, -5009.338856856687, -3866.4047558790157, -11295.834040145164, -13004.311979331014, 0.012, -0.106, 0.994, 192.0, 0.0, 0.0, 0.0, 0.0, 0.0, 0.0, 0.0, 0.0, 0.0, 1.645920276052418E9, 0.0, 2022-02-27 11:04:36.052
28.0, -3619.7532558147022, -6638.132827059368, -1500.4279017958524, -9921.693494521796, -616.8634434775643, 1304.6042686229073, -5717.643286900912, -3440.2687478385865, -5079.38922397962, -8291.78193709635, -3735.423533370916, -2182.893715249743, -4990.831612447692, -3973.9166467090427, -11980.915007700325, -14163.85342643898, 0.012, -0.11, 0.994, 192.0, 0.0, 48.0, 126.0, 72.0, 15.5, 8.0, 0.0, 0.0, 0.0, 1.645920276066997E9, 0.0, 2022-02-27 11:04:36.066
30.0, -4014.4403594065143, -6868.087574015567, -1656.3983746049853, -10129.430607489421, -944.8082381258296, 1044.3852596742224, -5719.230260757239, -3394.3582647273856, -3458.6865852697597, -8056.082791815137, -3772.661539633458, -1835.525254669816, -5025.767389031338, -3918.6631344155235, -11503.079414734771, -13611.921800604083, 0.012, -0.11, 0.994, 192.0, 0.0, 0.0, 0.0, 0.0, 0.0, 0.0, 0.0, 0.0, 0.0, 1.645920276075024E9, 0.0, 2022-02-27 11:04:36.075
32.0, -3586.918543209856, -6653.957862133725, -1501.9478204188133, -9897.86653493244, -592.8800216770198, 1310.5051291591085, -5696.6102953684685, -3377.6838633637267, -3346.0114414705567, -7642.150836247306, -3715.4187220834165, -1986.3324745097727, -4987.903533924047, -3875.7030815724233, -11589.938293688094, -13340.795140361208, 0.012, -0.11, 0.994, 192.0, 0.0, 0.0, 0.0, 0.0, 0.0, 0.0, 0.0, 0.0, 0.0, 1.645920276084127E9, 0.0, 2022-02-27 11:04:36.084
34.0, -3876.619503095091, -6760.776848885638, -1591.1312807954885, -10069.3267666491, -861.5032865409001, 1135.0215834404926, -5685.434423140815, -3445.275538596575, -5124.20447161251, -8528.039875988947, -3770.5157721657483, -2095.163118262663, -5018.547775572273, -3988.132356182618, -11927.494338452141, -14329.681018552903, 0.012, -0.11, 0.994, 192.0, 0.0, 0.0, 0.0, 0.0, 0.0, 0.0, 0.0, 0.0, 0.0, 1.645920276089563E9, 0.0, 2022-02-27 11:04:36.089
36.0, -3842.9577759453987, -6804.988599418235, -1603.2682780347202, -10033.496920287243, -810.1836812715151, 1127.1090659033139, -5684.562705107058, -3329.5382058069954, -2393.8941829078417, -7516.243459730561, -3744.2524724307627, -1778.5953615421488, -5021.8111302627485, -3869.176372191474, -11295.990502356351, -13022.081616172984, 0.012, -0.11, 0.994, 192.0, 0.0, 0.0, 0.0, 0.0, 0.0, 0.0, 0.0, 0.0, 0.0, 1.645920276097567E9, 0.0, 2022-02-27 11:04:36.097
38.0, -3603.3470753845068, -6621.681943140262, -1490.5037272576963, -9928.06374169156, -635.3483361421032, 1299.9104022872928, -5725.801673627099, -3464.0733556834884, -5035.7809705473155, -8271.68771883103, -3730.550853079659, -2181.5302588379695, -5001.471042808419, -3967.971082683931, -11983.08312691249, -14160.858292681969, 0.012, -0.112, 0.996, 192.0, 0.0, 48.0, 126.0, 64.0, 15.5, 16.0, 0.0, 0.0, 0.0, 1.645920276105603E9, 0.0, 2022-02-27 11:04:36.105
40.0, -4021.771731587855, -6865.584178636573, -1655.9960432047897, -10141.634659962017, -955.6041306977429, 1028.2473001774908, -5696.342074435005, -3375.9851307851236, -3508.441568427273, -8075.953492635906, -3766.783030841712, -1846.36585073064, -5033.791665290793, -3929.0119920983307, -11520.781996343374, -13658.301670348845, 0.012, -0.112, 0.996, 192.0, 0.0, 0.0, 0.0, 0.0, 0.0, 0.0, 0.0, 0.0, 0.0, 1.645920276112705E9, 0.0, 2022-02-27 11:04:36.112
42.0, -3593.512307824172, -6654.561359234019, -1507.7145704882826, -9906.896639692384, -604.9499636828856, 1294.2554109401, -5716.5704031670575, -3371.1348022383218, -3299.5645164924285, -7638.172225734262, -3722.817149498123, -1987.3159512658062, -4994.8102229607375, -3889.114128245608, -11576.639005737186, -13332.346180957102, 0.012, -0.112, 0.996, 192.0, 0.0, 0.0, 0.0, 0.0, 0.0, 0.0, 0.0, 0.0, 0.0, 1.645920276119196E9, 0.0, 2022-02-27 11:04:36.119
44.0, -3864.6389680670463, -6746.2035115007775, -1591.310094751131, -10070.1761329384, -853.6801759815427, 1157.5297901069869, -5738.832740644543, -3464.6992045282373, -5137.30259386332, -8529.224518445077, -3766.0007197857763, -2099.1417287757076, -5014.144481914578, -3983.483193335914, -11946.001582861136, -14352.636260108502, 0.012, -0.112, 0.996, 192.0, 0.0, 0.0, 0.0, 0.0, 0.0, 0.0, 0.0, 0.0, 0.0, 1.645920276127176E9, 0.0, 2022-02-27 11:04:36.127
46.0, -3854.5359795732475, -6806.732035485749, -1614.824129918114, -10041.096513402046, -813.5140911953558, 1140.2518916430345, -5701.930010548832, -3342.457514102163, -2381.176040312772, -7520.087959776874, -3748.722821321824, -1785.524402323294, -5018.301906383265, -3857.821686008178, -11301.757252425821, -13033.324543634004, 0.011, -0.112, 0.995, 192.0, 0.0, 40.0, 126.0, 64.0, 15.5, 8.0, 0.0, 0.0, 0.0, 1.645920276135227E9, 0.0, 2022-02-27 11:04:36.135
48.0, -3620.244994192719, -6631.516710700597, -1501.9254686743582, -9930.365971370456, -635.9741849868518, 1312.4050274378094, -5703.651094871891, -3446.057849652511, -4985.198972844955, -8253.605157566686, -3741.659670073947, -2193.488442121559, -4995.346664827664, -3953.6659662325346, -11970.946129673259, -14143.915670384846, 0.011, -0.112, 0.995, 192.0, 0.0, 0.0, 0.0, 0.0, 0.0, 0.0, 0.0, 0.0, 0.0, 1.645920276142479E9, 0.0, 2022-02-27 11:04:36.142
50.0, -4045.2187115214724, -6879.866943343514, -1669.340034644608, -10149.323660054644, -971.9432558945723, 1043.5582451293762, -5674.1914956797955, -3381.2601424765758, -3569.081851134521, -8107.156527895514, -3791.9734468428433, -1868.203505063475, -5044.81107530726, -3928.7214194204116, -11523.687723122564, -13673.009118200436, 0.011, -0.112, 0.995, 192.0, 0.0, 0.0, 0.0, 0.0, 0.0, 0.0, 0.0, 0.0, 0.0, 1.645920276151277E9, 0.0, 2022-02-27 11:04:36.151
52.0, -3619.57444185906, -6675.974330422203, -1515.247108369721, -9914.898564207384, -620.9091092239748, 1298.8598702978934, -5672.246893912184, -3353.432220629719, -3253.430515936675, -7632.651344853801, -3738.6421845724803, -1989.3946635001498, -5010.210574890444, -3882.945046775943, -11555.695421182565, -13301.634884075509, 0.011, -0.112, 0.995, 192.0, 0.0, 0.0, 0.0, 0.0, 0.0, 0.0, 0.0, 0.0, 0.0, 1.645920276158755E9, 0.0, 2022-02-27 11:04:36.158
54.0, -3877.424165895482, -6755.725354638738, -1585.7445103817595, -10068.969138737815, -849.5674550017661, 1167.744537323062, -5695.358597678972, -3445.6555182523157, -5182.386062429674, -8547.709411109616, -3784.619722917047, -2119.124188318752, -5021.073522695723, -3983.93022822502, -11944.481664238176, -14347.562414117148, 0.011, -0.112, 0.995, 192.0, 0.0, 0.0, 0.0, 0.0, 0.0, 0.0, 0.0, 0.0, 0.0, 1.645920276165074E9, 0.0, 2022-02-27 11:04:36.165
56.0, -3874.7643083053003, -6823.249974638221, -1618.2662985642314, -10047.198539638346, -825.5393297123111, 1142.5764730663864, -5663.842637996989, -3309.108711374845, -2390.3849590283585, -7540.740971653578, -3761.9550540393657, -1789.011274458322, -5024.001601219368, -3856.6593952965018, -11287.116859807595, -13021.768691750609, 0.0115, -0.111, 0.9935, 192.0, 0.0, 48.0, 126.0, 72.0, 15.5, 0.0, 0.0, 0.0, 0.0, 1.645920276172438E9, 0.0, 2022-02-27 11:04:36.172
58.0, -3612.33247665554, -6639.093952070946, -1499.6679424843721, -9923.01224744466, -627.9722604718519, 1323.35738222091, -5696.297370946094, -3434.904329169313, -4951.067859061702, -8244.01625919536, -3745.6382805869916, -2198.964619513109, -5002.231002119899, -3963.5230855373247, -11954.22702482069, -14102.900219309357, 0.0115, -0.111, 0.9935, 192.0, 0.0, 0.0, 0.0, 0.0, 0.0, 0.0, 0.0, 0.0, 0.0, 1.645920276187575E9, 0.0, 2022-02-27 11:04:36.187
60.0, -4037.1497317731064, -6886.326597491097, -1671.4410986234068, -10143.19928207389, -964.8354011577846, 1054.7788208459403, -5677.700719559279, -3392.547773426506, -3623.8436250500235, -8119.718208279397, -3787.3242839961395, -1867.264731796352, -5036.630336836617, -3935.717515434923, -11534.595374416755, -13695.964359756037, 0.0115, -0.111, 0.9935, 192.0, 0.0, 0.0, 0.0, 0.0, 0.0, 0.0, 0.0, 0.0, 0.0, 1.6459202761946E9, 0.0, 2022-02-27 11:04:36.194
62.0, -3627.4422559073278, -6690.413557340331, -1529.9098527324024, -9915.837337474506, -623.4572080918799, 1296.1553092188012, -5682.618103339446, -3350.4370868727074, -3204.010808945991, -7608.064425952963, -3745.235949186796, -1977.6376459166584, -5007.528365555807, -3896.557259149225, -11542.597298931754, -13281.160686154448, 0.0115, -0.111, 0.9935, 192.0, 0.0, 0.0, 0.0, 0.0, 0.0, 0.0, 0.0, 0.0, 0.0, 1.645920276202108E9, 0.0, 2022-02-27 11:04:36.202
64.0, -3880.1510787190296, -6766.81181988857, -1598.1720802989103, -10066.868074759017, -839.5985769746992, 1166.8728192893052, -5689.614199353958, -3441.699259483726, -5213.656152922649, -8538.902823794226, -3791.36994974255, -2125.092104088319, -5025.007429719857, -4006.3713796581487, -11948.683792195772, -14355.7878560767, 0.0115, -0.111, 0.9935, 192.0, 0.0, 0.0, 0.0, 0.0, 0.0, 0.0, 0.0, 0.0, 0.0, 1.645920276210074E9, 0.0, 2022-02-27 11:04:36.210
66.0, -3901.072311529197, -6844.372373148486, -1635.499493539273, -10058.396763610455, -829.9426233700066, 1125.075057157881, -5684.205077195773, -3324.710229004649, -2407.9981336591404, -7552.833265403899, -3770.1581442544634, -1785.4126436010176, -5027.577880332217, -3877.4688693843927, -11284.255836517315, -13039.091293703474, 0.01075, -0.1125, 0.99175, 192.0, 0.0, 40.0, 126.0, 56.0, 15.0, 120.0, 0.0, 0.0, 0.0, 1.645920276218188E9, 0.0, 2022-02-27 11:04:36.218
68.0, -3635.6453461224255, -6655.857760412427, -1520.6785822723607, -9925.359180612468, -632.487312851824, 1317.5682804069854, -5710.155452508385, -3427.975288388168, -4941.054277545724, -8232.192186378501, -3762.2456267172847, -2196.3271136673825, -5010.858775479648, -3960.192675613484, -11952.438885264264, -14088.21512320222, 0.01075, -0.1125, 0.99175, 192.0, 0.0, 0.0, 0.0, 0.0, 0.0, 0.0, 0.0, 0.0, 0.0, 1.645920276224773E9, 0.0, 2022-02-27 11:04:36.224
70.0, -4062.4966099854246, -6899.089443575078, -1690.373026177052, -10151.648241477997, -972.0997181057595, 1042.3959544177, -5681.03112948312, -3386.6245611458494, -3703.9075736889336, -8144.439237646966, -3803.3728365150496, -1884.3191128157514, -5045.101647985179, -3932.364753766627, -11554.913110126628, -13720.95361005707, 0.01075, -0.1125, 0.99175, 192.0, 0.0, 0.0, 0.0, 0.0, 0.0, 0.0, 0.0, 0.0, 0.0, 1.645920276232823E9, 0.0, 2022-02-27 11:04:36.232
72.0, -3647.491770683738, -6698.884868488893, -1553.3568326660197, -9920.598259043487, -629.2239581613492, 1295.1494807183124, -5673.923274746332, -3340.736429779104, -3173.5006777644967, -7610.07608295394, -3753.0590597461537, -1981.1468697961416, -5011.75284525786, -3881.1345554750633, -11534.327153483291, -13253.757447452243, 0.01075, -0.1125, 0.99175, 192.0, 0.0, 0.0, 0.0, 0.0, 0.0, 0.0, 0.0, 0.0, 0.0, 1.645920276239908E9, 0.0, 2022-02-27 11:04:36.239
74.0, -3880.776927563778, -6770.030471090135, -1613.9524118843572, -10059.08966768857, -841.6772892090428, 1167.0292815004923, -5694.21865871175, -3448.1365618868545, -5257.80084822188, -8556.426591447185, -3796.712016667368, -2138.167874594674, -5025.722685542427, -3994.5026033523804, -11960.50786501263, -14360.101742756575, 0.01075, -0.1125, 0.99175, 192.0, 0.0, 0.0, 0.0, 0.0, 0.0, 0.0, 0.0, 0.0, 0.0, 1.645920276247903E9, 0.0, 2022-02-27 11:04:36.247
76.0, -3913.6563436575348, -6849.133294717467, -1651.6821565249154, -10057.055658943136, -840.4702950084562, 1115.977897164571, -5675.778469536122, -3321.3351155918976, -2435.759000272632, -7567.45130627767, -3779.098842036586, -1792.9004779935453, -5037.703220570472, -3878.586456607158, -11290.581380198168, -13045.930927506797, 0.012375, -0.11025, 0.990875, 192.0, 0.0, 56.0, 126.0, 80.0, 15.0, 120.0, 0.0, 0.0, 0.0, 1.645920276254395E9, 0.0, 2022-02-27 11:04:36.254
78.0, -3633.76779958818, -6661.2221790817, -1534.0002219677237, -9927.43789284681, -623.7701325142542, 1307.3535331909102, -5712.480033931736, -3414.5418899705282, -4905.4703003728755, -8217.350628060178, -3766.0901267635977, -2199.2551921910276, -5012.669266780528, -3970.1839053850063, -11945.532196227574, -14065.215178157709, 0.012375, -0.11025, 0.990875, 192.0, 0.0, 0.0, 0.0, 0.0, 0.0, 0.0, 0.0, 0.0, 0.0, 1.645920276262399E9, 0.0, 2022-02-27 11:04:36.262
80.0, -4064.552970475313, -6900.27408603121, -1703.1358722610323, -10157.325584569644, -972.8149739283293, 1035.4222101476444, -5695.112728489963, -3382.6906541217154, -3765.687795363402, -8177.989206074382, -3814.0346186202314, -1902.7593019913797, -5052.790648077804, -3951.8554749316545, -11571.363994045734, -13751.687258683118, 0.012375, -0.11025, 0.990875, 192.0, 0.0, 0.0, 0.0, 0.0, 0.0, 0.0, 0.0, 0.0, 0.0, 1.645920276270512E9, 0.0, 2022-02-27 11:04:36.270
82.0, -3655.62780566547, -6708.697284304772, -1562.8339723150698, -9928.399017858388, -631.034449462229, 1289.6062480933963, -5691.961132521765, -3335.841397743392, -3127.0537527863685, -7604.801071262488, -3766.8500860750783, -1983.2702855193957, -5019.508900583852, -3887.8624305561107, -11524.179461500582, -13235.026685598694, 0.012375, -0.11025, 0.990875, 192.0, 0.0, 0.0, 0.0, 0.0, 0.0, 0.0, 0.0, 0.0, 0.0, 1.645920276276924E9, 0.0, 2022-02-27 11:04:36.276
84.0, -3873.132630960063, -6771.930369368836, -1616.9698973858235, -10062.107153190036, -826.8357308907189, 1172.2819414474895, -5704.70162686129, -3449.097686898433, -5280.644331055204, -8565.657861907228, -3807.8655371505665, -2158.3962033267267, -5035.199825191477, -3997.251867920383, -11972.89073144087, -14366.404934692971, 0.012375, -0.11025, 0.990875, 192.0, 0.0, 0.0, 0.0, 0.0, 0.0, 0.0, 0.0, 0.0, 0.0, 1.645920276285189E9, 0.0, 2022-02-27 11:04:36.285
86.0, -3921.725323405901, -6853.983623264268, -1660.3993368624851, -10069.66204281593, -849.410992790579, 1114.592089008342, -5682.528696361625, -3323.9949731820793, -2439.759962530132, -7582.203457618172, -3783.4127287164606, -1798.9354489964783, -5043.38056366212, -3873.6914245714456, -11295.699929678432, -13054.20107295526, 0.0141875, -0.107125, 0.9894375, 192.0, 0.0, 64.0, 126.0, 96.0, 15.0, 112.0, 0.0, 0.0, 0.0, 1.645920276293094E9, 0.0, 2022-02-27 11:04:36.293
88.0, -3623.6201076054704, -6649.643975453851, -1534.7154777902936, -9923.43693058931, -616.7069812663772, 1331.225196269178, -5713.731731621234, -3412.5972882029164, -4854.128343359035, -8194.618903949131, -3764.950187796377, -2209.7158085961114, -5014.412702848042, -3960.0809168912074, -11939.854853135927, -14040.740017979148, 0.0141875, -0.107125, 0.9894375, 192.0, 0.0, 0.0, 0.0, 0.0, 0.0, 0.0, 0.0, 0.0, 0.0, 1.645920276300077E9, 0.0, 2022-02-27 11:04:36.300
90.0, -4051.924234858064, -6883.800850367648, -1699.6490001260042, -10150.038915877214, -961.437936000578, 1058.9585970590826, -5693.123423233441, -3389.127956524844, -3811.8664994080664, -8182.705424154452, -3809.2289935623403, -1902.9828194359327, -5054.578787634228, -3943.585329483191, -11584.126840129715, -13771.781476948438, 0.0141875, -0.107125, 0.9894375, 192.0, 0.0, 0.0, 0.0, 0.0, 0.0, 0.0, 0.0, 0.0, 0.0, 1.645920276314709E9, 0.0, 2022-02-27 11:04:36.314
92.0, -3650.5763114185706, -6693.922781219814, -1557.4919053902515, -9922.654619533376, -627.7710947717542, 1303.4419779112313, -5692.564629622058, -3333.203891897666, -3072.761365504428, -7578.090736638396, -3751.047402745176, -1963.0866602762535, -5016.200842404466, -3876.686558328457, -11509.5167171379, -13213.032569054672, 0.0141875, -0.107125, 0.9894375, 192.0, 0.0, 0.0, 0.0, 0.0, 0.0, 0.0, 0.0, 0.0, 0.0, 1.645920276322725E9, 0.0, 2022-02-27 11:04:36.322
94.0, -3860.19097092044, -6757.200569772789, -1609.7502839267593, -10058.329708377089, -828.0203733468502, 1196.1089010368469, -5700.521850648147, -3442.258053095109, -5297.184621952131, -8553.766733857005, -3793.2921997657063, -2146.907406676699, -5033.098761212678, -3986.3218648817383, -11978.813943721527, -14371.70229812888, 0.0141875, -0.107125, 0.9894375, 192.0, 0.0, 0.0, 0.0, 0.0, 0.0, 0.0, 0.0, 0.0, 0.0, 1.645920276329771E9, 0.0, 2022-02-27 11:04:36.329
96.0, -3930.487207232381, -6857.783419821671, -1663.372118875041, -10075.384089396488, -854.8871701821292, 1120.9623361781046, -5676.672539314335, -3317.356505078853, -2458.8036488060534, -7592.440556578703, -3782.3845484715166, -1792.6099053156265, -5052.812999822259, -3875.077232727675, -11298.024511101785, -13066.650994616866, 0.01209375, -0.1065625, 0.98871875, 192.0, 0.0, 40.0, 126.0, 88.0, 15.0, 112.0, 0.0, 0.0, 0.0, 1.645920276337294E9, 0.0, 2022-02-27 11:04:36.337
98.0, -3619.4179796478725, -6646.224158552189, -1526.892367230936, -9916.664352019352, -612.9295364534303, 1340.389411495854, -5708.523775163148, -3403.7012939097044, -4821.785369132205, -8177.385708974089, -3764.7713738407347, -2197.9364392681646, -5020.04534245078, -3960.706765735956, -11930.17654778678, -14021.405759025307, 0.01209375, -0.1065625, 0.98871875, 192.0, 0.0, 0.0, 0.0, 0.0, 0.0, 0.0, 0.0, 0.0, 0.0, 1.645920276345413E9, 0.0, 2022-02-27 11:04:36.345
100.0, -4051.2089790354944, -6885.79015562417, -1690.373026177052, -10152.475256022843, -955.827648142296, 1059.562094159376, -5672.045728212086, -3391.296075737009, -3874.361976905105, -8207.62761922212, -3805.5409557272146, -1904.6368485256255, -5049.192017220499, -3945.3511172951603, -11589.111279143248, -13797.530686560953, 0.01209375, -0.1065625, 0.98871875, 192.0, 0.0, 0.0, 0.0, 0.0, 0.0, 0.0, 0.0, 0.0, 0.0, 1.645920276353241E9, 0.0, 2022-02-27 11:04:36.353
102.0, -3660.0310993231656, -6707.155013937356, -1553.4238878993856, -9929.114273680958, -632.2190919183603, 1293.584858606441, -5683.64628358439, -3316.5741940229173, -3036.015097619903, -7573.352166813871, -3758.4458301598825, -1958.7280701074685, -5018.681886039006, -3884.9567037769207, -11487.209676171504, -13200.448536926335, 0.01209375, -0.1065625, 0.98871875, 192.0, 0.0, 0.0, 0.0, 0.0, 0.0, 0.0, 0.0, 0.0, 0.0, 1.645920276359928E9, 0.0, 2022-02-27 11:04:36.359
104.0, -3854.33481387315, -6752.104372036979, -1599.1108535660333, -10049.70193501734, -809.2896114933028, 1197.6958748931736, -5709.060217030074, -3438.1676838597878, -5307.28761044593, -8555.085486779868, -3794.722711410846, -2151.444810801126, -5034.372810646631, -3997.7659580428553, -11973.94126343027, -14376.820847609146, 0.01209375, -0.1065625, 0.98871875, 192.0, 0.0, 0.0, 0.0, 0.0, 0.0, 0.0, 0.0, 0.0, 0.0, 1.645920276367143E9, 0.0, 2022-02-27 11:04:36.367
106.0, -3932.2753467888056, -6849.9826610067685, -1656.174857160432, -10072.2771969172, -856.4964957829113, 1120.694115244641, -5688.541315620103, -3308.0805311299005, -2461.7987825630644, -7595.793318246999, -3780.7752228707345, -1783.8033180002355, -5048.320299186743, -3881.5145351308033, -11289.039109830752, -13083.481858191713, 0.016046875000000002, -0.10728125, 0.987359375, 192.0, 0.0, 80.0, 126.0, 80.0, 15.0, 104.0, 0.0, 0.0, 0.0, 1.645920276375025E9, 0.0, 2022-02-27 11:04:36.375
108.0, -3615.4170173903726, -6643.988984106659, -1522.9137567178914, -9915.882040963417, -611.3425625971034, 1341.842274885449, -5725.6675631603675, -3397.353398484397, -4766.75537428324, -8152.932900539983, -3763.5196761512375, -2180.85970650431, -5020.4029703620645, -3967.1217163946294, -11910.618771388385, -13997.020005824568, 0.016046875000000002, -0.10728125, 0.987359375, 192.0, 0.0, 0.0, 0.0, 0.0, 0.0, 0.0, 0.0, 0.0, 0.0, 1.645920276382179E9, 0.0, 2022-02-27 11:04:36.382
110.0, -4050.1807987905504, -6879.688129387871, -1683.7345580738256, -10146.48498850882, -960.0744795888043, 1064.077146539348, -5712.36827520946, -3385.1046425228888, -3920.004239082842, -8219.027008894325, -3808.6031447175915, -1907.743741004913, -5051.181322477022, -3959.4997715353697, -11600.15304090417, -13828.420797398187, 0.016046875000000002, -0.10728125, 0.987359375, 192.0, 0.0, 0.0, 0.0, 0.0, 0.0, 0.0, 0.0, 0.0, 0.0, 1.645920276389632E9, 0.0, 2022-02-27 11:04:36.389
112.0, -3678.337178032062, -6718.532051865108, -1556.6201873564944, -9930.567137070553, -641.584472845134, 1289.5615446044856, -5689.480088887226, -3319.837548713392, -2986.058948762292, -7563.763268442544, -3760.2786732052177, -1948.356860680206, -5022.816958763237, -3899.530041161781, -11474.066850431784, -13185.629330352465, 0.016046875000000002, -0.10728125, 0.987359375, 192.0, 0.0, 0.0, 0.0, 0.0, 0.0, 0.0, 0.0, 0.0, 0.0, 1.645920276397552E9, 0.0, 2022-02-27 11:04:36.397
114.0, -3849.663299281991, -6742.582528899018, -1595.668684919916, -10047.265594871711, -804.3945794575906, 1200.3557324833553, -5716.704513633789, -3421.24741330712, -5323.537328664938, -8554.88432107977, -3796.8237753896447, -2163.514752806992, -5037.814979292748, -4013.166309972562, -11983.977196690703, -14381.984100578322, 0.016046875000000002, -0.10728125, 0.987359375, 192.0, 0.0, 0.0, 0.0, 0.0, 0.0, 0.0, 0.0, 0.0, 0.0, 1.645920276405601E9, 0.0, 2022-02-27 11:04:36.405
116.0, -3945.5299312508027, -6857.425791910386, -1656.7336507718148, -10082.626054600007, -867.1359261436374, 1115.1508826197246, -5694.9115627898655, -3299.1174816033226, -2481.1777450058157, -7607.058597452474, -3782.0269205602317, -1790.397082614551, -5044.989889262902, -3892.690407358457, -11288.815592386198, -13093.093108307494, 0.02, -0.112, 0.994, 192.0, 0.0, 80.0, 126.0, 64.0, 15.5, 8.0, 0.0, 0.0, 0.0, 1.645920276412236E9, 0.0, 2022-02-27 11:04:36.412
118.0, -3614.701761567803, -6641.642050938851, -1517.5940415375283, -9917.111386908458, -611.2084521303716, 1333.8179986259936, -5712.725903120745, -3392.6371804043274, -4724.756446451717, -8134.202138686435, -3761.083336005609, -2189.152203697229, -5015.776159259815, -3963.076050648219, -11899.331140438455, -13978.177485248743, 0.02, -0.112, 0.994, 192.0, 0.0, 0.0, 0.0, 0.0, 0.0, 0.0, 0.0, 0.0, 0.0, 1.645920276420192E9, 0.0, 2022-02-27 11:04:36.420
120.0, -4046.783333633344, -6879.0399287986675, -1684.2262964518425, -10151.2459100778, -970.3115785493349, 1052.1860184891248, -5702.980542538231, -3379.5614098979727, -3985.7407195259, -8246.273785385345, -3808.759606928779, -1934.3870203956392, -5056.188113235011, -3964.1712861265287, -11610.501898586977, -13851.59955639834, 0.02, -0.112, 0.994, 192.0, 0.0, 0.0, 0.0, 0.0, 0.0, 0.0, 0.0, 0.0, 0.0, 1.645920276435372E9, 0.0, 2022-02-27 11:04:36.435
122.0, -3664.3896894919503, -6702.639961557385, -1553.9826815107683, -9929.695419036796, -647.8206095481646, 1282.7219108011618, -5701.259458215172, -3329.292336617987, -2943.3447651082, -7541.880910620798, -3748.7004695773685, -1938.8350175422452, -5015.351476115165, -3889.359997434616, -11465.483780560944, -13168.664356310888, 0.02, -0.112, 0.994, 192.0, 0.0, 0.0, 0.0, 0.0, 0.0, 0.0, 0.0, 0.0, 0.0, 1.645920276441871E9, 0.0, 2022-02-27 11:04:36.441
124.0, -3840.3873253330385, -6742.71663936575, -1592.2041645293432, -10041.543548291153, -803.2769922348252, 1200.8027673724614, -5703.718150105256, -3416.7994161605143, -5344.883244619757, -8544.893091308248, -3789.827679375134, -2166.822810986377, -5026.66145880955, -4003.3091906677714, -11985.318301358022, -14376.619681909047, 0.02, -0.112, 0.994, 192.0, 0.0, 0.0, 0.0, 0.0, 0.0, 0.0, 0.0, 0.0, 0.0, 1.645920276449934E9, 0.0, 2022-02-27 11:04:36.449
126.0, -3950.983756897898, -6860.264463456209, -1656.1301536715216, -10083.587179611586, -871.8074407347967, 1102.4997952580209, -5690.865897043454, -3318.4070370682525, -2513.0289808546286, -7625.789359306021, -3779.5682286701476, -1794.1968791719532, -5037.8373310372035, -3897.9877707943647, -11292.302464521226, -13102.749061912187, 0.016, -0.114, 0.992, 192.0, 0.0, 64.0, 126.0, 56.0, 15.5, 0.0, 0.0, 0.0, 0.0, 1.645920276457978E9, 0.0, 2022-02-27 11:04:36.457
128.0, -3612.5112906111826, -6640.949146860737, -1508.4298263108524, -9915.211488629757, -605.6652195054555, 1332.0522108140244, -5696.587943624013, -3387.7868518575256, -4686.892591344427, -8120.947554224438, -3754.60133011357, -2190.6497705757347, -5005.851984721659, -3971.7038240079673, -11886.657701332297, -13948.270851167543, 0.016, -0.114, 0.992, 192.0, 0.0, 0.0, 0.0, 0.0, 0.0, 0.0, 0.0, 0.0, 0.0, 1.645920276465024E9, 0.0, 2022-02-27 11:04:36.465
130.0, -4053.6229674366678, -6882.973835822801, -1671.2846364122197, -10147.91550015396, -957.146401065159, 1055.337614457323, -5683.2886556731055, -3380.4331279317294, -4027.1808537460392, -8246.989041207915, -3793.1580892989746, -1937.1809884525526, -5035.6692118250385, -3978.7669752558445, -11621.275439414436, -13870.240911274066, 0.016, -0.114, 0.992, 192.0, 0.0, 0.0, 0.0, 0.0, 0.0, 0.0, 0.0, 0.0, 0.0, 1.645920276472548E9, 0.0, 2022-02-27 11:04:36.472
132.0, -3688.8424979260562, -6723.2482699451775, -1549.378222152975, -9935.238651661713, -646.613615347578, 1268.036814694025, -5685.657940585368, -3300.771510693015, -2911.3370670482004, -7547.357088012349, -3751.6061963565585, -1944.8029333118122, -5010.344685357176, -3911.3988174675487, -11448.69762047501, -13148.346620601014, 0.016, -0.114, 0.992, 192.0, 0.0, 0.0, 0.0, 0.0, 0.0, 0.0, 0.0, 0.0, 0.0, 1.645920276480518E9, 0.0, 2022-02-27 11:04:36.480
134.0, -3829.9937641613205, -6738.223938730233, -1571.7523183527373, -10033.183995864869, -792.4810996629119, 1198.880517349305, -5705.573344895047, -3444.001489162623, -5357.780201170469, -8550.59278614435, -3786.4525659623823, -2180.4573751041144, -5024.940374486491, -4025.3033072117937, -11988.268731626122, -14381.112382544565, 0.016, -0.114, 0.992, 192.0, 0.0, 0.0, 0.0, 0.0, 0.0, 0.0, 0.0, 0.0, 0.0, 1.645920276487508E9, 0.0, 2022-02-27 11:04:36.487
136.0, -3962.047870403275, -6868.26638797121, -1642.8085139761586, -10082.51429587773, -890.1582229326037, 1096.241306810535, -5687.915466775354, -3322.0727231589226, -2532.9220334198517, -7642.7543333476, -3782.8092316161674, -1796.5438123397605, -5038.753752559871, -3909.8565471001325, -11296.23637154536, -13115.288390551614, 0.016, -0.11, 0.992, 192.0, 0.0, 64.0, 126.0, 72.0, 15.5, 0.0, 0.0, 0.0, 0.0, 1.645920276494217E9, 0.0, 2022-02-27 11:04:36.494
138.0, -3609.6502673209034, -6639.69744917124, -1493.0071226366906, -9902.716863479242, -615.5670422991565, 1332.8568736144155, -5707.585001896025, -3393.6877123937265, -4637.986974476215, -8092.762004466296, -3753.9978330132767, -2175.9423227241427, -5004.376769587609, -3975.0118821873525, -11884.690747820228, -13924.153318900266, 0.016, -0.11, 0.992, 192.0, 0.0, 0.0, 0.0, 0.0, 0.0, 0.0, 0.0, 0.0, 0.0, 1.645920276502259E9, 0.0, 2022-02-27 11:04:36.502
140.0, -4043.4976271984137, -6869.182809493877, -1653.8726274815356, -10140.002982616781, -966.243561058469, 1065.1500302732027, -5699.4266151698375, -3403.231907276143, -4093.09614814474, -8271.911236275582, -3797.4496242343935, -1936.3092704187954, -5037.278537425821, -3976.5318008103136, -11644.185977481126, -13896.526562753506, 0.016, -0.11, 0.992, 192.0, 0.0, 0.0, 0.0, 0.0, 0.0, 0.0, 0.0, 0.0, 0.0, 1.645920276510136E9, 0.0, 2022-02-27 11:04:36.510
142.0, -3682.8522304120343, -6716.788615797594, -1538.8058470256146, -9936.06566620656, -662.3492434441142, 1268.9532362166926, -5692.497574388693, -3329.8287784849144, -2864.5325141587873, -7526.771131369011, -3742.553739852159, -1923.680534801547, -5003.661513765039, -3900.178241750985, -11444.316678561769, -13133.281544838137, 0.016, -0.11, 0.992, 192.0, 0.0, 0.0, 0.0, 0.0, 0.0, 0.0, 0.0, 0.0, 0.0, 1.645920276517124E9, 0.0, 2022-02-27 11:04:36.517
144.0, -3815.621592476558, -6721.348371666476, -1564.085670004567, -10028.93716441836, -798.5160706658448, 1206.8824418643048, -5707.205022240284, -3448.4271345647735, -5364.418669273695, -8534.87950979227, -3778.696510636391, -2160.631377772257, -5016.402008104564, -4018.6201356196566, -11999.913990487337, -14384.643958168503, 0.016, -0.11, 0.992, 192.0, 0.0, 0.0, 0.0, 0.0, 0.0, 0.0, 0.0, 0.0, 0.0, 1.645920276524915E9, 0.0, 2022-02-27 11:04:36.524
146.0, -3958.426887801515, -6857.425791910386, -1639.634566263505, -10086.80583081315, -897.377836391668, 1086.495946228021, -5682.059309728063, -3337.6742407887273, -2555.2067226417926, -7639.468626912669, -3773.533257667215, -1767.8441724591462, -5032.294098412287, -3903.5086516748256, -11305.735862938865, -13132.231012848737, 0.012, -0.106, 0.992, 192.0, 0.0, 48.0, 126.0, 88.0, 15.5, 0.0, 0.0, 0.0, 0.0, 1.645920276532801E9, 0.0, 2022-02-27 11:04:36.532
148.0, -3598.563802071071, -6631.293193256044, -1490.77194819116, -9901.465165789743, -615.5223388102459, 1333.5274259480748, -5708.814347841067, -3410.116244568377, -4588.2096395742465, -8061.491913973322, -3748.164027710441, -2149.254339844506, -4995.480775294397, -3963.321919837227, -11875.079497704446, -13903.65676923475, 0.012, -0.106, 0.992, 192.0, 0.0, 0.0, 0.0, 0.0, 0.0, 0.0, 0.0, 0.0, 0.0, 1.645920276540707E9, 0.0, 2022-02-27 11:04:36.540
150.0, -4051.320737757771, -6869.361623449519, -1655.0349181932115, -10141.679363450929, -975.340721051779, 1052.0966115113035, -5705.305123961583, -3410.518575968573, -4144.81808481432, -8275.956902021993, -3803.1269673260413, -1928.4414563705275, -5032.718781556939, -3970.0944984071853, -11660.5027509335, -13919.101824653368, 0.012, -0.106, 0.992, 192.0, 0.0, 0.0, 0.0, 0.0, 0.0, 0.0, 0.0, 0.0, 0.0, 1.645920276546845E9, 0.0, 2022-02-27 11:04:36.546
152.0, -3708.4896813022715, -6729.529110137119, -1543.6114720835058, -9941.877119764938, -673.838040094142, 1240.7900382030057, -5705.707455361779, -3347.5090083490622, -2845.8464557941506, -7517.5622126534245, -3764.100821507075, -1916.4162178535723, -5014.926792970514, -3915.0421518137637, -11440.069847115261, -13117.92589639734, 0.012, -0.106, 0.992, 192.0, 0.0, 0.0, 0.0, 0.0, 0.0, 0.0, 0.0, 0.0, 0.0, 1.645920276562801E9, 0.0, 2022-02-27 11:04:36.562
154.0, -3825.1881391034294, -6733.217147972245, -1557.2236844567879, -10024.399760293933, -796.1467857535823, 1194.298409735967, -5729.6014701845015, -3475.2715796555976, -5397.20867838963, -8535.997097015035, -3797.7625486567676, -2174.243590145539, -5026.773217531827, -4032.2770514818494, -12007.066548713035, -14388.823734381645, 0.012, -0.106, 0.992, 192.0, 0.0, 0.0, 0.0, 0.0, 0.0, 0.0, 0.0, 0.0, 0.0, 1.645920276570343E9, 0.0, 2022-02-27 11:04:36.570
156.0, -3976.129469410118, -6878.324672976098, -1643.2331971208093, -10090.85149655956, -909.8054063088186, 1071.9449605876162, -5713.687028132324, -3345.7208687926377, -2589.0472637471275, -7659.629900411356, -3785.491440950804, -1776.337835352163, -5037.122075214634, -3917.0538088147414, -11307.613409473111, -13148.324268856559, 0.018000000000000002, -0.108, 0.996, 192.0, 0.0, 72.0, 126.0, 80.0, 15.5, 16.0, 0.0, 0.0, 0.0, 1.645920276577076E9, 0.0, 2022-02-27 11:04:36.577
158.0, -3601.0895491945207, -6640.591518949452, -1487.218020822766, -9897.62066574343, -615.7235045103437, 1324.5867281659519, -5739.793865656122, -3420.889785395835, -4549.630528644387, -8046.046858554704, -3749.013393999743, -2151.198941612118, -5002.387464331086, -3976.64355953259, -11866.116448177869, -13884.814248658926, 0.018000000000000002, -0.108, 0.996, 192.0, 0.0, 0.0, 0.0, 0.0, 0.0, 0.0, 0.0, 0.0, 0.0, 1.645920276585271E9, 0.0, 2022-02-27 11:04:36.585
160.0, -4039.6978306410115, -6867.327614704087, -1644.1943221323875, -10140.762941928262, -969.8645436602287, 1053.7729923454515, -5727.835682372533, -3428.019991877078, -4207.35826580027, -8297.54868716582, -3796.1532230559856, -1935.7057733185022, -5039.312546171253, -3990.9933794728972, -11673.511466206488, -13954.350525659387, 0.018000000000000002, -0.108, 0.996, 192.0, 0.0, 0.0, 0.0, 0.0, 0.0, 0.0, 0.0, 0.0, 0.0, 1.645920276592914E9, 0.0, 2022-02-27 11:04:36.592
162.0, -3701.337123076573, -6728.389171169898, -1535.698954546327, -9940.11133195297, -675.872048839575, 1253.038794164514, -5728.841510873021, -3345.251482159076, -2796.829080203662, -7498.920857777698, -3744.140713708486, -1893.8186042092568, -5011.685790024494, -3905.006218553331, -11428.178719065038, -13108.940495126308, 0.018000000000000002, -0.108, 0.996, 192.0, 0.0, 0.0, 0.0, 0.0, 0.0, 0.0, 0.0, 0.0, 0.0, 1.645920276599772E9, 0.0, 2022-02-27 11:04:36.599
164.0, -3804.9374586269214, -6722.600069355974, -1550.4511058868297, -10016.442539267844, -783.7192158364315, 1206.1448342972797, -5735.457627231793, -3483.2064489372315, -5395.68875976667, -8523.033085230958, -3786.0278828177316, -2165.9510929526205, -5022.995772718879, -4026.934984557031, -12012.14039470439, -14389.963673348866, 0.018000000000000002, -0.108, 0.996, 192.0, 0.0, 0.0, 0.0, 0.0, 0.0, 0.0, 0.0, 0.0, 0.0, 1.645920276607704E9, 0.0, 2022-02-27 11:04:36.607
166.0, -3976.420042088037, -6879.419908454408, -1636.1923976173875, -10092.863153560538, -906.8996795296288, 1071.341463487323, -5721.42073171386, -3361.7917730560034, -2604.715836610298, -7663.697917902222, -3779.5458769256925, -1770.5934370271489, -5033.165816446044, -3914.840986113666, -11310.899115908041, -13163.41169636389, 0.018000000000000002, -0.11, 0.996, 192.0, 0.0, 72.0, 126.0, 72.0, 15.5, 16.0, 0.0, 0.0, 0.0, 1.645920276614621E9, 0.0, 2022-02-27 11:04:36.614
168.0, -3601.0001422166997, -6653.466123755708, -1480.668959697361, -9905.86845944744, -611.8343009751202, 1324.094989787935, -5736.821083643566, -3416.7547126716036, -4496.232211140658, -8021.281125698224, -3752.142638223486, -2144.8510461868104, -5001.605153275151, -3970.83210597421, -11857.779247496039, -13856.449884945141, 0.018000000000000002, -0.11, 0.996, 192.0, 0.0, 0.0, 0.0, 0.0, 0.0, 0.0, 0.0, 0.0, 0.0, 1.645920276622583E9, 0.0, 2022-02-27 11:04:36.622
170.0, -4032.098237526207, -6867.975815293291, -1631.4091243039518, -10141.031162861726, -965.9082848916394, 1051.2695969664571, -5724.527624193147, -3437.25126233712, -4262.0753362268615, -8310.132719294157, -3800.198888802396, -1944.8029333118122, -5041.435961894508, -3990.8816207506206, -11691.817544915384, -13977.551636403996, 0.018000000000000002, -0.11, 0.996, 192.0, 0.0, 0.0, 0.0, 0.0, 0.0, 0.0, 0.0, 0.0, 0.0, 1.645920276629241E9, 0.0, 2022-02-27 11:04:36.629
172.0, -3706.9474109348553, -6729.7079240927615, -1529.1722451653775, -9944.045238977104, -692.6358571810553, 1246.869712694849, -5728.349772495005, -3348.8277612719253, -2757.4676582178663, -7485.532162848969, -3746.1300189650083, -1882.4639180259608, -5014.032723192301, -3897.607791138624, -11420.02033233885, -13096.624683931434, 0.018000000000000002, -0.11, 0.996, 192.0, 0.0, 0.0, 0.0, 0.0, 0.0, 0.0, 0.0, 0.0, 0.0, 1.645920276637455E9, 0.0, 2022-02-27 11:04:36.637
174.0, -3804.0880923376194, -6731.071380504534, -1537.6882598028494, -10017.224850323779, -783.9874367698952, 1213.163282056246, -5742.498426735214, -3471.2035621647315, -5397.231030134086, -8512.393654870231, -3784.1503362834856, -2163.4924010625364, -5020.917060484536, -4023.6939816110116, -12015.873136028426, -14385.023937824242, 0.018000000000000002, -0.11, 0.996, 192.0, 0.0, 0.0, 0.0, 0.0, 0.0, 0.0, 0.0, 0.0, 0.0, 1.645920276645251E9, 0.0, 2022-02-27 11:04:36.645
176.0, -3985.941885225998, -6891.311036504631, -1626.0000021457677, -10101.535630409197, -919.7966360803409, 1076.8176408788731, -5721.890118347421, -3351.0852874619113, -2646.2453778082586, -7681.847534399932, -3789.805327630678, -1769.9005329490344, -5041.659479339061, -3915.712704147423, -11317.358770055625, -13179.259083182704, 0.014, -0.10400000000000001, 0.996, 192.0, 0.0, 56.0, 126.0, 96.0, 15.5, 16.0, 0.0, 0.0, 0.0, 1.645920276652245E9, 0.0, 2022-02-27 11:04:36.652
178.0, -3595.1886886583197, -6641.843216638949, -1471.8847241264255, -9898.112404121448, -616.2152428883604, 1331.4263619692758, -5751.483828006248, -3419.615735961883, -4449.07003033996, -8000.3598928880565, -3749.818056800134, -2131.0823716023415, -5001.113414897134, -3967.54639953928, -11838.91437517576, -13827.370265408787, 0.014, -0.10400000000000001, 0.996, 192.0, 0.0, 0.0, 0.0, 0.0, 0.0, 0.0, 0.0, 0.0, 0.0, 1.645920276660095E9, 0.0, 2022-02-27 11:04:36.660
180.0, -4030.3995049476034, -6864.31012920262, -1630.0903713810887, -10134.43739824741, -977.1512123526588, 1052.7224603560521, -5735.8823103764435, -3450.148218887832, -4314.266659530003, -8316.637076930652, -3799.7295021688346, -1944.6241193561698, -5038.574938604229, -3994.7708242858444, -11700.713539208597, -13995.142459290322, 0.014, -0.10400000000000001, 0.996, 192.0, 0.0, 0.0, 0.0, 0.0, 0.0, 0.0, 0.0, 0.0, 0.0, 1.645920276667828E9, 0.0, 2022-02-27 11:04:36.667
182.0, -3710.0990069030536, -6737.151054996379, -1533.2402626562432, -9947.241538434213, -709.4890725003568, 1245.7074219831732, -5736.865787132477, -3346.1679036817436, -2736.7922945967075, -7474.28923538795, -3754.891902791489, -1877.1442028455976, -5021.922888985025, -3898.0995295166413, -11409.179736278027, -13083.079526791516, 0.014, -0.10400000000000001, 0.996, 192.0, 0.0, 0.0, 0.0, 0.0, 0.0, 0.0, 0.0, 0.0, 0.0, 1.645920276682167E9, 0.0, 2022-02-27 11:04:36.682
184.0, -3765.2184087298406, -6709.233726171699, -1528.0099544537013, -10005.758405418206, -781.9534280244623, 1229.323593297433, -5758.770496698678, -3476.4562221117285, -5394.481765566083, -8489.863096459281, -3781.646940904491, -2166.576941797369, -5025.208595419955, -4017.815472819266, -12021.32696167552, -14378.698394143392, 0.014, -0.10600000000000001, 0.997, 192.0, 0.0, 56.0, 126.0, 80.0, 15.5, 24.0, 0.0, 0.0, 0.0, 1.645920276689457E9, 0.0, 2022-02-27 11:04:36.689
186.0, -3960.684413991501, -6872.200294995344, -1625.4635602788403, -10098.80871758565, -922.5906041372543, 1079.8127746358841, -5736.262290032183, -3371.939465038713, -2649.776953432197, -7674.627920940867, -3769.822868087634, -1760.0210618997887, -5035.624508336128, -3907.5990209101465, -11323.90783118103, -13190.211437965803, 0.014, -0.10600000000000001, 0.997, 192.0, 0.0, 0.0, 0.0, 0.0, 0.0, 0.0, 0.0, 0.0, 0.0, 1.645920276697452E9, 0.0, 2022-02-27 11:04:36.697
188.0, -3577.597865771993, -6638.803379393027, -1477.383253262431, -9900.01230240015, -620.1491499124944, 1334.1532747928234, -5731.23314752974, -3422.9237941412684, -4378.527924839011, -7960.6184912465205, -3740.564434595637, -2124.578013965847, -4999.079406151701, -3950.8496464311656, -11824.653962213275, -13799.58704705084, 0.014, -0.10600000000000001, 0.997, 192.0, 0.0, 0.0, 0.0, 0.0, 0.0, 0.0, 0.0, 0.0, 0.0, 1.645920276704614E9, 0.0, 2022-02-27 11:04:36.704
190.0, -3993.0497399627857, -6840.773742291181, -1625.9105951679464, -10130.771712156738, -978.2687995754242, 1071.2967599984122, -5755.551845497113, -3450.841122965947, -4339.769999953509, -8307.159937281602, -3786.296103751195, -1954.81651482779, -5028.315487899243, -3970.1839053850063, -11706.234420089057, -14011.660398442793, 0.014, -0.10600000000000001, 0.997, 192.0, 0.0, 0.0, 0.0, 0.0, 0.0, 0.0, 0.0, 0.0, 0.0, 1.645920276712301E9, 0.0, 2022-02-27 11:04:36.712
192.0, -3716.8715854730112, -6752.90903483737, -1536.0342307131566, -9955.802256560595, -713.288869057759, 1246.5344365280196, -5735.4129237428815, -3344.0891914474005, -2681.67289276992, -7456.6313572682575, -3739.3797921395058, -1865.1636678175532, -5006.231964377399, -3880.1287269745744, -11396.148669260583, -13066.695698105777, 0.014, -0.10600000000000001, 0.997, 192.0, 0.0, 0.0, 0.0, 0.0, 0.0, 0.0, 0.0, 0.0, 0.0, 1.645920276720097E9, 0.0, 2022-02-27 11:04:36.720
194.0, -3777.087185035609, -6726.757493824661, -1533.1061521895115, -10004.439652495343, -769.3693958961244, 1237.1690556012459, -5727.209833527784, -3436.2007303477208, -5387.463317807116, -8492.835878471837, -3780.7752228707345, -2177.0599099469077, -5016.223194148922, -4009.880603537632, -12004.51844984513, -14360.392315434494, 0.015, -0.10700000000000001, 0.9964999999999999, 192.0, 0.0, 64.0, 126.0, 80.0, 15.5, 16.0, 0.0, 0.0, 0.0, 1.645920276728225E9, 0.0, 2022-02-27 11:04:36.728
196.0, -3987.9535422269755, -6891.1322225489885, -1641.1991883753765, -10105.04485428868, -928.8714443291956, 1081.6679694256748, -5713.5752694100465, -3333.1815401532103, -2687.81962249513, -7698.745453208144, -3783.7927083722007, -1770.9957684273445, -5037.591461848195, -3902.3016574742387, -11315.056540376729, -13198.36982469199, 0.015, -0.10700000000000001, 0.9964999999999999, 192.0, 0.0, 0.0, 0.0, 0.0, 0.0, 0.0, 0.0, 0.0, 0.0, 1.645920276734428E9, 0.0, 2022-02-27 11:04:36.734
198.0, -3588.3714065994513, -6652.2814812995775, -1475.1480788169001, -9903.186250112802, -610.9849346858185, 1339.160065550812, -5755.350679797016, -3403.880107865347, -4332.19275858316, -7948.570900985111, -3749.0580974886534, -2124.6450691992127, -5000.711083496939, -3946.356945795649, -11806.973732349126, -13772.452029282098, 0.015, -0.10700000000000001, 0.9964999999999999, 192.0, 0.0, 0.0, 0.0, 0.0, 0.0, 0.0, 0.0, 0.0, 0.0, 1.645920276741688E9, 0.0, 2022-02-27 11:04:36.741
200.0, -4018.2178042194614, -6870.546265905651, -1621.3955427879744, -10140.002982616781, -976.9500466525611, 1058.2209894920575, -5746.298223292616, -3449.544721787539, -4393.771814557531, -8340.50874000892, -3794.365083499561, -1973.1225935366863, -5033.94812750198, -3994.1673271855507, -11719.51135629551, -14036.761407466103, 0.015, -0.10700000000000001, 0.9964999999999999, 192.0, 0.0, 0.0, 0.0, 0.0, 0.0, 0.0, 0.0, 0.0, 0.0, 1.645920276749914E9, 0.0, 2022-02-27 11:04:36.749
202.0, -3736.988155482788, -6772.891494380414, -1541.9797947382683, -9968.967434044771, -718.9215086604963, 1225.6579072067627, -5737.4692842327695, -3333.002726197568, -2660.5281425151998, -7477.664348800701, -3754.668385346936, -1886.7107494724692, -5025.7450372868825, -3911.0188378118087, -11395.388709949102, -13061.711259092244, 0.015, -0.10700000000000001, 0.9964999999999999, 192.0, 0.0, 0.0, 0.0, 0.0, 0.0, 0.0, 0.0, 0.0, 0.0, 1.645920276757997E9, 0.0, 2022-02-27 11:04:36.757
204.0, -3764.4137459294498, -6719.381418154409, -1519.3374776050423, -10008.261800797201, -759.5793318246999, 1234.9562329001706, -5781.681034765367, -3497.3327514329853, -5388.178573629686, -8487.046776657913, -3784.7985368726895, -2192.795538043444, -5026.817921020737, -4027.3820194461373, -12024.009171010157, -14367.008431793265, 0.0115, -0.10750000000000001, 0.99225, 192.0, 0.0, 32.0, 126.0, 80.0, 15.0, 112.0, 0.0, 0.0, 0.0, 1.645920276764558E9, 0.0, 2022-02-27 11:04:36.764
206.0, -3985.2713328923387, -6890.55107719315, -1626.7152579683375, -10113.516165437242, -922.8141215818074, 1072.2131815210798, -5750.030964616652, -3362.99876725659, -2710.4842913728107, -7701.561773009512, -3778.361234469561, -1774.4155853290065, -5031.75765654536, -3918.081989059686, -11338.01178193233, -13234.646705942954, 0.0115, -0.10750000000000001, 0.99225, 192.0, 0.0, 0.0, 0.0, 0.0, 0.0, 0.0, 0.0, 0.0, 0.0, 1.645920276772396E9, 0.0, 2022-02-27 11:04:36.772
208.0, -3586.404453087384, -6653.980213878181, -1470.923599114847, -9905.555535025065, -609.9567544408744, 1337.2154637832002, -5772.1591916274065, -3392.771290871059, -4262.567074604878, -7916.987886069762, -3740.78795204019, -2121.225252297551, -5000.264048607833, -3959.790344213289, -11804.023302081026, -13744.95938360207, 0.0115, -0.10750000000000001, 0.99225, 192.0, 0.0, 0.0, 0.0, 0.0, 0.0, 0.0, 0.0, 0.0, 0.0, 1.645920276780498E9, 0.0, 2022-02-27 11:04:36.780
210.0, -4018.8883565531205, -6871.105059517034, -1621.9766881438122, -10142.193453573402, -961.7061569340417, 1075.1189083002698, -5723.186519525829, -3422.0073726186006, -4440.732829658131, -8344.085019121769, -3794.99093234431, -1984.1420035531526, -5040.944223516492, -3996.067225464252, -11735.55990881442, -14052.228814629176, 0.0115, -0.10750000000000001, 0.99225, 192.0, 0.0, 0.0, 0.0, 0.0, 0.0, 0.0, 0.0, 0.0, 0.0, 1.645920276787837E9, 0.0, 2022-02-27 11:04:36.787
212.0, -3736.630527571503, -6768.421145489353, -1543.0079749832125, -9972.409602690888, -724.9564796634293, 1234.4421427776986, -5726.18165328284, -3310.002781153057, -2626.0170490762057, -7459.179456136162, -3755.338937680595, -1882.195697092497, -5028.539005343796, -3902.078140029686, -11373.908683527552, -13038.48779660318, 0.0115, -0.10750000000000001, 0.99225, 192.0, 0.0, 0.0, 0.0, 0.0, 0.0, 0.0, 0.0, 0.0, 0.0, 1.645920276794199E9, 0.0, 2022-02-27 11:04:36.794
214.0, -3759.921045293933, -6723.382380411909, -1525.7077247748048, -10007.300675785622, -767.0448144727725, 1245.9309394277263, -5751.930862895354, -3433.1385413573435, -5383.372948571796, -8472.741660206517, -3784.954999083877, -2200.998628258542, -5039.536063615807, -4019.9835920314304, -12023.852708798971, -14352.949184530877, 0.01075, -0.10975000000000001, 0.9901249999999999, 192.0, 0.0, 40.0, 126.0, 64.0, 15.0, 112.0, 0.0, 0.0, 0.0, 1.645920276810217E9, 0.0, 2022-02-27 11:04:36.810
216.0, -4001.0069609888747, -6899.022388341712, -1639.7016214968708, -10120.556964940664, -939.8461508567514, 1060.8808470822391, -5732.775417897155, -3345.162075181255, -2752.4385157154225, -7733.122436180406, -3794.0968625660976, -1794.0180652163108, -5053.125924244634, -3915.265669258317, -11343.778532001797, -13242.38040952449, 0.01075, -0.10975000000000001, 0.9901249999999999, 192.0, 0.0, 0.0, 0.0, 0.0, 0.0, 0.0, 0.0, 0.0, 0.0, 1.645920276816749E9, 0.0, 2022-02-27 11:04:36.816
218.0, -3589.019607188655, -6656.885940657371, -1480.5795527195398, -9902.001607656672, -616.5952225441006, 1338.1765887947786, -5761.989147900242, -3401.1308432973437, -4214.756693214977, -7908.069540032094, -3754.310757435651, -2125.673249444157, -5010.679961524005, -3956.549341267269, -11794.546162431976, -13726.563897915352, 0.01075, -0.10975000000000001, 0.9901249999999999, 192.0, 0.0, 0.0, 0.0, 0.0, 0.0, 0.0, 0.0, 0.0, 0.0, 1.645920276824723E9, 0.0, 2022-02-27 11:04:36.824
220.0, -4007.4442633920034, -6861.314995445609, -1624.2118625893431, -10133.498624980286, -963.4495930015556, 1080.97506534756, -5757.988185642742, -3442.9509571732233, -4490.487812815644, -8362.234635619478, -3807.329095283639, -1988.165317555108, -5038.396124648586, -3991.351007384182, -11755.609423590831, -14077.26276841912, 0.01075, -0.10975000000000001, 0.9901249999999999, 192.0, 0.0, 0.0, 0.0, 0.0, 0.0, 0.0, 0.0, 0.0, 0.0, 1.645920276832673E9, 0.0, 2022-02-27 11:04:36.832
222.0, -3750.1533329669637, -6781.206343317788, -1553.0662599881007, -9980.567989417075, -723.2800988292812, 1224.070933350436, -5734.451798731304, -3333.4274093422187, -2590.6118858589994, -7459.157104391707, -3766.313644208151, -1873.590275477204, -5014.926792970514, -3896.2219829823953, -11377.842590551685, -13043.516939105624, 0.01075, -0.10975000000000001, 0.9901249999999999, 192.0, 0.0, 0.0, 0.0, 0.0, 0.0, 0.0, 0.0, 0.0, 0.0, 1.645920276839833E9, 0.0, 2022-02-27 11:04:36.839
224.0, -3752.2320452013073, -6709.032560471602, -1524.500730574218, -10003.389120505944, -757.5900265681776, 1249.261349351567, -5758.971662398775, -3463.0675271829996, -5378.008529902521, -8476.38499455273, -3797.8966591234994, -2212.1297969972848, -5027.5108250988515, -4021.995249032408, -12025.730255333216, -14357.933623544412, 0.011375, -0.109875, 0.9890625, 192.0, 0.0, 48.0, 126.0, 72.0, 15.0, 112.0, 0.0, 0.0, 0.0, 1.645920276847427E9, 0.0, 2022-02-27 11:04:36.847
226.0, -4002.750397056389, -6895.535516206684, -1637.0417639066893, -10128.514185966753, -945.5905491817653, 1065.0829750398368, -5729.08738006203, -3363.6693195902494, -2772.2645130472797, -7750.0650584775285, -3799.550688213192, -1797.7061030514365, -5042.128865972622, -3920.138349549574, -11344.851415735653, -13263.502808034757, 0.011375, -0.109875, 0.9890625, 192.0, 0.0, 0.0, 0.0, 0.0, 0.0, 0.0, 0.0, 0.0, 0.0, 1.645920276855443E9, 0.0, 2022-02-27 11:04:36.855
228.0, -3591.8135752455682, -6667.882998929382, -1471.705910170783, -9911.635209516908, -606.6039927725784, 1337.5954434389405, -5746.499388992714, -3405.355322999397, -4151.747125595466, -7890.5904758680435, -3762.424440672927, -2122.3428395203164, -5000.8004904747595, -3961.198504113973, -11771.52386564301, -13698.557162112853, 0.011375, -0.109875, 0.9890625, 192.0, 0.0, 0.0, 0.0, 0.0, 0.0, 0.0, 0.0, 0.0, 0.0, 1.645920276862514E9, 0.0, 2022-02-27 11:04:36.862
230.0, -4011.3111151827716, -6872.021481039701, -1618.601574731061, -10139.175968071935, -964.053090101849, 1080.148050802714, -5735.345868509516, -3434.3902390468406, -4532.978479025183, -8390.509592355442, -3815.107502354086, -2005.8455474192558, -5038.396124648586, -4004.4714813794476, -11756.36938290231, -14099.033367518588, 0.011375, -0.109875, 0.9890625, 192.0, 0.0, 0.0, 0.0, 0.0, 0.0, 0.0, 0.0, 0.0, 0.0, 1.64592027686958E9, 0.0, 2022-02-27 11:04:36.869
232.0, -3755.942434780888, -6785.229657319744, -1544.6843558173605, -9980.746803372718, -735.5735582797001, 1222.260442049556, -5713.619972898958, -3334.880272731814, -2555.5419988086223, -7462.353403848816, -3769.9346268099102, -1863.3531765166733, -5016.111435426645, -3896.8031283382334, -11354.887348996086, -13027.311924375526, 0.011375, -0.109875, 0.9890625, 192.0, 0.0, 0.0, 0.0, 0.0, 0.0, 0.0, 0.0, 0.0, 0.0, 1.645920276876993E9, 0.0, 2022-02-27 11:04:36.876
234.0, -3748.8345800441007, -6717.705037320261, -1507.9604396772909, -9997.93529485885, -746.123581662605, 1265.779288504039, -5750.56740648358, -3468.7225185301922, -5360.194189571642, -8468.092497359812, -3797.002589345287, -2205.513680638514, -5020.693543039983, -4015.580298373735, -12012.028635982113, -14347.9870972618, 0.0116875, -0.1109375, 0.98953125, 192.0, 0.0, 48.0, 126.0, 64.0, 15.0, 120.0, 0.0, 0.0, 0.0, 1.645920276885123E9, 0.0, 2022-02-27 11:04:36.885
236.0, -4019.447150164503, -6908.655990201949, -1622.1331503549995, -10127.106026066069, -942.3718979802011, 1067.8992948412056, -5712.882365331932, -3368.1396684813108, -2809.346057098634, -7767.0300325191065, -3810.65950520748, -1799.9859809858779, -5042.844121795192, -3919.758369893834, -11338.168244143515, -13286.480401334811, 0.0116875, -0.1109375, 0.98953125, 192.0, 0.0, 0.0, 0.0, 0.0, 0.0, 0.0, 0.0, 0.0, 0.0, 1.64592027689324E9, 0.0, 2022-02-27 11:04:36.893
238.0, -3598.9437817268113, -6667.435964040275, -1457.5572559305735, -9903.990912913194, -608.1686148844499, 1338.8024376395272, -5740.1067900784965, -3405.4670817216734, -4105.389607595159, -7877.045318728128, -3768.4370599314047, -2121.7169906755676, -5005.807281232748, -3955.7670302113333, -11745.841711263862, -13681.681595049096, 0.0116875, -0.1109375, 0.98953125, 192.0, 0.0, 0.0, 0.0, 0.0, 0.0, 0.0, 0.0, 0.0, 0.0, 1.645920276899617E9, 0.0, 2022-02-27 11:04:36.899
240.0, -4010.260583193372, -6867.104097259534, -1606.5763362141058, -10131.777540657227, -959.2251132995026, 1091.7709579194734, -5745.806484914599, -3454.9538439457233, -4598.29027632359, -8406.468737896532, -3821.433046034938, -2019.8824429371887, -5045.034592751813, -4000.0905394662072, -11761.398525404755, -14127.196565532277, 0.0116875, -0.1109375, 0.98953125, 192.0, 0.0, 0.0, 0.0, 0.0, 0.0, 0.0, 0.0, 0.0, 0.0, 1.645920276907616E9, 0.0, 2022-02-27 11:04:36.907
242.0, -3768.7946878426897, -6793.790375446127, -1541.6445185714388, -9985.015986563682, -732.4666658004124, 1229.8823869088158, -5737.446932488315, -3350.0794589614225, -2549.417620827868, -7459.447677069626, -3778.338882725106, -1870.393976020095, -5022.816958763237, -3889.4717561568928, -11344.270270379815, -13029.189470909772, 0.0116875, -0.1109375, 0.98953125, 192.0, 0.0, 0.0, 0.0, 0.0, 0.0, 0.0, 0.0, 0.0, 0.0, 1.645920276916002E9, 0.0, 2022-02-27 11:04:36.916
244.0, -3754.5119231357485, -6729.99849677068, -1511.6261257679614, -9996.795355891629, -733.1148663896164, 1263.1864861472234, -5743.504255235703, -3476.992663978656, -5374.655768234225, -8463.756258935484, -3806.5467842277035, -2225.9655268151196, -5028.449598365974, -4018.709542597478, -12018.309476174054, -14348.724704828825, 0.01084375, -0.10946875, 0.991765625, 192.0, 0.0, 40.0, 126.0, 80.0, 15.5, 8.0, 0.0, 0.0, 0.0, 1.645920276929386E9, 0.0, 2022-02-27 11:04:36.929
246.0, -4035.0486677943077, -6927.476159033318, -1639.5228075412283, -10137.320773282145, -949.5915114392652, 1058.980948803538, -5730.3614294959825, -3393.844174604914, -2886.5489824472647, -7805.609143448966, -3828.272679838262, -1816.4815683938943, -5058.870322569647, -3931.4706839884147, -11357.882482753097, -13318.801023817185, 0.01084375, -0.10946875, 0.991765625, 192.0, 0.0, 0.0, 0.0, 0.0, 0.0, 0.0, 0.0, 0.0, 0.0, 1.645920276937417E9, 0.0, 2022-02-27 11:04:36.937
