%OpenBCI Raw EEG Data
%Number of channels = 16
%Sample Rate = 125 Hz
%Board = OpenBCI_GUI$BoardCytonSerialDaisy
Sample Index, EXG Channel 0, EXG Channel 1, EXG Channel 2, EXG Channel 3, EXG Channel 4, EXG Channel 5, EXG Channel 6, EXG Channel 7, EXG Channel 8, EXG Channel 9, EXG Channel 10, EXG Channel 11, EXG Channel 12, EXG Channel 13, EXG Channel 14, EXG Channel 15, Accel Channel 0, Accel Channel 1, Accel Channel 2, Other, Other, Other, Other, Other, Other, Other, Analog Channel 0, Analog Channel 1, Analog Channel 2, Timestamp, Other, Timestamp (Formatted)
0.0, -4087.8434881977428, -6854.07303024209, -1660.4216886069405, -10265.12804807759, -1085.7359869165405, 795.543288653289, -5926.877966747042, -3398.1804130292435, 0.0, 0.0, 0.0, 0.0, 0.0, 0.0, 0.0, 0.0, 0.0, 0.0, 0.0, 192.0, 0.0, 0.0, 0.0, 0.0, 0.0, 0.0, 0.0, 0.0, 0.0, 1.645920315300612E9, 0.0, 2022-02-27 11:05:15.300
166.0, -3701.2253643542963, -6642.781989906071, -1523.673716029372, -10052.339440863067, -764.2508464158591, 1041.568939872854, -5945.139341967028, -3400.8402706194247, -3923.0217245843087, -7900.291132961647, -3853.3513371171166, -2342.887502060831, -5137.414352585596, -4071.9961013789302, -11528.85097609174, -13734.38700847471, 0.006, -0.10200000000000001, 0.9580000000000001, 192.0, 0.0, 24.0, 126.0, 104.0, 14.5, 120.0, 0.0, 0.0, 0.0, 1.645920315300616E9, 0.0, 2022-02-27 11:05:15.300
2.0, -4002.6162865896567, -6753.065497048557, -1597.3227140096087, -10361.32995621323, -1203.4179214737323, 788.3236751942248, -5817.95791601633, -3472.54466683205, -4162.095983278273, -8351.483446536475, -3932.074181088708, -2289.958571190664, -5204.961324329534, -4193.500184237979, -11391.63361688061, -14042.550509280029, 0.006, -0.10200000000000001, 0.9580000000000001, 192.0, 0.0, 0.0, 0.0, 0.0, 0.0, 0.0, 0.0, 0.0, 0.0, 1.645920315409228E9, 0.0, 2022-02-27 11:05:15.409
4.0, -3702.6558759994364, -6629.50505369962, -1509.4356548113412, -10174.849352222605, -935.9792990659832, 960.3650522667233, -5805.329180399082, -3408.573974200961, -3018.044295077836, -7675.633749441356, -3888.398872423038, -2270.378443047815, -5183.749518841448, -4126.422599127603, -11193.50775402877, -13345.421951463457, 0.006, -0.10200000000000001, 0.9580000000000001, 192.0, 0.0, 0.0, 0.0, 0.0, 0.0, 0.0, 0.0, 0.0, 0.0, 1.645920315415882E9, 0.0, 2022-02-27 11:05:15.415
6.0, -3799.595391702103, -6620.676114639773, -1514.867128713981, -10263.339908521166, -1032.0023932459824, 925.5410344053548, -5803.921020498397, -3533.6990396617703, -5280.353758377285, -8583.98629236058, -3925.949803107954, -2507.552803463078, -5187.303446209842, -4231.073466667351, -11691.437565259645, -14454.135531680053, 0.006, -0.10200000000000001, 0.9580000000000001, 192.0, 0.0, 0.0, 0.0, 0.0, 0.0, 0.0, 0.0, 0.0, 0.0, 1.64592031542394E9, 0.0, 2022-02-27 11:05:15.423
8.0, -3930.3307450211937, -6746.583491156518, -1586.057434804134, -10309.56331605474, -1132.3170223614004, 816.0398383188056, -5805.329180399082, -3414.988924859634, -2762.3403385091233, -7790.9240473418295, -3907.5766691656913, -2138.6596129726904, -5194.6795218800935, -4121.013476969419, -11076.921054949888, -13370.165332575481, 0.012, -0.108, 0.98, 192.0, 0.0, 48.0, 126.0, 80.0, 15.0, 80.0, 0.0, 0.0, 0.0, 1.645920315431976E9, 0.0, 2022-02-27 11:05:15.431
10.0, -3618.3227441695626, -6547.9211864377485, -1462.3628809884647, -10152.430552533931, -878.1776879045592, 1028.850797277784, -5823.6352591079785, -3454.5962160344384, -4554.726726380197, -8151.725906339397, -3896.780776593778, -2483.4799746847125, -5167.455097133529, -4202.530288997923, -11575.744935958975, -14017.605962467906, 0.012, -0.108, 0.98, 192.0, 0.0, 0.0, 0.0, 0.0, 0.0, 0.0, 0.0, 0.0, 0.0, 1.645920315439067E9, 0.0, 2022-02-27 11:05:15.439
12.0, -3983.3937863580927, -6740.168540497844, -1586.6162284155166, -10357.776028844837, -1197.2488400040675, 799.5666026552442, -5814.314581670115, -3470.9800447201783, -4208.878184423231, -8359.440667562565, -3925.033381585286, -2282.2472193535828, -5196.355902714241, -4208.520556511946, -11392.907666314562, -14072.9712334837, 0.012, -0.108, 0.98, 192.0, 0.0, 0.0, 0.0, 0.0, 0.0, 0.0, 0.0, 0.0, 0.0, 1.645920315446511E9, 0.0, 2022-02-27 11:05:15.446
14.0, -3695.5256695181934, -6615.222288992678, -1503.3559803194978, -10170.244892864812, -928.6032233957319, 973.4408227730779, -5815.365113659515, -3387.6303896463382, -2968.6916433205183, -7659.3169759889815, -3870.6739390699795, -2244.8303991353987, -5176.395794915652, -4137.218491699516, -11175.693413697889, -13340.772788616752, 0.012, -0.108, 0.98, 192.0, 0.0, 0.0, 0.0, 0.0, 0.0, 0.0, 0.0, 0.0, 0.0, 1.645920315454428E9, 0.0, 2022-02-27 11:05:15.454
16.0, -3787.436042718416, -6608.44971042272, -1508.3627710774865, -10250.331193248176, -1020.5806518293205, 945.0541073148379, -5817.466177638314, -3509.5591556500385, -5277.559790320372, -8568.36242298632, -3912.4046459680376, -2495.661675412855, -5174.562951870317, -4238.583652804334, -11687.816582657884, -14454.224938657873, 0.013000000000000001, -0.108, 0.982, 192.0, 0.0, 56.0, 126.0, 80.0, 15.0, 96.0, 0.0, 0.0, 0.0, 1.645920315468706E9, 0.0, 2022-02-27 11:05:15.468
18.0, -3933.4376375004817, -6747.276395234632, -1586.4597662043293, -10301.89666770657, -1120.4035425667219, 830.5237687258445, -5790.733491269767, -3399.677979907749, -2788.514231266288, -7804.759777159665, -3910.951782578443, -2139.8442554288217, -5181.69315835156, -4133.195177697561, -11070.6625665024, -13383.151696104014, 0.013000000000000001, -0.108, 0.982, 192.0, 0.0, 0.0, 0.0, 0.0, 0.0, 0.0, 0.0, 0.0, 0.0, 1.64592031547626E9, 0.0, 2022-02-27 11:05:15.476
20.0, -3605.2246219187527, -6538.444046788699, -1457.4231454638418, -10135.912613381459, -860.9444929295174, 1057.4386784361218, -5826.943317287364, -3429.8751866668686, -4508.950353735728, -8129.3741618840895, -3894.4338434259707, -2476.2603612256485, -5155.027527216378, -4187.77813765742, -11551.985031602982, -13989.107488287389, 0.013000000000000001, -0.108, 0.982, 192.0, 0.0, 0.0, 0.0, 0.0, 0.0, 0.0, 0.0, 0.0, 0.0, 1.645920315484075E9, 0.0, 2022-02-27 11:05:15.484
22.0, -3976.64355953259, -6728.657392103361, -1582.1682312689104, -10353.1939212315, -1179.94858979566, 809.0884457932051, -5806.692636810856, -3461.212332393209, -4258.990795492029, -8366.548522299352, -3922.5970414396575, -2295.457100326669, -5175.50172513744, -4193.969570871541, -11394.159364004061, -14086.963425512724, 0.013000000000000001, -0.108, 0.982, 192.0, 0.0, 0.0, 0.0, 0.0, 0.0, 0.0, 0.0, 0.0, 0.0, 1.645920315491531E9, 0.0, 2022-02-27 11:05:15.491
24.0, -3691.412948538417, -6615.7140273706955, -1503.3336285750424, -10178.783259246738, -924.5128541604107, 968.4787355039997, -5823.098817241052, -3378.0861947639223, -2938.606195283675, -7637.144045489317, -3864.750726789323, -2244.182198546195, -5167.343338411252, -4134.066895731317, -11166.26097753775, -13326.244154720802, 0.013000000000000001, -0.108, 0.982, 192.0, 0.0, 0.0, 0.0, 0.0, 0.0, 0.0, 0.0, 0.0, 0.0, 1.64592031549887E9, 0.0, 2022-02-27 11:05:15.498
26.0, -3762.8714755620335, -6614.238812236645, -1502.4172070523748, -10251.2699665153, -1000.8887649641949, 943.243616013958, -5812.079407224585, -3500.2384782121753, -5276.621017053249, -8573.279806766488, -3894.456195170426, -2505.6082016954665, -5167.097469222244, -4261.3153769153805, -11693.829201916362, -14457.980031726365, 0.013500000000000002, -0.107, 0.982, 192.0, 0.0, 56.0, 126.0, 88.0, 15.0, 88.0, 0.0, 0.0, 0.0, 1.645920315506928E9, 0.0, 2022-02-27 11:05:15.506
28.0, -3916.807939625733, -6741.934328309814, -1588.1361470384775, -10310.166813155034, -1112.7815977074622, 812.0835795502162, -5794.5779913160795, -3408.506918967595, -2783.3956817860226, -7823.1999663352935, -3871.6574158260128, -2134.8151129263774, -5169.958492512524, -4142.314689435326, -11071.757801980712, -13404.899943459028, 0.013500000000000002, -0.107, 0.982, 192.0, 0.0, 0.0, 0.0, 0.0, 0.0, 0.0, 0.0, 0.0, 0.0, 1.645920315514825E9, 0.0, 2022-02-27 11:05:15.514
30.0, -3601.581287572538, -6537.572328754942, -1476.0868520840231, -10139.064209349657, -857.1223446276599, 1048.0062422759822, -5809.620715334501, -3440.961651916701, -4437.268309267558, -8117.214812900403, -3872.5738373486806, -2470.6724251118217, -5144.1422276666435, -4212.320353069348, -11541.345601242258, -13974.95883404718, 0.013500000000000002, -0.107, 0.982, 192.0, 0.0, 0.0, 0.0, 0.0, 0.0, 0.0, 0.0, 0.0, 0.0, 1.645920315521108E9, 0.0, 2022-02-27 11:05:15.521
32.0, -3984.3102078807606, -6744.348316710987, -1603.760016412737, -10351.875168308636, -1163.005967498537, 807.0991405366827, -5792.208706403817, -3471.337672631463, -4296.787595365953, -8400.277304682411, -3935.583404968191, -2309.784568522521, -5179.703853095038, -4212.968553658552, -11412.219573523947, -14114.299608981564, 0.013500000000000002, -0.107, 0.982, 192.0, 0.0, 0.0, 0.0, 0.0, 0.0, 0.0, 0.0, 0.0, 0.0, 1.645920315528475E9, 0.0, 2022-02-27 11:05:15.528
34.0, -3713.4070650824387, -6633.394257234843, -1531.6532887999165, -10174.424669077955, -921.0259820253829, 959.3368720217792, -5799.540078585158, -3383.808241344481, -2912.7452269488845, -7667.855342370909, -3894.5679538927025, -2249.144285815273, -5157.329756895275, -4130.043581729363, -11156.649727421967, -13317.594029616599, 0.013500000000000002, -0.107, 0.982, 192.0, 0.0, 0.0, 0.0, 0.0, 0.0, 0.0, 0.0, 0.0, 0.0, 1.64592031553643E9, 0.0, 2022-02-27 11:05:15.536
36.0, -3767.677100619924, -6606.952143544215, -1518.2645938711876, -10240.630536154573, -995.3008288503682, 954.5312469638881, -5821.377732917993, -3486.4251001387956, -5281.2031246665865, -8572.430440477186, -3919.9818873383865, -2514.526547733134, -5156.122762694688, -4238.158969659683, -11700.110042108303, -14454.157883424508, 0.012750000000000001, -0.10350000000000001, 0.984, 192.0, 0.0, 48.0, 126.0, 112.0, 15.0, 104.0, 0.0, 0.0, 0.0, 1.645920315544525E9, 0.0, 2022-02-27 11:05:15.544
38.0, -3935.650460201557, -6747.321098723543, -1603.4470919903627, -10314.99478995738, -1121.3199640893895, 811.7483033833865, -5782.172773143384, -3386.66926463476, -2817.482092080366, -7844.903510201396, -3901.854622585133, -2145.320432820372, -5170.40552740163, -4136.39147715467, -11081.994900941241, -13411.069024928693, 0.012750000000000001, -0.10350000000000001, 0.984, 192.0, 0.0, 0.0, 0.0, 0.0, 0.0, 0.0, 0.0, 0.0, 0.0, 1.645920315551341E9, 0.0, 2022-02-27 11:05:15.551
40.0, -3597.3568078704848, -6538.533453766519, -1471.8400206375147, -10139.57829947213, -857.5917312612214, 1026.8391402768063, -5811.319447913104, -3452.472800311184, -4381.903038251762, -8114.89023147705, -3867.075308212675, -2463.944550030774, -5140.454189831518, -4187.800489401876, -11531.466130193012, -13947.220319178143, 0.012750000000000001, -0.10350000000000001, 0.984, 192.0, 0.0, 0.0, 0.0, 0.0, 0.0, 0.0, 0.0, 0.0, 0.0, 1.645920315559086E9, 0.0, 2022-02-27 11:05:15.559
42.0, -3980.7786322568218, -6746.270566734143, -1602.083635578589, -10363.073392280745, -1175.0982612488583, 793.4422246744901, -5795.069729694096, -3452.5622072890055, -4330.315212048914, -8439.370505734743, -3904.648590642046, -2305.493033587102, -5173.087736736266, -4206.240678577505, -11423.507204473879, -14130.146995800376, 0.012750000000000001, -0.10350000000000001, 0.984, 192.0, 0.0, 0.0, 0.0, 0.0, 0.0, 0.0, 0.0, 0.0, 0.0, 1.645920315567058E9, 0.0, 2022-02-27 11:05:15.567
44.0, -3723.1524256649527, -6651.40976326582, -1527.92054747588, -10187.723957028862, -931.6207088971984, 952.4748864739998, -5810.6041920905345, -3369.413717915263, -2873.897895085561, -7687.457822258213, -3867.4105843795046, -2242.1705415452175, -5153.597015571238, -4134.58098585379, -11143.77512261571, -13303.11009920956, 0.012750000000000001, -0.10350000000000001, 0.984, 192.0, 0.0, 0.0, 0.0, 0.0, 0.0, 0.0, 0.0, 0.0, 0.0, 1.645920315574256E9, 0.0, 2022-02-27 11:05:15.574
46.0, -3793.649827676991, -6640.144484060345, -1521.2597276281988, -10251.627594426584, -984.5943432562761, 954.2853777748797, -5790.755843014222, -3468.5213528300947, -5284.466479357062, -8597.777318689505, -3917.6126024261243, -2530.329231063036, -5153.485256848962, -4243.456333095591, -11688.576541969365, -14445.217185642385, 0.012375, -0.10475000000000001, 0.985, 192.0, 0.0, 48.0, 126.0, 88.0, 15.0, 104.0, 0.0, 0.0, 0.0, 1.645920315588453E9, 0.0, 2022-02-27 11:05:15.588
48.0, -4017.6590106080785, -6827.139178173445, -1611.3596095275414, -10331.512729109852, -1107.0819028713588, 825.8075506457748, -5754.94834839682, -3376.0074825295787, -2869.3381392166784, -7895.530211392666, -3933.5717479672135, -2179.8762297482767, -5162.73887905346, -4135.765628309921, -11063.19708385433, -13416.634609298064, 0.012375, -0.10475000000000001, 0.985, 192.0, 0.0, 0.0, 0.0, 0.0, 0.0, 0.0, 0.0, 0.0, 0.0, 1.645920315595932E9, 0.0, 2022-02-27 11:05:15.595
50.0, -3705.7180649898132, -6650.158065576323, -1479.3278550300427, -10154.732782212828, -825.4499227344899, 1052.3201289558565, -5775.489601551247, -3420.800378418014, -4371.48712533559, -8139.343039911157, -3918.126692548596, -2510.950268620285, -5131.938175194046, -4193.321370282337, -11498.251437932426, -13915.436138562696, 0.012375, -0.10475000000000001, 0.985, 192.0, 0.0, 0.0, 0.0, 0.0, 0.0, 0.0, 0.0, 0.0, 0.0, 1.645920315604118E9, 0.0, 2022-02-27 11:05:15.604
52.0, -4127.584889839279, -6886.192487024366, -1604.7211414243152, -10364.258034736877, -1137.5026270750318, 833.6977164384981, -5762.033851389152, -3434.613756491394, -4428.417018463257, -8477.3014160754, -3970.4744780629253, -2367.1614965392946, -5161.040146474856, -4192.963742371052, -11417.271067770847, -14135.265545280641, 0.012375, -0.10475000000000001, 0.985, 192.0, 0.0, 0.0, 0.0, 0.0, 0.0, 0.0, 0.0, 0.0, 0.0, 1.645920315611953E9, 0.0, 2022-02-27 11:05:15.611
54.0, -3918.819596626711, -6837.711553300805, -1536.7718382801818, -10195.234143165844, -906.2961824293354, 979.0958141202706, -5762.838514189543, -3343.70921179166, -2895.6461424405747, -7716.738607494665, -3928.7214194204116, -2287.566934533946, -5148.098486435233, -4107.803595996332, -11124.999657273253, -13282.524142566223, 0.012375, -0.10475000000000001, 0.985, 192.0, 0.0, 0.0, 0.0, 0.0, 0.0, 0.0, 0.0, 0.0, 0.0, 1.645920315618586E9, 0.0, 2022-02-27 11:05:15.618
56.0, -3992.0215597178412, -6831.96715497579, -1517.8846142154473, -10248.74421939185, -950.4855812174775, 980.3251600653125, -5773.768517228189, -3459.4241928367846, -5346.269052775986, -8627.795711492981, -3966.07118440523, -2578.3407781530354, -5148.120838179689, -4216.813053704865, -11682.69803317762, -14435.918859948977, 0.0111875, -0.106375, 0.9875, 192.0, 0.0, 40.0, 126.0, 80.0, 15.0, 120.0, 0.0, 0.0, 0.0, 1.645920315626642E9, 0.0, 2022-02-27 11:05:15.626
58.0, -4204.810166932365, -6999.38172094604, -1611.5831269720945, -10333.390275644097, -1092.039178852937, 842.7501729428975, -5744.353621525004, -3364.451630646185, -2956.465239103465, -7949.196749829859, -3963.5454372817803, -2216.600145888346, -5163.677652320583, -4119.29239264636, -11072.026022914175, -13436.862938030117, 0.0111875, -0.106375, 0.9875, 192.0, 0.0, 0.0, 0.0, 0.0, 0.0, 0.0, 0.0, 0.0, 0.0, 1.645920315634853E9, 0.0, 2022-02-27 11:05:15.634
60.0, -3856.7264505298676, -6780.4240322618525, -1480.5795527195398, -10152.587014745119, -809.6472394045877, 1076.4153094786775, -5761.452706033315, -3402.315485753475, -4383.91469525274, -8140.192406200458, -3944.3452887946714, -2533.9278619203405, -5137.928442708068, -4158.609111143245, -11489.042519216839, -13897.442984276175, 0.0111875, -0.106375, 0.9875, 192.0, 0.0, 0.0, 0.0, 0.0, 0.0, 0.0, 0.0, 0.0, 0.0, 1.645920315641724E9, 0.0, 2022-02-27 11:05:15.641
62.0, -4227.653649765689, -6968.268092664253, -1603.9164786239241, -10368.795438861303, -1134.0157549400037, 850.2603590798807, -5755.551845497113, -3438.9052914268127, -4518.159272451315, -8505.039930944435, -3992.669760307045, -2404.5783167574787, -5160.9283877525795, -4187.487564979501, -11425.965896363961, -14162.825246194036, 0.0111875, -0.106375, 0.9875, 192.0, 0.0, 0.0, 0.0, 0.0, 0.0, 0.0, 0.0, 0.0, 0.0, 1.645920315648367E9, 0.0, 2022-02-27 11:05:15.648
64.0, -3989.3169986387493, -6871.060356028123, -1546.986585496257, -10203.817213036682, -918.9249180465839, 983.0073693999493, -5759.910435665898, -3346.257310659565, -2905.9726483789264, -7721.454825574735, -3956.750506967367, -2299.346303861893, -5152.077096948278, -4118.510081590424, -11114.15906121243, -13280.132505909503, 0.0111875, -0.106375, 0.9875, 192.0, 0.0, 0.0, 0.0, 0.0, 0.0, 0.0, 0.0, 0.0, 0.0, 1.645920315656297E9, 0.0, 2022-02-27 11:05:15.656
66.0, -3995.7319492974225, -6806.530869785652, -1528.993431209735, -10252.633422927072, -950.150305050648, 991.7469014819744, -5766.548903769124, -3466.9790824626784, -5372.2417798330525, -8625.940516703191, -3991.753338784378, -2589.293132936136, -5153.820533015792, -4223.116245641261, -11687.50365823551, -14433.303705847706, 0.01359375, -0.10818749999999999, 0.99075, 192.0, 0.0, 64.0, 126.0, 72.0, 15.5, 8.0, 0.0, 0.0, 0.0, 1.645920315664308E9, 0.0, 2022-02-27 11:05:15.664
68.0, -4192.248486548482, -6970.167990942954, -1624.1895108448878, -10346.95778452847, -1106.880737171261, 835.1282280836377, -5748.37693552696, -3378.868505819858, -3002.3533704702104, -7954.896444665962, -3982.5667718132463, -2239.6894979106783, -5172.886571036169, -4138.559596366835, -11081.816086985598, -13453.738505093874, 0.01359375, -0.10818749999999999, 0.99075, 192.0, 0.0, 0.0, 0.0, 0.0, 0.0, 0.0, 0.0, 0.0, 0.0, 1.645920315670872E9, 0.0, 2022-02-27 11:05:15.670
70.0, -3817.94617389991, -6750.875026091937, -1484.4240527658526, -10157.72791596984, -815.4363412185122, 1061.752565115996, -5779.602322531024, -3398.359226984886, -4331.298688804947, -8117.840661745151, -3949.329727808205, -2520.8967949028965, -5138.084904919256, -4181.92198061013, -11482.135830180148, -13877.304062521944, 0.01359375, -0.10818749999999999, 0.99075, 192.0, 0.0, 0.0, 0.0, 0.0, 0.0, 0.0, 0.0, 0.0, 0.0, 1.645920315678927E9, 0.0, 2022-02-27 11:05:15.678
72.0, -4150.875407561709, -6900.654065686949, -1596.2051267868433, -10360.569996901751, -1124.493911802043, 846.5276177558444, -5756.7588396977, -3439.1735123602766, -4545.964842553716, -8504.861116988792, -3980.64452179009, -2388.2838950495598, -5156.748611539437, -4209.347571056792, -11446.149521607103, -14188.753269762192, 0.01359375, -0.10818749999999999, 0.99075, 192.0, 0.0, 0.0, 0.0, 0.0, 0.0, 0.0, 0.0, 0.0, 0.0, 1.645920315686961E9, 0.0, 2022-02-27 11:05:15.686
74.0, -3895.5737823931913, -6792.806898690093, -1539.632861570461, -10202.96784674738, -916.019191267394, 974.8936861626728, -5773.075613150074, -3353.3651653963525, -2842.963080759416, -7696.934961907264, -3926.553300208247, -2266.8692191683317, -5144.410448600108, -4129.14951195115, -11111.923886766897, -13281.384203599002, 0.01359375, -0.10818749999999999, 0.99075, 192.0, 0.0, 0.0, 0.0, 0.0, 0.0, 0.0, 0.0, 0.0, 0.0, 1.645920315694002E9, 0.0, 2022-02-27 11:05:15.694
76.0, -3882.565067120203, -6731.719581093738, -1515.247108369721, -10238.30595473122, -936.8957205886509, 992.6409712601867, -5779.289398108649, -3468.320187129997, -5322.263279230986, -8579.873571380804, -3949.754410952856, -2557.93363546534, -5140.007154942412, -4229.575899788845, -11693.851553660817, -14437.61759252758, 0.013796875, -0.10809374999999999, 0.991375, 192.0, 0.0, 56.0, 126.0, 80.0, 15.5, 0.0, 0.0, 0.0, 0.0, 1.645920315701514E9, 0.0, 2022-02-27 11:05:15.701
78.0, -4097.47709005798, -6884.471402701307, -1616.1652345854325, -10341.168682714544, -1108.7582837055068, 827.1933588020038, -5759.932787410354, -3407.76931140057, -2994.3514459552107, -7944.346421283058, -3949.7320592084006, -2194.896602022243, -5161.956567997524, -4147.701459849055, -11096.47883134828, -13488.853095633162, 0.013796875, -0.10809374999999999, 0.991375, 192.0, 0.0, 0.0, 0.0, 0.0, 0.0, 0.0, 0.0, 0.0, 0.0, 1.645920315716564E9, 0.0, 2022-02-27 11:05:15.716
80.0, -3736.5411205936816, -6670.520504775108, -1482.3229887870539, -10155.068058379658, -823.7735419003418, 1060.0985360263035, -5797.886049495465, -3419.0345906060447, -4240.304737127392, -8064.889379130528, -3923.044076328764, -2502.300143516081, -5137.369649096686, -4190.482698736513, -11484.862743003696, -13874.063059575923, 0.013796875, -0.10809374999999999, 0.991375, 192.0, 0.0, 0.0, 0.0, 0.0, 0.0, 0.0, 0.0, 0.0, 0.0, 1.645920315723613E9, 0.0, 2022-02-27 11:05:15.723
82.0, -4092.224430110983, -6855.1459139759445, -1601.9942286007679, -10365.934415571024, -1139.424877098188, 826.9251378685401, -5786.106680167518, -3471.292969142553, -4568.04836607556, -8498.602628541306, -3971.815582730244, -2393.916534652297, -5173.177143714088, -4221.1045886402835, -11469.887074218641, -14220.872726544469, 0.013796875, -0.10809374999999999, 0.991375, 192.0, 0.0, 0.0, 0.0, 0.0, 0.0, 0.0, 0.0, 0.0, 0.0, 1.645920315731317E9, 0.0, 2022-02-27 11:05:15.731
84.0, -3869.332834402661, -6786.883686409436, -1551.054602987123, -10217.094149243136, -945.6129009262206, 948.2951102608574, -5792.141651170451, -3369.0113865150674, -2811.447121077433, -7692.509316505113, -3928.9225851205097, -2273.015948893541, -5161.531884852873, -4144.303994691849, -11117.91415428092, -13285.876904234517, 0.013796875, -0.10809374999999999, 0.991375, 192.0, 0.0, 0.0, 0.0, 0.0, 0.0, 0.0, 0.0, 0.0, 0.0, 1.645920315739292E9, 0.0, 2022-02-27 11:05:15.739
86.0, -3841.7954852337225, -6705.724502292216, -1515.1577013918998, -10240.943460576947, -954.307729519335, 969.9986541269606, -5805.887974010465, -3491.11896647441, -5298.14574696371, -8583.874533638304, -3944.389992283582, -2576.5973420855216, -5153.217035915499, -4246.406763363691, -11708.782518956963, -14441.573851296169, 0.012, -0.106, 0.986, 192.0, 0.0, 48.0, 126.0, 88.0, 15.0, 104.0, 0.0, 0.0, 0.0, 1.645920315747245E9, 0.0, 2022-02-27 11:05:15.747
88.0, -4060.7531739179108, -6868.914588560413, -1617.5063392527509, -10346.421342661542, -1133.7028305176295, 809.2002045154816, -5768.605264259013, -3397.442805462218, -3001.9733908144703, -7957.511598767233, -3938.265614302828, -2195.9694857560976, -5170.874914035191, -4162.0512797893625, -11116.260125191227, -13509.39434878759, 0.012, -0.106, 0.986, 192.0, 0.0, 0.0, 0.0, 0.0, 0.0, 0.0, 0.0, 0.0, 0.0, 1.645920315753837E9, 0.0, 2022-02-27 11:05:15.753
90.0, -3676.236114053263, -6624.878242597371, -1475.125727072445, -10147.2449478203, -834.7482484278976, 1050.0849545103258, -5803.5633925871125, -3430.4563320227066, -4161.380727455703, -8040.5036259297885, -3892.980980036376, -2471.1641634898383, -5140.275375875875, -4191.957913870563, -11479.811248756796, -13851.59955639834, 0.012, -0.106, 0.986, 192.0, 0.0, 0.0, 0.0, 0.0, 0.0, 0.0, 0.0, 0.0, 0.0, 1.645920315761807E9, 0.0, 2022-02-27 11:05:15.761
92.0, -4022.554042643791, -6795.176183602355, -1586.7726906267037, -10356.233758477421, -1138.396696853244, 832.7812949158306, -5792.789851759655, -3488.839088539969, -4570.462354476733, -8500.100195419813, -3931.3812770105933, -2371.6094936859004, -5161.30836740832, -4222.602155518789, -11489.109574450205, -14247.761875124203, 0.012, -0.106, 0.986, 192.0, 0.0, 0.0, 0.0, 0.0, 0.0, 0.0, 0.0, 0.0, 0.0, 1.645920315768842E9, 0.0, 2022-02-27 11:05:15.768
94.0, -3809.7654354292677, -6718.152072209367, -1534.8048847681148, -10206.767643304784, -948.2057032830362, 954.1959707970585, -5798.310732640116, -3367.9832062701234, -2741.933195821428, -7661.082763800951, -3891.751634091334, -2232.53693968498, -5150.490123091951, -4134.066895731317, -11119.411721159426, -13285.094593178583, 0.012, -0.106, 0.986, 192.0, 0.0, 0.0, 0.0, 0.0, 0.0, 0.0, 0.0, 0.0, 0.0, 1.645920315776827E9, 0.0, 2022-02-27 11:05:15.776
96.0, -3772.4380221889046, -6633.595422934941, -1492.6271429809503, -10221.765663834294, -941.6789939020865, 1001.112282408748, -5802.803433275632, -3480.6136465804157, -5247.407287050162, -8540.109817994811, -3910.4153407115155, -2544.254367858692, -5144.231634644465, -4239.41066734918, -11707.620228245287, -14439.316325106183, 0.012, -0.10400000000000001, 0.992, 192.0, 0.0, 48.0, 126.0, 96.0, 15.5, 0.0, 0.0, 0.0, 0.0, 1.645920315784259E9, 0.0, 2022-02-27 11:05:15.784
98.0, -4008.584202359224, -6803.9604191732915, -1600.8766413780024, -10337.502996623874, -1126.684382758663, 827.6627454355652, -5774.081441650563, -3400.5049944525954, -2996.8101378452943, -7946.447485261856, -3906.9508203209425, -2175.8752674907764, -5154.111105693711, -4147.187369726583, -11117.467119391815, -13533.467177565954, 0.012, -0.10400000000000001, 0.992, 192.0, 0.0, 0.0, 0.0, 0.0, 0.0, 0.0, 0.0, 0.0, 0.0, 1.645920315791469E9, 0.0, 2022-02-27 11:05:15.791
100.0, -3637.2546717232076, -6586.321483411966, -1465.4250699788417, -10142.461674506865, -825.4722744789451, 1066.1558587736915, -5799.853003007532, -3409.378637001352, -4076.1982293365277, -8001.790404533197, -3877.1782967064737, -2455.137962715383, -5125.344410579731, -4178.9044951086635, -11460.588748525233, -13828.0631694869, 0.012, -0.10400000000000001, 0.992, 192.0, 0.0, 0.0, 0.0, 0.0, 0.0, 0.0, 0.0, 0.0, 0.0, 1.6459203157995E9, 0.0, 2022-02-27 11:05:15.799
102.0, -3987.841783504699, -6762.475581464241, -1578.6813591338826, -10355.160874743566, -1143.1129149333137, 855.4236120490566, -5777.076575407574, -3462.3746231048854, -4589.9083721528505, -8499.094366919324, -3925.256899029839, -2385.914610137297, -5157.9332539955685, -4217.751826971988, -11492.887019263151, -14259.518892707694, 0.012, -0.10400000000000001, 0.992, 192.0, 0.0, 0.0, 0.0, 0.0, 0.0, 0.0, 0.0, 0.0, 0.0, 1.645920315806061E9, 0.0, 2022-02-27 11:05:15.806
104.0, -3785.0891095506086, -6703.534031335596, -1529.0828381875563, -10213.562573619196, -959.6497964441535, 953.9277498635948, -5784.273837122183, -3371.0453952605008, -2699.800157523174, -7658.288795744038, -3886.074290999686, -2233.4310094631924, -5150.691288792049, -4123.271003159404, -11104.234886674272, -13278.880808220007, 0.012, -0.10400000000000001, 0.992, 192.0, 0.0, 0.0, 0.0, 0.0, 0.0, 0.0, 0.0, 0.0, 0.0, 1.645920315814149E9, 0.0, 2022-02-27 11:05:15.814
106.0, -3733.3448211365726, -6615.579916903963, -1479.1713928188556, -10218.703474843916, -948.7197934055083, 1000.7099510085525, -5811.5429653576575, -3487.0956524724547, -5220.518138470428, -8527.794006799937, -3903.195727252451, -2547.3389085935246, -5137.2131868854985, -4235.141484158216, -11699.685358963652, -14434.756569237301, 0.016, -0.106, 0.988, 192.0, 0.0, 64.0, 126.0, 88.0, 15.0, 112.0, 0.0, 0.0, 0.0, 1.645920315822193E9, 0.0, 2022-02-27 11:05:15.822
108.0, -3971.860286219154, -6780.491087495218, -1581.4306237018852, -10332.272688421332, -1143.649356800241, 821.9854023439173, -5805.128014698985, -3425.8518726649136, -3001.079321036258, -7947.05098236215, -3894.7691195928005, -2169.6167790432905, -5159.5202278518955, -4135.0503724873515, -11127.212479974329, -13556.802398777296, 0.016, -0.106, 0.988, 192.0, 0.0, 0.0, 0.0, 0.0, 0.0, 0.0, 0.0, 0.0, 0.0, 1.645920315835785E9, 0.0, 2022-02-27 11:05:15.835
110.0, -3589.9807322002334, -6549.977546927637, -1441.8886830674032, -10128.178909799923, -842.0125653758723, 1070.268579753468, -5836.398105191959, -3419.638087706338, -3990.009902716864, -7957.757467956241, -3854.1112964285967, -2426.617136790411, -5129.591242026239, -4157.424468687113, -11454.821998455764, -13811.187602423144, 0.016, -0.106, 0.988, 192.0, 0.0, 0.0, 0.0, 0.0, 0.0, 0.0, 0.0, 0.0, 0.0, 1.645920315843675E9, 0.0, 2022-02-27 11:05:15.843
112.0, -3922.1723582950067, -6692.939304463781, -1549.02059424169, -10334.798435544782, -1137.3908683527552, 850.2827108243359, -5802.043473964152, -3485.285161171575, -4587.04734886257, -8472.652253228694, -3900.513517917814, -2355.2033132557053, -5159.028489473879, -4202.217364575549, -11511.930705539073, -14278.763744683713, 0.016, -0.106, 0.988, 192.0, 0.0, 0.0, 0.0, 0.0, 0.0, 0.0, 0.0, 0.0, 0.0, 1.645920315851793E9, 0.0, 2022-02-27 11:05:15.851
114.0, -3745.3477079090726, -6656.237740068167, -1508.1616053773887, -10208.488727627842, -961.9073226341394, 933.4088484536229, -5790.085290680563, -3386.870430334858, -2635.6059474475323, -7615.172280689751, -3855.8323807516554, -2196.9753142565864, -5146.176236412077, -4107.065988429307, -11101.329159895082, -13278.366718097535, 0.016, -0.106, 0.988, 192.0, 0.0, 0.0, 0.0, 0.0, 0.0, 0.0, 0.0, 0.0, 0.0, 1.645920315858953E9, 0.0, 2022-02-27 11:05:15.858
116.0, -3703.0582073996316, -6583.773384544062, -1465.380366489931, -10212.1097102296, -939.8014473678408, 987.7682909689297, -5810.559488601624, -3501.0654927570217, -5182.609579874227, -8501.06132043139, -3887.169526477996, -2534.911338676374, -5140.409486342608, -4234.9626702025735, -11704.513335765998, -14430.040351157231, 0.018000000000000002, -0.11, 0.984, 192.0, 0.0, 72.0, 126.0, 72.0, 15.0, 96.0, 0.0, 0.0, 0.0, 1.645920315866414E9, 0.0, 2022-02-27 11:05:15.866
118.0, -3967.4122890725484, -6756.0606308055685, -1575.8873910769692, -10333.546737855284, -1146.4880283460652, 813.3129254952581, -5799.67418905189, -3411.703218424704, -3038.1608650876124, -7962.943072669873, -3899.887669073066, -2170.9131802216984, -5155.720431294493, -4147.612052871234, -11137.67309637941, -13580.986986277938, 0.018000000000000002, -0.11, 0.984, 192.0, 0.0, 0.0, 0.0, 0.0, 0.0, 0.0, 0.0, 0.0, 0.0, 1.645920315874497E9, 0.0, 2022-02-27 11:05:15.874
120.0, -3595.792185758613, -6548.234110860123, -1450.8740843384367, -10133.699790680384, -843.443077021012, 1047.9391870426164, -5809.173680445395, -3401.9802095866457, -3944.3676405391266, -7945.888691650473, -3867.8352675241554, -2422.884395466375, -5131.044105415834, -4154.138762252183, -11441.992097138418, -13781.482134042042, 0.018000000000000002, -0.11, 0.984, 192.0, 0.0, 0.0, 0.0, 0.0, 0.0, 0.0, 0.0, 0.0, 0.0, 1.645920315881593E9, 0.0, 2022-02-27 11:05:15.881
122.0, -3939.9866986258867, -6719.627287343417, -1561.470515903296, -10341.794531559293, -1126.0361821694592, 841.8337514202299, -5786.710177267812, -3471.672948798293, -4649.073439726048, -8505.844593744827, -3921.9264891059984, -2381.6007234574226, -5160.570759841295, -4208.9005361676855, -11515.685798607565, -14296.622788503504, 0.018000000000000002, -0.11, 0.984, 192.0, 0.0, 0.0, 0.0, 0.0, 0.0, 0.0, 0.0, 0.0, 0.0, 1.645920315888103E9, 0.0, 2022-02-27 11:05:15.888
124.0, -3768.7052808648687, -6679.729423490695, -1529.2840038876539, -10219.195213221934, -972.3232355503126, 923.5293774043772, -5800.858831508021, -3388.8150321024696, -2644.5689969741106, -7629.209176207683, -3883.615599109602, -2205.379570171782, -5156.838018517258, -4108.854127985732, -11095.7188720368, -13273.963424439838, 0.018000000000000002, -0.11, 0.984, 192.0, 0.0, 0.0, 0.0, 0.0, 0.0, 0.0, 0.0, 0.0, 0.0, 1.645920315896018E9, 0.0, 2022-02-27 11:05:15.896
126.0, -3700.8006812096455, -6585.293303167022, -1475.6845206838275, -10217.742349832339, -946.886950360173, 996.5748782843207, -5804.524517598691, -3487.341521661463, -5194.947742813557, -8485.146878379212, -3907.1743377654957, -2548.769420238664, -5152.300614392831, -4222.825672963342, -11707.664931734196, -14421.680798730946, 0.018000000000000002, -0.108, 0.986, 192.0, 0.0, 72.0, 126.0, 80.0, 15.0, 104.0, 0.0, 0.0, 0.0, 1.645920315904015E9, 0.0, 2022-02-27 11:05:15.904
128.0, -3973.849591475677, -6771.349224012998, -1586.3927109709634, -10349.774104329837, -1157.9544732516376, 806.8979748365849, -5806.513822855213, -3399.700331652204, -3092.073272713813, -7981.1597444009485, -3907.2190412544064, -2186.2241251735836, -5168.326815167286, -4138.313727177826, -11148.938375584887, -13599.985969064948, 0.018000000000000002, -0.108, 0.986, 192.0, 0.0, 0.0, 0.0, 0.0, 0.0, 0.0, 0.0, 0.0, 0.0, 1.645920315911303E9, 0.0, 2022-02-27 11:05:15.911
130.0, -3602.0283224616437, -6556.928939453237, -1448.3930407038977, -10144.808607674671, -852.2273125919477, 1039.914910783161, -5796.38848261696, -3417.894651638824, -3919.803073382744, -7943.586461971577, -3874.943122260943, -2438.038878207073, -5136.520282807384, -4162.587721656289, -11436.471216257956, -13771.312090314877, 0.018000000000000002, -0.108, 0.986, 192.0, 0.0, 0.0, 0.0, 0.0, 0.0, 0.0, 0.0, 0.0, 0.0, 1.645920315918798E9, 0.0, 2022-02-27 11:05:15.918
132.0, -3937.0586201022415, -6709.189022682789, -1549.8476087865365, -10343.917947282547, -1142.3082521329227, 844.4042020325902, -5785.14555515594, -3478.378472134885, -4703.768158408184, -8518.406274128709, -3920.9877158388754, -2395.436453275258, -5162.135381953166, -4211.538042013412, -11529.342714469758, -14322.349646371562, 0.018000000000000002, -0.108, 0.986, 192.0, 0.0, 0.0, 0.0, 0.0, 0.0, 0.0, 0.0, 0.0, 0.0, 1.645920315926697E9, 0.0, 2022-02-27 11:05:15.926
134.0, -3773.9355890674105, -6665.044327383558, -1522.1314456619557, -10220.78218707826, -983.4991077779661, 936.8063136108296, -5784.027967933174, -3371.4700784051515, -2637.61760444851, -7631.55610937549, -3881.939218275454, -2203.9714102710977, -5151.406544614619, -4102.685046516067, -11086.040566687652, -13272.443505816878, 0.018000000000000002, -0.108, 0.986, 192.0, 0.0, 0.0, 0.0, 0.0, 0.0, 0.0, 0.0, 0.0, 0.0, 1.645920315934706E9, 0.0, 2022-02-27 11:05:15.934
136.0, -3690.429471782383, -6566.1155064243685, -1468.4202037358527, -10205.560649104196, -950.0385463283714, 1007.7507505119743, -5810.6712473239, -3479.7866320355693, -5185.537658397872, -8464.918549647158, -3902.189898751962, -2538.018231155662, -5143.918710222091, -4204.899573910186, -11694.142126338736, -14408.560324735681, 0.014, -0.108, 0.986, 192.0, 0.0, 56.0, 126.0, 80.0, 15.0, 104.0, 0.0, 0.0, 0.0, 1.645920315941371E9, 0.0, 2022-02-27 11:05:15.941
138.0, -3973.8272397312217, -6758.698136651295, -1583.084652791578, -10346.846025806193, -1166.13521172228, 812.9329458395179, -5769.991072415241, -3417.0899888384333, -3139.2801570034217, -7981.718538012331, -3907.979000565887, -2179.853878003821, -5166.605730844228, -4123.628631070689, -11145.742076127777, -13622.985914109458, 0.014, -0.108, 0.986, 192.0, 0.0, 0.0, 0.0, 0.0, 0.0, 0.0, 0.0, 0.0, 0.0, 1.645920315949343E9, 0.0, 2022-02-27 11:05:15.949
140.0, -3596.7756625146467, -6547.2729858485445, -1441.866331322948, -10136.67257269294, -851.7802777028415, 1047.760373086974, -5795.807337261122, -3430.4339802782515, -3867.7905640352446, -7909.522403421689, -3865.756555289812, -2416.692962252255, -5124.96443092399, -4136.749105065955, -11407.16807927705, -13749.921470871148, 0.014, -0.108, 0.986, 192.0, 0.0, 0.0, 0.0, 0.0, 0.0, 0.0, 0.0, 0.0, 0.0, 1.645920315964344E9, 0.0, 2022-02-27 11:05:15.964
142.0, -3927.0673903307193, -6706.216240670234, -1547.92535876338, -10335.42428438953, -1141.3247753768892, 852.9202166700622, -5789.90647672492, -3493.130623475388, -4744.962423439315, -8512.416006614687, -3912.4046459680376, -2396.8893166648527, -5148.634928302161, -4189.0521870913735, -11531.644944148653, -14335.447768622373, 0.014, -0.108, 0.986, 192.0, 0.0, 0.0, 0.0, 0.0, 0.0, 0.0, 0.0, 0.0, 0.0, 1.645920315970952E9, 0.0, 2022-02-27 11:05:15.970
144.0, -3787.0337113182204, -6681.3387490914765, -1530.1780736658661, -10220.201041722423, -997.8265759738179, 933.0288687978828, -5784.5420580556465, -3370.374842926841, -2634.8236363915967, -7626.303449428493, -3881.1122037306077, -2203.7255410820894, -5158.536751095861, -4088.6257992536785, -11078.217456128295, -13265.559168524644, 0.014, -0.108, 0.986, 192.0, 0.0, 0.0, 0.0, 0.0, 0.0, 0.0, 0.0, 0.0, 0.0, 1.645920315978902E9, 0.0, 2022-02-27 11:05:15.978
146.0, -3684.9979978797437, -6559.789962743516, -1462.2287705217327, -10196.932875744447, -935.666374643609, 1018.1890151726026, -5804.144537942951, -3486.4921553721615, -5172.931274525079, -8450.635784940217, -3893.696235858946, -2545.908396948385, -5144.768076511393, -4188.359283013258, -11687.682472191153, -14386.834429125123, 0.01, -0.108, 0.994, 192.0, 0.0, 40.0, 126.0, 80.0, 15.5, 8.0, 0.0, 0.0, 0.0, 1.645920315986891E9, 0.0, 2022-02-27 11:05:15.986
148.0, -3975.682434521012, -6758.251101762188, -1590.6395424174718, -10345.884900794614, -1165.5317146219868, 813.44703596199, -5786.397252845437, -3441.006355405612, -3181.6143610017734, -7997.051834708672, -3898.1889364944623, -2171.0696424328858, -5157.575626084284, -4122.354581636737, -11150.30183199666, -13633.13360609217, 0.01, -0.108, 0.994, 192.0, 0.0, 0.0, 0.0, 0.0, 0.0, 0.0, 0.0, 0.0, 0.0, 1.645920315993509E9, 0.0, 2022-02-27 11:05:15.993
150.0, -3603.861165506979, -6546.602433514886, -1458.9430640868027, -10139.064209349657, -853.6801759815427, 1054.4882481680213, -5809.955991501331, -3421.8509104074137, -3830.552557772703, -7889.830516556563, -3862.783773277256, -2399.660932977311, -5136.028544429368, -4141.420619657114, -11398.562657661756, -13719.836022834304, 0.01, -0.108, 0.994, 192.0, 0.0, 0.0, 0.0, 0.0, 0.0, 0.0, 0.0, 0.0, 0.0, 1.645920316001571E9, 0.0, 2022-02-27 11:05:16.001
152.0, -3924.362829251627, -6687.172554394312, -1558.2071612128213, -10336.47481637893, -1128.494874059543, 870.4886878119336, -5800.545907085647, -3491.476594385695, -4800.305342710655, -8519.456806118109, -3912.650515157046, -2398.945677154741, -5160.906036008124, -4197.456443006568, -11548.38640074568, -14340.052227980164, 0.01, -0.108, 0.994, 192.0, 0.0, 0.0, 0.0, 0.0, 0.0, 0.0, 0.0, 0.0, 0.0, 1.645920316009515E9, 0.0, 2022-02-27 11:05:16.009
154.0, -3788.6430369190025, -6661.2668825706105, -1538.671736558883, -10231.198099994434, -991.501032292966, 926.0774762722822, -5788.05128193513, -3397.353398484397, -2633.9966218467503, -7638.239280967628, -3877.3124071732054, -2195.1648229557068, -5153.820533015792, -4093.342017333748, -11071.131953135962, -13260.306508577647, 0.01, -0.108, 0.994, 192.0, 0.0, 0.0, 0.0, 0.0, 0.0, 0.0, 0.0, 0.0, 0.0, 1.645920316016642E9, 0.0, 2022-02-27 11:05:16.016
156.0, -3685.6461984689477, -6551.34100333941, -1473.2928840271097, -10198.475146111865, -927.9103193176174, 1033.3658496577561, -5820.841291051065, -3525.7865221245916, -5169.578512856783, -8442.410342980666, -3892.9362765474652, -2546.3777835819465, -5144.6116143002055, -4196.763538928454, -11687.883637891251, -14379.234836010319, 0.014, -0.114, 0.992, 192.0, 0.0, 56.0, 126.0, 56.0, 15.5, 0.0, 0.0, 0.0, 0.0, 1.645920316023237E9, 0.0, 2022-02-27 11:05:16.023
158.0, -4002.9515627564865, -6765.940101854814, -1605.1681763134213, -10353.640956120606, -1179.5686101399197, 828.0650768357608, -5789.347683113538, -3411.5914597024275, -3246.948510044636, -8024.432721666422, -3912.1587767790293, -2197.712921823612, -5169.757326812426, -4101.47805231548, -11166.216274048838, -13647.438722543566, 0.014, -0.114, 0.992, 192.0, 0.0, 0.0, 0.0, 0.0, 0.0, 0.0, 0.0, 0.0, 0.0, 1.645920316031261E9, 0.0, 2022-02-27 11:05:16.031
160.0, -3622.8154448050796, -6554.783171985528, -1465.8497531234925, -10143.087523351613, -862.7549842303973, 1068.145164030214, -5799.607133818524, -3428.2658610660865, -3790.65469391998, -7887.08125198856, -3879.5699333631915, -2418.458750064224, -5146.377402112174, -4121.773436280899, -11385.77745983332, -13688.968263741526, 0.014, -0.114, 0.992, 192.0, 0.0, 0.0, 0.0, 0.0, 0.0, 0.0, 0.0, 0.0, 0.0, 1.645920316039199E9, 0.0, 2022-02-27 11:05:16.039
162.0, -3920.384218738582, -6681.361100835932, -1556.508428634218, -10331.42332213203, -1124.9632984356044, 887.7889380203412, -5795.33795062756, -3497.712731088726, -4833.967069860348, -8530.20799520111, -3921.5688611947135, -2413.4519593062355, -5163.431783131574, -4178.502163708468, -11554.108447326238, -14350.803417063167, 0.014, -0.114, 0.992, 192.0, 0.0, 0.0, 0.0, 0.0, 0.0, 0.0, 0.0, 0.0, 0.0, 1.645920316046331E9, 0.0, 2022-02-27 11:05:16.046
164.0, -3787.570153185148, -6662.429173282287, -1539.6552133149164, -10233.008591295313, -994.2950003498794, 939.600281667743, -5780.339930098049, -3395.9452385837126, -2610.974325057784, -7617.608620835379, -3874.6301978385686, -2179.451546603626, -5153.954643482523, -4076.041767125341, -11065.454610044315, -13258.764238210231, 0.013000000000000001, -0.11, 0.991, 192.0, 0.0, 48.0, 126.0, 88.0, 15.0, 120.0, 0.0, 0.0, 0.0, 1.645920316053851E9, 0.0, 2022-02-27 11:05:16.053
166.0, -3680.2147245663077, -6561.0640121774695, -1478.4337852518304, -10197.782242033749, -926.3233454612906, 1023.3522681417786, -5787.984226701764, -3484.994588493656, -5126.596108269227, -8427.47937768452, -3888.0188927672975, -2533.16790260886, -5141.392963098641, -4197.121166839739, -11683.301530277913, -14365.823789337133, 0.013000000000000001, -0.11, 0.991, 192.0, 0.0, 0.0, 0.0, 0.0, 0.0, 0.0, 0.0, 0.0, 0.0, 1.645920316061884E9, 0.0, 2022-02-27 11:05:16.061
168.0, -3986.478327092925, -6757.334680239521, -1604.69878967986, -10356.703145110983, -1166.5375431224757, 822.9688790999508, -5769.968720670787, -3430.970422145179, -3277.1457168037555, -8043.074076542149, -3908.9624773219202, -2190.627418831279, -5171.6125216022165, -4132.502273619446, -11170.038422350695, -13671.377440855198, 0.013000000000000001, -0.11, 0.991, 192.0, 0.0, 0.0, 0.0, 0.0, 0.0, 0.0, 0.0, 0.0, 0.0, 1.645920316069766E9, 0.0, 2022-02-27 11:05:16.069
170.0, -3601.8495085060013, -6540.634517745319, -1467.1014508129897, -10138.974802371837, -846.0358793778277, 1066.8711145962614, -5797.059034950618, -3420.3533435289078, -3718.123283162509, -7860.41562085338, -3861.0626889541973, -2390.3179037949926, -5134.8662537176915, -4125.036790971374, -11371.62880559311, -13673.61261530073, 0.013000000000000001, -0.11, 0.991, 192.0, 0.0, 0.0, 0.0, 0.0, 0.0, 0.0, 0.0, 0.0, 0.0, 1.645920316083503E9, 0.0, 2022-02-27 11:05:16.083
172.0, -3912.6281634125908, -6676.667234500317, -1556.3519664230307, -10332.272688421332, -1104.8690801702835, 890.9181822440842, -5773.14266838344, -3479.160783190821, -4848.763924689762, -8533.806626058415, -3913.231660512884, -2418.794026231054, -5152.054745203823, -4188.180469057616, -11558.71290668403, -14360.884053812511, 0.013000000000000001, -0.11, 0.991, 192.0, 0.0, 0.0, 0.0, 0.0, 0.0, 0.0, 0.0, 0.0, 0.0, 1.64592031609143E9, 0.0, 2022-02-27 11:05:16.091
174.0, -3807.820833661656, -6672.956844920736, -1542.3597743940086, -10237.88127158657, -990.1375758811922, 930.1231420186928, -5765.207799101806, -3379.3155407089644, -2589.2484294472256, -7634.886519299331, -3885.560200877214, -2191.7897095429553, -5145.796256756336, -4085.6530172411226, -11054.368144794482, -13252.930432907395, 0.0125, -0.11, 0.9915, 192.0, 0.0, 48.0, 126.0, 72.0, 15.5, 0.0, 0.0, 0.0, 0.0, 1.645920316098734E9, 0.0, 2022-02-27 11:05:16.098
176.0, -3683.6792449568807, -6553.82204697395, -1472.9352561158248, -10195.122384443568, -902.4516823830227, 1038.663213093664, -5788.833592991065, -3477.4620506122174, -5101.964485879479, -8420.706799114561, -3904.3133144752164, -2545.0143271701727, -5128.138378636644, -4191.9355621261075, -11670.292815004923, -14346.087198983098, 0.0125, -0.11, 0.9915, 192.0, 0.0, 0.0, 0.0, 0.0, 0.0, 0.0, 0.0, 0.0, 0.0, 1.645920316106067E9, 0.0, 2022-02-27 11:05:16.106
178.0, -3988.9370189830092, -6749.869197591448, -1594.9087256084354, -10348.85768280717, -1159.429688385688, 817.4032947305793, -5781.2563516207165, -3449.7458874876365, -3310.4051125532524, -8060.21786453937, -3917.6349541705795, -2200.641000347257, -5156.234521416965, -4131.429389885591, -11175.514599742246, -13697.841906290283, 0.0125, -0.11, 0.9915, 192.0, 0.0, 0.0, 0.0, 0.0, 0.0, 0.0, 0.0, 0.0, 0.0, 1.645920316114192E9, 0.0, 2022-02-27 11:05:16.114
180.0, -3618.769779058669, -6550.357526583377, -1465.4027182343864, -10141.947584384392, -846.3935072891126, 1056.2987394689012, -5798.0425117066525, -3412.6643434362823, -3663.0709365690873, -7843.651812511899, -3867.9246745019764, -2386.607514215412, -5113.9673726519795, -4127.786055539376, -11356.6307850636, -13655.217129614011, 0.0125, -0.11, 0.9915, 192.0, 0.0, 0.0, 0.0, 0.0, 0.0, 0.0, 0.0, 0.0, 0.0, 1.645920316122175E9, 0.0, 2022-02-27 11:05:16.122
182.0, -3916.070332058708, -6677.5836560229845, -1551.7922105541481, -10326.818862774237, -1111.0158098954928, 885.9784467194613, -5795.874392494487, -3462.799306249536, -4894.562649078685, -8552.447980934141, -3919.2666315158167, -2426.080694923484, -5133.815721728292, -4201.166832586149, -11570.33581380079, -14375.770315619746, 0.0125, -0.11, 0.9915, 192.0, 0.0, 0.0, 0.0, 0.0, 0.0, 0.0, 0.0, 0.0, 0.0, 1.64592031612873E9, 0.0, 2022-02-27 11:05:16.128
184.0, -3812.335886041628, -6669.291158830066, -1542.0021464827237, -10236.629573897073, -1004.0627126768486, 920.1095605027152, -5798.735415784767, -3367.357357425375, -2595.7304353392647, -7651.873845085364, -3880.687520585957, -2183.1395844387516, -5127.311364091798, -4092.649113255634, -11058.749086707723, -13258.406610298945, 0.013250000000000001, -0.10600000000000001, 0.99275, 192.0, 0.0, 56.0, 126.0, 104.0, 15.5, 8.0, 0.0, 0.0, 0.0, 1.645920316135886E9, 0.0, 2022-02-27 11:05:16.135
186.0, -3661.0369278236544, -6536.968831654648, -1460.507686198674, -10179.185590646934, -897.3331329027574, 1029.141369955703, -5809.419549634404, -3485.7545478051366, -5080.6856251580275, -8412.749578088473, -3883.4144334095045, -2527.423504283846, -5104.892564403125, -4192.315541781848, -11673.287948761934, -14340.007524491255, 0.013250000000000001, -0.10600000000000001, 0.99275, 192.0, 0.0, 0.0, 0.0, 0.0, 0.0, 0.0, 0.0, 0.0, 0.0, 1.645920316143701E9, 0.0, 2022-02-27 11:05:16.143
188.0, -3990.009902716864, -6751.85850284797, -1598.8202808881142, -10344.655554849573, -1177.0875665053804, 814.9893063294061, -5782.753918499222, -3410.5856312019387, -3356.941444509202, -8090.035091642749, -3911.331762234183, -2190.381549642271, -5140.878872976169, -4134.089247475773, -11189.21621909335, -13715.656246621162, 0.013250000000000001, -0.10600000000000001, 0.99275, 192.0, 0.0, 0.0, 0.0, 0.0, 0.0, 0.0, 0.0, 0.0, 0.0, 1.645920316151938E9, 0.0, 2022-02-27 11:05:16.151
190.0, -3616.0428662351214, -6551.698631250695, -1467.2132095352663, -10133.81154940266, -856.5859027607326, 1044.9217015411498, -5802.468157108803, -3398.29217175152, -3622.636630849437, -7844.07649565655, -3869.1093169581077, -2372.525915208568, -5109.7428929499265, -4123.874500259698, -11349.38881986008, -13627.635076956163, 0.013250000000000001, -0.10600000000000001, 0.99275, 192.0, 0.0, 0.0, 0.0, 0.0, 0.0, 0.0, 0.0, 0.0, 0.0, 1.645920316158821E9, 0.0, 2022-02-27 11:05:16.158
192.0, -3905.2073842534287, -6668.978234407692, -1550.5852163535615, -10317.408778358553, -1104.3773417922666, 878.7141297714866, -5785.994921445242, -3486.5368588610722, -4921.742370336338, -8562.573321172396, -3920.8536053721436, -2433.5461775715567, -5133.34633509473, -4199.892783152197, -11577.600130748766, -14384.37573723504, 0.013250000000000001, -0.10600000000000001, 0.99275, 192.0, 0.0, 0.0, 0.0, 0.0, 0.0, 0.0, 0.0, 0.0, 0.0, 1.645920316166451E9, 0.0, 2022-02-27 11:05:16.166
194.0, -3828.51854902727, -6683.573923537007, -1550.8757890314805, -10246.151417035035, -1017.5408145833987, 898.4060166366121, -5780.3175783535935, -3385.126994267344, -2581.4700223767786, -7659.518141689079, -3888.756500334323, -2180.837354759855, -5130.73118099346, -4094.7278254899775, -11055.530435506158, -13263.122828379015, 0.015625, -0.10200000000000001, 0.991375, 192.0, 0.0, 72.0, 126.0, 120.0, 15.0, 120.0, 0.0, 0.0, 0.0, 1.645920316174455E9, 0.0, 2022-02-27 11:05:16.174
196.0, -3680.1700210773975, -6551.698631250695, -1472.6223316934504, -10189.534448329741, -915.8850808006622, 1014.4786255930217, -5805.57504958809, -3469.6165883084045, -5064.1453342611, -8413.2860199554, -3902.5028231743368, -2537.2135683552706, -5110.659314472594, -4198.059940106862, -11678.294739519923, -14327.468195851827, 0.015625, -0.10200000000000001, 0.991375, 192.0, 0.0, 0.0, 0.0, 0.0, 0.0, 0.0, 0.0, 0.0, 0.0, 1.645920316181567E9, 0.0, 2022-02-27 11:05:16.181
198.0, -4002.3033621672826, -6754.585415671518, -1597.5238797097063, -10358.781857345326, -1168.392737912266, 796.0350270313057, -5779.177639386373, -3436.0442681365334, -3416.6876574382377, -8119.204118156925, -3920.9206606055095, -2204.3960934157485, -5140.163617153599, -4141.241805701471, -11206.963504190864, -13746.881633625226, 0.015625, -0.10200000000000001, 0.991375, 192.0, 0.0, 0.0, 0.0, 0.0, 0.0, 0.0, 0.0, 0.0, 0.0, 1.645920316189196E9, 0.0, 2022-02-27 11:05:16.189
200.0, -3623.6201076054704, -6551.475113806143, -1471.057709581579, -10144.428628018932, -845.2535683218919, 1030.169550200647, -5796.924924483887, -3402.0472648200116, -3571.697005235792, -7834.688762985321, -3870.3163111586946, -2364.725156393666, -5101.271581801365, -4122.1981194255495, -11336.849491220653, -13613.88875411615, 0.015625, -0.10200000000000001, 0.991375, 192.0, 0.0, 0.0, 0.0, 0.0, 0.0, 0.0, 0.0, 0.0, 0.0, 1.645920316197115E9, 0.0, 2022-02-27 11:05:16.197
202.0, -3896.4678521714036, -6662.451525026742, -1546.3383849070533, -10321.56620282724, -1095.7942719214288, 879.4964408274222, -5772.919150938887, -3473.617550565905, -4956.097001564146, -8568.2730160085, -3918.9537070934425, -2433.568529316012, -5119.86823318818, -4195.02010286094, -11585.065613396837, -14396.870362385556, 0.015625, -0.10200000000000001, 0.991375, 192.0, 0.0, 0.0, 0.0, 0.0, 0.0, 0.0, 0.0, 0.0, 0.0, 1.645920316211187E9, 0.0, 2022-02-27 11:05:16.211
204.0, -3833.6147467630803, -6687.9772171947025, -1549.534684364162, -10257.014364840314, -1028.7613902999628, 892.2816386558579, -5782.329235354571, -3356.740278809104, -2581.693539821332, -7664.1896562802385, -3888.2424102118507, -2175.3611773683047, -5116.403712797608, -4092.1573748776173, -11053.205854082806, -13260.507674277744, 0.0158125, -0.10500000000000001, 0.9896875, 192.0, 0.0, 64.0, 126.0, 80.0, 15.0, 112.0, 0.0, 0.0, 0.0, 1.645920316218607E9, 0.0, 2022-02-27 11:05:16.218
206.0, -3670.2234947947854, -6548.189407371213, -1465.4250699788417, -10195.234143165844, -899.344789903735, 1007.0354946894043, -5796.544944828146, -3476.3668151339075, -5032.629374579117, -8402.624237850217, -3899.6417998840575, -2547.9647574382734, -5100.399863767608, -4200.429225019125, -11669.421096971166, -14306.993997930766, 0.0158125, -0.10500000000000001, 0.9896875, 192.0, 0.0, 0.0, 0.0, 0.0, 0.0, 0.0, 0.0, 0.0, 0.0, 1.645920316226695E9, 0.0, 2022-02-27 11:05:16.226
208.0, -4009.5006238818914, -6758.4075639733755, -1601.9495251118572, -10368.884845839126, -1178.942761295171, 790.3353321952025, -5767.66649099189, -3418.29698303902, -3451.712840999704, -8131.028190973782, -3921.233585027884, -2223.730352369589, -5124.87502394617, -4143.655794102645, -11215.054835683684, -13770.060392625379, 0.0158125, -0.10500000000000001, 0.9896875, 192.0, 0.0, 0.0, 0.0, 0.0, 0.0, 0.0, 0.0, 0.0, 0.0, 1.645920316233784E9, 0.0, 2022-02-27 11:05:16.233
210.0, -3642.1273520144646, -6563.165076156268, -1480.2889800416208, -10151.558834500174, -858.1952283615146, 1025.9897739875048, -5784.497354566736, -3400.8179188749696, -3529.6533739153597, -7827.670315226354, -3885.0684624991973, -2376.8398018884423, -5102.031541112846, -4125.752046793944, -11328.020552160806, -13588.206599737001, 0.0158125, -0.10500000000000001, 0.9896875, 192.0, 0.0, 0.0, 0.0, 0.0, 0.0, 0.0, 0.0, 0.0, 0.0, 1.645920316241301E9, 0.0, 2022-02-27 11:05:16.241
212.0, -3906.369674965105, -6667.659481484829, -1552.7309838212711, -10323.466101105942, -1091.7486061750183, 869.862838967185, -5777.210685874305, -3485.30751291603, -4990.563391514229, -8581.706414426139, -3935.449294501459, -2450.19822719076, -5121.745779722426, -4204.296076809893, -11603.259933383457, -14412.04719687071, 0.0158125, -0.10500000000000001, 0.9896875, 192.0, 0.0, 0.0, 0.0, 0.0, 0.0, 0.0, 0.0, 0.0, 0.0, 1.645920316249278E9, 0.0, 2022-02-27 11:05:16.249
214.0, -3857.1511336745184, -6695.867382987426, -1569.2042194848323, -10265.977414366891, -1037.143294470703, 881.5528013173106, -5781.926903954376, -3362.4176219007522, -2580.620656087477, -7673.577388951468, -3904.20155575294, -2186.1347181957626, -5122.0140006558895, -4092.9173341890973, -11057.028002384664, -13268.755467981753, 0.01490625, -0.10550000000000001, 0.98984375, 192.0, 0.0, 56.0, 126.0, 88.0, 15.0, 120.0, 0.0, 0.0, 0.0, 1.645920316257299E9, 0.0, 2022-02-27 11:05:16.257
216.0, -3671.4081372509168, -6545.551901525486, -1472.9352561158248, -10190.964959974881, -905.1785952065701, 1010.3435528687899, -5813.733436314277, -3479.8760390133907, -5011.462272579941, -8381.859467251237, -3910.325933733694, -2551.809257484586, -5104.467881258474, -4192.919038882142, -11671.656271416698, -14299.64027400497, 0.01490625, -0.10550000000000001, 0.98984375, 192.0, 0.0, 0.0, 0.0, 0.0, 0.0, 0.0, 0.0, 0.0, 0.0, 1.6459203162634E9, 0.0, 2022-02-27 11:05:16.263
218.0, -4013.255716950383, -6754.272491249143, -1602.798891401159, -10368.817790605759, -1176.8193455719168, 784.9932652703841, -5795.628523305479, -3434.9490326582236, -3505.3346759479855, -8143.925147524495, -3924.5639949517245, -2224.9820500590863, -5126.193776869032, -4148.751991838454, -11233.450321370403, -13797.284817371943, 0.01490625, -0.10550000000000001, 0.98984375, 192.0, 0.0, 0.0, 0.0, 0.0, 0.0, 0.0, 0.0, 0.0, 0.0, 1.645920316270883E9, 0.0, 2022-02-27 11:05:16.270
220.0, -3640.1380467579424, -6566.339023868922, -1475.997445106202, -10156.051535135692, -862.9785016749504, 1007.9742679565273, -5814.024008992196, -3410.764445157581, -3476.0762424559884, -7808.78309116162, -3876.843020539644, -2368.703766906711, -5098.030578855345, -4130.0659334738175, -11320.398607301548, -13579.645881610619, 0.01490625, -0.10550000000000001, 0.98984375, 192.0, 0.0, 0.0, 0.0, 0.0, 0.0, 0.0, 0.0, 0.0, 0.0, 1.645920316278931E9, 0.0, 2022-02-27 11:05:16.278
222.0, -3899.5970963951468, -6668.486496029675, -1547.9700622522905, -10320.739188282394, -1091.9497718751159, 868.0076441773945, -5792.074595937085, -3488.1014809729436, -5014.435054592497, -8573.302158510944, -3926.6650589305236, -2468.4148989218356, -5119.532957021351, -4203.513765753957, -11614.77108177794, -14428.453377300904, 0.01490625, -0.10550000000000001, 0.98984375, 192.0, 0.0, 0.0, 0.0, 0.0, 0.0, 0.0, 0.0, 0.0, 0.0, 1.645920316286923E9, 0.0, 2022-02-27 11:05:16.286
224.0, -3864.8848372560547, -6705.813909270038, -1559.2576932022207, -10268.234940556877, -1042.1947887176025, 870.6227982786654, -5786.978398201275, -3380.1425552538108, -2575.7032723073094, -7672.146877306328, -3895.4843754153703, -2187.766395541, -5120.337619821742, -4093.7219969894886, -11055.396325039426, -13273.583444784099, 0.014453125, -0.10575000000000001, 0.9899218750000001, 192.0, 0.0, 56.0, 126.0, 88.0, 15.0, 120.0, 0.0, 0.0, 0.0, 1.645920316293461E9, 0.0, 2022-02-27 11:05:16.293
226.0, -3676.3031692866293, -6558.2476923761005, -1468.286093269121, -10188.34980587361, -903.1222347166819, 1007.080198178315, -5820.528366628691, -3467.5825795629717, -4980.147478598056, -8364.402754831643, -3901.206421995929, -2553.664452274377, -5102.00918936839, -4196.562373228357, -11664.861341102283, -14280.127201095487, 0.014453125, -0.10575000000000001, 0.9899218750000001, 192.0, 0.0, 0.0, 0.0, 0.0, 0.0, 0.0, 0.0, 0.0, 0.0, 1.645920316301536E9, 0.0, 2022-02-27 11:05:16.301
228.0, -4020.162405987073, -6769.762250156671, -1600.183737299888, -10373.779877874837, -1184.0836625198917, 775.3373116656913, -5805.820918777099, -3440.2463960941313, -3553.5250369936275, -8160.688955865974, -3929.8613583876327, -2240.181236288695, -5131.692306005038, -4149.91428255013, -11241.295783674215, -13816.68613155915, 0.014453125, -0.10575000000000001, 0.9899218750000001, 192.0, 0.0, 0.0, 0.0, 0.0, 0.0, 0.0, 0.0, 0.0, 0.0, 1.64592031631014E9, 0.0, 2022-02-27 11:05:16.310
230.0, -3649.6598898959032, -6578.0289862190475, -1475.3715962614533, -10158.353764814588, -866.6665395100761, 998.2289073740134, -5826.3398201870705, -3403.589535187428, -3436.6924687257374, -7790.387605474903, -3881.939218275454, -2364.0993075489173, -5104.91491614758, -4127.204910183538, -11307.725168195388, -13563.127942458146, 0.014453125, -0.10575000000000001, 0.9899218750000001, 192.0, 0.0, 0.0, 0.0, 0.0, 0.0, 0.0, 0.0, 0.0, 0.0, 1.645920316316692E9, 0.0, 2022-02-27 11:05:16.316
232.0, -3891.6622271135125, -6669.313510574521, -1544.1702656948885, -10322.594383072184, -1088.3734927622668, 857.4576207944896, -5801.596439075046, -3488.59321935096, -5044.833427051714, -8583.829830149392, -3930.6213176991128, -2468.7054715997547, -5127.624288514172, -4215.78487345992, -11617.118014945749, -14439.785711739745, 0.014453125, -0.10575000000000001, 0.9899218750000001, 192.0, 0.0, 0.0, 0.0, 0.0, 0.0, 0.0, 0.0, 0.0, 0.0, 1.645920316331132E9, 0.0, 2022-02-27 11:05:16.331
234.0, -3870.0257384807755, -6714.240516929689, -1559.8164868136034, -10277.197990083456, -1055.2929109684123, 853.9483969150064, -5803.5633925871125, -3379.494354664607, -2570.3835571269465, -7678.114793075895, -3894.5456021482473, -2174.6906250346456, -5135.6932682625375, -4104.026151183385, -11049.294298803128, -13286.68156703491, 0.016, -0.1, 0.99, 192.0, 0.0, 64.0, 126.0, 112.0, 15.0, 120.0, 0.0, 0.0, 0.0, 1.645920316339635E9, 0.0, 2022-02-27 11:05:16.339
236.0, -3656.34306148804, -6551.095134150402, -1469.4707357252523, -10186.248741894811, -898.3389614032461, 1012.3552098697675, -5817.95791601633, -3463.3357481164635, -4935.913376321003, -8332.775036427383, -3895.037340526264, -2541.1921788683153, -5120.494082032929, -4193.388425515703, -11656.837064842828, -14267.230244544775, 0.016, -0.1, 0.99, 192.0, 0.0, 0.0, 0.0, 0.0, 0.0, 0.0, 0.0, 0.0, 0.0, 1.645920316345902E9, 0.0, 2022-02-27 11:05:16.345
238.0, -4016.5861268742237, -6771.684500179827, -1607.2021850588544, -10377.892598854614, -1185.9165055652268, 776.4101953995462, -5801.775253030688, -3434.7031634692153, -3593.177031657342, -8167.5285896692985, -3922.909965862032, -2228.9383088276754, -5148.523169579884, -4146.427410415103, -11255.936176292442, -13843.530576649973, 0.016, -0.1, 0.99, 192.0, 0.0, 0.0, 0.0, 0.0, 0.0, 0.0, 0.0, 0.0, 0.0, 1.645920316353857E9, 0.0, 2022-02-27 11:05:16.353
240.0, -3665.9990150927324, -6593.54109687103, -1488.1791458343441, -10168.769677730761, -872.1650686460816, 997.0442649178822, -5817.332067171582, -3396.772253128559, -3390.9831513146346, -7779.30114022507, -3886.7671950778004, -2358.824295857465, -5128.428951314563, -4123.561575837323, -11301.645493703545, -13548.554605073286, 0.016, -0.1, 0.99, 192.0, 0.0, 0.0, 0.0, 0.0, 0.0, 0.0, 0.0, 0.0, 0.0, 1.645920316361846E9, 0.0, 2022-02-27 11:05:16.361
242.0, -3888.0635962562083, -6664.977272150192, -1538.7164400477934, -10325.120130195633, -1076.4600129675882, 873.0144349353833, -5814.605154348034, -3499.187946222776, -5069.040366296812, -8581.438193492675, -3933.012954355831, -2471.4547361677573, -5145.572739311783, -4202.30677155337, -11631.4454831416, -14455.141360180542, 0.016, -0.1, 0.99, 192.0, 0.0, 0.0, 0.0, 0.0, 0.0, 0.0, 0.0, 0.0, 0.0, 1.645920316368983E9, 0.0, 2022-02-27 11:05:16.368
244.0, -3877.1559449620186, -6709.904278505359, -1562.051661259134, -10283.925865164503, -1052.4765911670436, 852.6966992255092, -5805.642104821456, -3373.7946598285034, -2580.911228765396, -7679.634711698856, -3897.496032416348, -2177.57400006938, -5148.634928302161, -4095.4207295680917, -11051.484769759747, -13299.19854392988, 0.014, -0.10200000000000001, 0.986, 192.0, 0.0, 56.0, 126.0, 104.0, 15.0, 104.0, 0.0, 0.0, 0.0, 1.645920316376464E9, 0.0, 2022-02-27 11:05:16.376
246.0, -3664.434392980861, -6548.323517837945, -1471.5494479595957, -10188.260398895789, -890.0017607214166, 1011.5728988138318, -5828.418532421414, -3457.1666666467986, -4909.225393441367, -8324.907222379115, -3901.0946632736523, -2543.1814841248374, -5132.854596716714, -4192.404948759669, -11650.042134528416, -14259.071857818588, 0.014, -0.10200000000000001, 0.986, 192.0, 0.0, 0.0, 0.0, 0.0, 0.0, 0.0, 0.0, 0.0, 0.0, 1.645920316383526E9, 0.0, 2022-02-27 11:05:16.383
248.0, -4022.978725788442, -6763.771982642649, -1609.1020833375555, -10375.076279053244, -1183.2566479750453, 781.5287448798115, -5816.706218326834, -3437.094800125933, -3646.4859421832493, -8194.350683015668, -3927.581480453191, -2245.277434024505, -5166.561027355317, -4163.481791434502, -11267.335565964648, -13872.900768864247, 0.014, -0.10200000000000001, 0.986, 192.0, 0.0, 0.0, 0.0, 0.0, 0.0, 0.0, 0.0, 0.0, 0.0, 1.645920316392614E9, 0.0, 2022-02-27 11:05:16.392
250.0, -3667.653044182425, -6591.596495103418, -1490.77194819116, -10162.131209627534, -872.2321238794475, 998.273610862924, -5811.5429653576575, -3394.894706594313, -3343.4409908581965, -7760.01158476014, -3885.3143316882056, -2347.111981762884, -5141.839997987748, -4129.440084629069, -11291.497801720834, -13529.957953686471, 0.014, -0.10200000000000001, 0.986, 192.0, 0.0, 0.0, 0.0, 0.0, 0.0, 0.0, 0.0, 0.0, 0.0, 1.645920316399968E9, 0.0, 2022-02-27 11:05:16.399
252.0, -3891.3045992022276, -6662.920911660303, -1542.762105794204, -10312.401987600564, -1074.4483559666105, 885.084376941249, -5813.174642702895, -3480.6583500693264, -5092.979084608446, -8590.93768488618, -3931.202463054951, -2483.1894020067934, -5152.9488149820345, -4214.130844370227, -11643.157797236181, -14455.856616003111, 0.014, -0.10200000000000001, 0.986, 192.0, 0.0, 0.0, 0.0, 0.0, 0.0, 0.0, 0.0, 0.0, 0.0, 1.645920316406241E9, 0.0, 2022-02-27 11:05:16.406
254.0, -3895.3726166930937, -6722.264793189143, -1565.8961613054469, -10284.350548309154, -1055.561131901876, 859.0445946508163, -5781.613979532001, -3379.6731686202493, -2595.41751091689, -7694.386863039358, -3901.787567351767, -2175.8529157463213, -5162.850637775736, -4100.114595903707, -11059.777266952666, -13303.244209676292, 0.016, -0.1, 0.986, 192.0, 0.0, 64.0, 126.0, 112.0, 15.0, 104.0, 0.0, 0.0, 0.0, 1.645920316414222E9, 0.0, 2022-02-27 11:05:16.414
0.0, -3659.4276022228723, -6545.730715481129, -1459.837133865015, -10180.929026714448, -877.9988739489168, 1026.4591606210663, -5814.739264814766, -3476.92560874529, -4879.989311693825, -8310.177422783068, -3891.0587300132192, -2540.968661423762, -5141.527073565373, -4189.499221980479, -11648.209291483081, -14240.318744220585, 0.016, -0.1, 0.986, 192.0, 0.0, 0.0, 0.0, 0.0, 0.0, 0.0, 0.0, 0.0, 0.0, 1.645920316422044E9, 0.0, 2022-02-27 11:05:16.422
2.0, -4022.665801366067, -6757.111162794968, -1591.3324464955863, -10379.703090155494, -1176.4393659161767, 785.4403001594902, -5793.594514560046, -3443.643861251338, -3701.694750987858, -8208.231116322413, -3914.0586750577304, -2246.216207291628, -5167.343338411252, -4153.490561662979, -11278.46673470339, -13896.057176119946, 0.016, -0.1, 0.986, 192.0, 0.0, 0.0, 0.0, 0.0, 0.0, 0.0, 0.0, 0.0, 0.0, 1.645920316428631E9, 0.0, 2022-02-27 11:05:16.428
4.0, -3659.494657456238, -6581.784079287539, -1472.0188345931572, -10163.226445105845, -869.4828593114447, 1005.917907466639, -5807.027912977685, -3386.8927820793133, -3298.3351705473865, -7751.026183489107, -3871.4338983814596, -2342.1051910048955, -5143.516378821895, -4128.05427647284, -11272.923502078474, -13506.801546430774, 0.016, -0.1, 0.986, 192.0, 0.0, 0.0, 0.0, 0.0, 0.0, 0.0, 0.0, 0.0, 0.0, 1.645920316436785E9, 0.0, 2022-02-27 11:05:16.436
6.0, -3867.388232635049, -6644.83835039596, -1524.4560270853076, -10300.913190950536, -1067.787536118929, 891.1416996886372, -5818.650820094445, -3498.5173938891166, -5109.9217069055685, -8575.202056789643, -3910.996486067353, -2465.5985791204666, -5151.428896359074, -4208.7217222120435, -11647.605794382787, -14462.852712017622, 0.016, -0.1, 0.986, 192.0, 0.0, 0.0, 0.0, 0.0, 0.0, 0.0, 0.0, 0.0, 0.0, 1.645920316444692E9, 0.0, 2022-02-27 11:05:16.444
8.0, -3893.696235858946, -6716.386284397398, -1564.376242682486, -10285.423432043008, -1067.9887018190268, 855.1106876266823, -5773.612055017002, -3378.868505819858, -2600.625467374977, -7696.599685740434, -3891.4387096689597, -2164.85585747431, -5164.281149420875, -4093.833755711765, -11060.492522775236, -13306.909895766961, 0.014, -0.106, 0.986, 192.0, 0.0, 56.0, 126.0, 88.0, 15.0, 104.0, 0.0, 0.0, 0.0, 1.64592031645831E9, 0.0, 2022-02-27 11:05:16.458
10.0, -3651.8056573636127, -6539.449875289188, -1456.126744285434, -10173.552951044197, -879.2282198939586, 1023.9781169865272, -5807.564354844613, -3479.317245402008, -4849.322718301144, -8287.289236460834, -3889.762328834812, -2534.26313808717, -5149.752515524926, -4182.547829454878, -11642.040210013416, -14212.401415395907, 0.014, -0.106, 0.986, 192.0, 0.0, 0.0, 0.0, 0.0, 0.0, 0.0, 0.0, 0.0, 0.0, 1.64592031646651E9, 0.0, 2022-02-27 11:05:16.466
12.0, -4010.84172854921, -6747.678726634828, -1584.8504406035472, -10374.919816842059, -1173.8912670482716, 786.8484600601745, -5800.0988721965405, -3458.0160329361, -3755.0930684915866, -8209.438110522999, -3914.5951169246578, -2252.7205649281223, -5175.032338503878, -4151.054221517351, -11295.319950022693, -13913.84916470637, 0.014, -0.106, 0.986, 192.0, 0.0, 0.0, 0.0, 0.0, 0.0, 0.0, 0.0, 0.0, 0.0, 1.645920316474318E9, 0.0, 2022-02-27 11:05:16.474
14.0, -3657.371241732984, -6577.649006563307, -1466.1403258014116, -10162.287671838722, -880.1893449055368, 991.4563288040554, -5806.044436221652, -3421.0015441181117, -3257.4091264497197, -7728.249755889149, -3866.6059215791133, -2332.9409757782196, -5151.518303336895, -4124.299183404349, -11266.486199675346, -13487.176714799014, 0.014, -0.106, 0.986, 192.0, 0.0, 0.0, 0.0, 0.0, 0.0, 0.0, 0.0, 0.0, 0.0, 1.645920316480964E9, 0.0, 2022-02-27 11:05:16.480
16.0, -3857.754630774812, -6643.497245728641, -1512.900175201914, -10303.03660667379, -1073.174306532658, 891.991065977939, -5801.752901286233, -3504.9993997811557, -5132.228747871965, -8565.07671655139, -3903.8886313305657, -2478.853163582464, -5165.532847110373, -4210.107530368273, -11656.814713098373, -14467.971261497887, 0.014, -0.106, 0.986, 192.0, 0.0, 0.0, 0.0, 0.0, 0.0, 0.0, 0.0, 0.0, 0.0, 1.645920316488946E9, 0.0, 2022-02-27 11:05:16.488
18.0, -3894.679712614979, -6719.0237902431245, -1553.9826815107683, -10284.864638431625, -1081.5562107033982, 854.1048591261934, -5786.106680167518, -3386.8927820793133, -2606.101644766527, -7697.6502177298335, -3889.3376456901606, -2159.6255492717683, -5183.794222330359, -4098.728787747477, -11061.118371619985, -13311.20143070238, 0.016, -0.106, 0.996, 192.0, 0.0, 64.0, 126.0, 88.0, 15.5, 16.0, 0.0, 0.0, 0.0, 1.645920316496909E9, 0.0, 2022-02-27 11:05:16.496
20.0, -3645.1224857714756, -6542.042677646003, -1446.2472732361882, -10166.378041074044, -880.3681588611793, 1034.5057886249767, -5808.905459511931, -3464.2745213835865, -4817.471482452332, -8266.077430972748, -3889.3376456901606, -2531.782094452631, -5162.8059342868255, -4180.357358498259, -11638.553337878388, -14189.312063373574, 0.016, -0.106, 0.996, 192.0, 0.0, 0.0, 0.0, 0.0, 0.0, 0.0, 0.0, 0.0, 0.0, 1.645920316504039E9, 0.0, 2022-02-27 11:05:16.504
22.0, -4009.4112169040704, -6748.304575479577, -1580.8047748571366, -10368.19194176101, -1185.335360209389, 793.7551490968644, -5787.134860412462, -3467.023785951589, -3810.748912185301, -8233.712105001463, -3919.2666315158167, -2263.2929400554826, -5183.682463608082, -4148.617881371722, -11309.289790307259, -13936.066798694945, 0.016, -0.106, 0.996, 192.0, 0.0, 0.0, 0.0, 0.0, 0.0, 0.0, 0.0, 0.0, 0.0, 1.645920316510552E9, 0.0, 2022-02-27 11:05:16.510
24.0, -3667.8318581380677, -6584.510992111086, -1467.8390583800149, -10167.361517830077, -888.9065252431066, 998.0947969072815, -5817.19795670485, -3392.48071819314, -3220.1264166982673, -7720.538404052068, -3870.226904180873, -2327.4200948977586, -5153.932291738069, -4111.29046813136, -11259.020717027273, -13471.418734958022, 0.016, -0.106, 0.996, 192.0, 0.0, 0.0, 0.0, 0.0, 0.0, 0.0, 0.0, 0.0, 0.0, 1.645920316518556E9, 0.0, 2022-02-27 11:05:16.518
26.0, -3853.396040606027, -6640.747981160639, -1505.479396042752, -10301.539039795285, -1067.4746116965548, 896.7743392913746, -5795.829689005576, -3509.2238794832087, -5158.961434240513, -8583.092222582367, -3912.941087834965, -2497.427463224824, -5166.471620377496, -4214.1755478591385, -11663.631995157242, -14474.922654023489, 0.016, -0.106, 0.996, 192.0, 0.0, 0.0, 0.0, 0.0, 0.0, 0.0, 0.0, 0.0, 0.0, 1.64592031652669E9, 0.0, 2022-02-27 11:05:16.526
28.0, -3905.3191429757053, -6729.909089792859, -1544.6620040729051, -10295.36995832562, -1075.1636117891803, 839.1515420855931, -5799.04834020714, -3401.5331746975394, -2617.165758271904, -7714.637543515867, -3885.6719595994905, -2171.6284360442683, -5165.264626176909, -4107.647133785144, -11058.346755307526, -13330.513337911767, 0.018000000000000002, -0.112, 0.99, 192.0, 0.0, 72.0, 126.0, 64.0, 15.0, 120.0, 0.0, 0.0, 0.0, 1.645920316533653E9, 0.0, 2022-02-27 11:05:16.533
30.0, -3659.204084778319, -6557.890064464816, -1444.57089240204, -10172.837695221628, -883.6762170405647, 1031.1530269566808, -5802.177584430884, -3454.1715328897876, -4772.298606908155, -8258.902521002594, -3882.3862531645605, -2525.9929926387063, -5144.723373022482, -4177.92101835263, -11623.48826211551, -14176.213941122764, 0.018000000000000002, -0.112, 0.99, 192.0, 0.0, 0.0, 0.0, 0.0, 0.0, 0.0, 0.0, 0.0, 0.0, 1.645920316541275E9, 0.0, 2022-02-27 11:05:16.541
32.0, -4053.3100430142936, -6794.907962668892, -1582.4588039468294, -10378.29493025481, -1197.4723574486206, 791.6317333736102, -5773.902627694921, -3431.3056983120086, -3869.913979758499, -8273.744079320917, -3930.800131654755, -2280.526135030524, -5185.135326997677, -4163.660605390144, -11316.755272955332, -13957.993860005601, 0.018000000000000002, -0.112, 0.99, 192.0, 0.0, 0.0, 0.0, 0.0, 0.0, 0.0, 0.0, 0.0, 0.0, 1.645920316549293E9, 0.0, 2022-02-27 11:05:16.549
34.0, -3711.64127727047, -6635.942356102748, -1466.542657201607, -10169.1496573865, -893.5109846008999, 995.3008288503682, -5811.878241524487, -3386.445747190207, -3187.2917040934212, -7734.061209447528, -3882.073328742186, -2331.465760644169, -5153.284091148865, -4115.067912944307, -11244.447379642414, -13455.660755117031, 0.018000000000000002, -0.112, 0.99, 192.0, 0.0, 0.0, 0.0, 0.0, 0.0, 0.0, 0.0, 0.0, 0.0, 1.645920316556295E9, 0.0, 2022-02-27 11:05:16.556
36.0, -3908.0907592881636, -6703.04229295758, -1506.9099076878915, -10297.001635670858, -1060.657329637686, 908.6654673415981, -5792.298113381638, -3498.5844491224825, -5183.16837348561, -8605.533374015497, -3920.2724600163056, -2509.787977908609, -5159.430820874074, -4208.229983834027, -11671.365698738779, -14482.254026204828, 0.018000000000000002, -0.112, 0.99, 192.0, 0.0, 0.0, 0.0, 0.0, 0.0, 0.0, 0.0, 0.0, 0.0, 1.645920316563772E9, 0.0, 2022-02-27 11:05:16.563
38.0, -4004.091501723707, -6826.200404906322, -1556.7095943343156, -10301.60609502865, -1090.429853252155, 857.7705452168639, -5767.957063669809, -3373.1017557503887, -2656.929511657895, -7762.090296994484, -3910.7729686228004, -2189.7780525419776, -5176.842829804758, -4104.137909905661, -11058.480865774258, -13330.602744889587, 0.02, -0.11, 0.99, 192.0, 0.0, 80.0, 126.0, 72.0, 15.0, 120.0, 0.0, 0.0, 0.0, 1.645920316578967E9, 0.0, 2022-02-27 11:05:16.578
40.0, -3769.0852605206087, -6680.601141524451, -1443.833284835015, -10172.301253354699, -865.7724697318638, 1046.0392887639152, -5789.057110435619, -3452.428096822274, -4770.488115607276, -8281.678948602552, -3911.979962823387, -2558.5371325656333, -5142.577605554772, -4184.939466111597, -11613.20645966607, -14152.878719911423, 0.02, -0.11, 0.99, 192.0, 0.0, 0.0, 0.0, 0.0, 0.0, 0.0, 0.0, 0.0, 0.0, 1.645920316585925E9, 0.0, 2022-02-27 11:05:16.585
42.0, -4195.243620305493, -6947.346859854086, -1583.7105016363266, -10383.05585182379, -1171.0525955024477, 801.1088730226604, -5764.336081068049, -3436.468951281184, -3960.907931436054, -8333.847920161239, -3966.317053594238, -2322.770932051055, -5171.590169857761, -4162.587721656289, -11321.71736022441, -13972.701307857193, 0.02, -0.11, 0.99, 192.0, 0.0, 0.0, 0.0, 0.0, 0.0, 0.0, 0.0, 0.0, 0.0, 1.645920316593354E9, 0.0, 2022-02-27 11:05:16.593
44.0, -3915.578593680691, -6840.214948679799, -1485.7204539442605, -10184.125326171557, -882.245705395425, 1005.2026516440692, -5779.423508575382, -3373.1241074948443, -3211.878622994259, -7780.642244892389, -3938.422076514015, -2379.477307734169, -5151.473599847985, -4112.698628032044, -11229.136434690528, -13428.503385603832, 0.02, -0.11, 0.99, 192.0, 0.0, 0.0, 0.0, 0.0, 0.0, 0.0, 0.0, 0.0, 0.0, 1.645920316601588E9, 0.0, 2022-02-27 11:05:16.601
46.0, -4100.651037770634, -6896.094309818067, -1513.0119339241903, -10304.936504952491, -1031.82357929034, 932.8724065866955, -5781.368110342993, -3472.5893703209604, -5282.633636311726, -8661.077458986934, -3984.3772631141264, -2575.1221269514713, -5161.263663919409, -4210.733379213021, -11668.974062082061, -14463.72443005138, 0.02, -0.11, 0.99, 192.0, 0.0, 80.0, 126.0, 72.0, 15.0, 120.0, 0.0, 0.0, 0.0, 1.645920316609507E9, 0.0, 2022-02-27 11:05:16.609
48.0, -4200.0939488522945, -7017.3301717436525, -1568.4666119178073, -10324.47192960643, -1075.1636117891803, 857.8376004502297, -5765.453668290815, -3358.8860462768134, -2742.603748155087, -7827.893832670908, -3970.2733123628277, -2249.278396282005, -5171.500762879939, -4100.092244159251, -11060.783095453155, -13327.16057624347, 0.02, -0.11, 0.99, 192.0, 0.0, 0.0, 0.0, 0.0, 0.0, 0.0, 0.0, 0.0, 0.0, 1.645920316616168E9, 0.0, 2022-02-27 11:05:16.616
50.0, -3910.7059133894345, -6810.688294254339, -1444.4591336797637, -10186.15933491699, -851.377946302646, 1046.8663033087616, -5788.073633679585, -3438.838236193447, -4796.594953131074, -8312.390245484143, -3961.489076791892, -2609.588516901555, -5150.579530069773, -4173.0930415502835, -11607.596171807787, -14123.285010252597, 0.02, -0.11, 0.99, 192.0, 0.0, 0.0, 0.0, 0.0, 0.0, 0.0, 0.0, 0.0, 0.0, 1.645920316624102E9, 0.0, 2022-02-27 11:05:16.624
52.0, -4272.871228798775, -7007.316590227675, -1575.59681839905, -10389.001415848901, -1165.5317146219868, 807.0320853033168, -5767.375918313971, -3434.4572942802065, -4063.7930111638325, -8377.187952660079, -3991.775690528833, -2371.1848105412496, -5177.64749260515, -4162.2300937450045, -11332.692066751966, -13995.433031968241, 0.02, -0.11, 0.99, 192.0, 0.0, 0.0, 0.0, 0.0, 0.0, 0.0, 0.0, 0.0, 0.0, 1.645920316631336E9, 0.0, 2022-02-27 11:05:16.631
54.0, -3924.6310501850908, -6839.812617279604, -1477.6291224514393, -10187.746308773316, -878.0659291822826, 1002.7439597539855, -5788.364206357504, -3366.3962324137965, -3190.353893083798, -7771.992119788185, -3939.6290707146018, -2381.6007234574226, -5153.775829526881, -4106.462491329014, -11216.083015928629, -13412.298370873736, 0.02, -0.11, 0.99, 192.0, 0.0, 0.0, 0.0, 0.0, 0.0, 0.0, 0.0, 0.0, 0.0, 1.645920316639255E9, 0.0, 2022-02-27 11:05:16.639
56.0, -4054.0476505813185, -6846.138160960456, -1510.8214629675704, -10296.912228693036, -1026.5262158544322, 926.3456972057459, -5793.929790726876, -3485.64278908286, -5295.374130651251, -8666.732450334126, -3980.063376434252, -2583.4593276333007, -5162.6941755645485, -4207.537079755912, -11677.445373230621, -14472.642776089047, 0.017, -0.11, 0.99, 192.0, 0.0, 56.0, 126.0, 72.0, 15.0, 120.0, 0.0, 0.0, 0.0, 1.645920316645702E9, 0.0, 2022-02-27 11:05:16.645
58.0, -4131.027058485396, -6934.516958536739, -1570.634731129972, -10315.128900424112, -1085.2666002829792, 847.7793154453416, -5787.313674368104, -3361.4788486336292, -2744.481294689333, -7827.893832670908, -3958.493943034881, -2240.1588845442398, -5169.578512856783, -4095.063101656807, -11066.371031566981, -13345.511358441277, 0.017, -0.11, 0.99, 192.0, 0.0, 0.0, 0.0, 0.0, 0.0, 0.0, 0.0, 0.0, 0.0, 1.645920316653897E9, 0.0, 2022-02-27 11:05:16.653
60.0, -3824.718752469868, -6719.292011176588, -1456.126744285434, -10179.565570302675, -854.8201149487633, 1043.2229689625465, -5790.57702905858, -3436.6254134923715, -4735.574690768086, -8276.180419466546, -3948.078030118708, -2593.137632982449, -5150.534826580862, -4171.34960548277, -11600.667131026643, -14103.235495476187, 0.017, -0.11, 0.99, 192.0, 0.0, 0.0, 0.0, 0.0, 0.0, 0.0, 0.0, 0.0, 0.0, 1.645920316661944E9, 0.0, 2022-02-27 11:05:16.661
62.0, -4189.2310010470155, -6917.596687984073, -1594.796966886159, -10396.176325819055, -1167.1633919672242, 803.8804893351185, -5780.719909753789, -3439.1064571269108, -4085.831831196765, -8380.652473050652, -3977.5376293108025, -2360.7465458806214, -5175.8370013042695, -4163.772364112421, -11359.312994398237, -14022.277477059064, 0.017, -0.11, 0.99, 192.0, 0.0, 0.0, 0.0, 0.0, 0.0, 0.0, 0.0, 0.0, 0.0, 1.645920316668393E9, 0.0, 2022-02-27 11:05:16.668
64.0, -3851.6079010496023, -6755.658299405372, -1488.7826429346376, -10202.207887435901, -894.3379991457462, 986.6060002572538, -5786.62077028999, -3378.197953486199, -3124.6397643851956, -7754.133075968394, -3924.4298844849927, -2363.115830792884, -5162.425954631085, -4110.888136731164, -11220.5980683086, -13408.252705127325, 0.017, -0.11, 0.99, 192.0, 0.0, 0.0, 0.0, 0.0, 0.0, 0.0, 0.0, 0.0, 0.0, 1.645920316676356E9, 0.0, 2022-02-27 11:05:16.676
66.0, -3961.9137599365426, -6744.236557988711, -1504.6523814979055, -10296.062862403734, -1020.9159279961501, 932.5818339087766, -5790.845249992043, -3495.3657979209183, -5282.6112845672715, -8630.746141761081, -3953.978890654909, -2565.5332285801446, -5165.555198854828, -4212.45446353608, -11691.571675726376, -14484.668014606003, 0.013500000000000002, -0.109, 0.991, 192.0, 0.0, 40.0, 126.0, 80.0, 15.5, 0.0, 0.0, 0.0, 0.0, 1.645920316684568E9, 0.0, 2022-02-27 11:05:16.684
68.0, -4064.1506390751174, -6856.822294810092, -1573.9427893093575, -10327.981153485913, -1095.302533543412, 840.0679636082607, -5797.237848906261, -3377.9744360416457, -2747.2305592573357, -7818.729617444232, -3937.5280067358026, -2209.6934568516563, -5170.830210546281, -4104.9425727060525, -11077.748069494733, -13367.63958545203, 0.013500000000000002, -0.109, 0.991, 192.0, 0.0, 0.0, 0.0, 0.0, 0.0, 0.0, 0.0, 0.0, 0.0, 1.645920316691471E9, 0.0, 2022-02-27 11:05:16.691
70.0, -3751.8967690344775, -6647.162931819312, -1448.124819770434, -10178.984424946837, -858.3963940616125, 1027.2638234214573, -5809.441901378858, -3442.8615501954023, -4675.06851852757, -8239.277689370834, -3931.3812770105933, -2562.873370989963, -5150.221902158488, -4193.321370282337, -11602.164697905147, -14094.115983738422, 0.013500000000000002, -0.109, 0.991, 192.0, 0.0, 0.0, 0.0, 0.0, 0.0, 0.0, 0.0, 0.0, 0.0, 1.64592031670614E9, 0.0, 2022-02-27 11:05:16.706
72.0, -4116.632535056178, -6840.818445780093, -1576.602646899539, -10393.695282184515, -1176.8416973163721, 797.0185037873392, -5797.550773328635, -3438.055925137511, -4121.7287327919885, -8374.081060180792, -3962.9195884370315, -2340.0041270260963, -5177.312216438319, -4190.885030136708, -11376.456782395457, -14052.072352417988, 0.013500000000000002, -0.109, 0.991, 192.0, 0.0, 0.0, 0.0, 0.0, 0.0, 0.0, 0.0, 0.0, 0.0, 1.645920316714122E9, 0.0, 2022-02-27 11:05:16.714
74.0, -3788.9336095969215, -6689.653598028851, -1480.1325178304337, -10200.352692646109, -894.7850340348523, 977.3747297972119, -5794.935619227364, -3350.839418272903, -3064.89355145616, -7731.557814068534, -3907.330799976683, -2335.086743245929, -5155.698079550038, -4116.297258889349, -11208.50577455828, -13390.348957818624, 0.013500000000000002, -0.109, 0.991, 192.0, 0.0, 0.0, 0.0, 0.0, 0.0, 0.0, 0.0, 0.0, 0.0, 1.645920316720977E9, 0.0, 2022-02-27 11:05:16.720
76.0, -3896.1325760045743, -6682.836315969982, -1491.1295761024448, -10292.665397246528, -1009.6730005351307, 932.0900955307599, -5809.106625212029, -3477.149126189843, -5263.969929691545, -8617.536260787996, -3934.264652045328, -2555.653757530899, -5148.612576557705, -4218.601193261289, -11688.55419022491, -14483.8186483167, 0.013750000000000002, -0.1095, 0.9904999999999999, 192.0, 0.0, 56.0, 126.0, 72.0, 15.0, 120.0, 0.0, 0.0, 0.0, 1.645920316728717E9, 0.0, 2022-02-27 11:05:16.728
78.0, -4005.3431994132043, -6791.622256233962, -1563.3257106930866, -10319.263973148343, -1102.3433330468338, 846.0805828667383, -5801.9764187307865, -3356.2708921755425, -2732.6572218724755, -7805.6538469378775, -3914.170433780007, -2191.990875243053, -5160.4590011190185, -4104.272020372394, -11076.138743893951, -13379.620120480076, 0.013750000000000002, -0.1095, 0.9904999999999999, 192.0, 0.0, 0.0, 0.0, 0.0, 0.0, 0.0, 0.0, 0.0, 0.0, 1.64592031673681E9, 0.0, 2022-02-27 11:05:16.736
80.0, -3691.167079349408, -6585.785041545038, -1435.2725667086324, -10163.248796850301, -851.7579259583862, 1052.2307219780353, -5820.774235817699, -3425.9189278982794, -4589.796613430573, -8196.809374905752, -3898.881840572577, -2528.2505188286923, -5141.661184032105, -4162.095983278273, -11589.446555310078, -14064.16464616831, 0.013750000000000002, -0.1095, 0.9904999999999999, 192.0, 0.0, 0.0, 0.0, 0.0, 0.0, 0.0, 0.0, 0.0, 0.0, 1.645920316744713E9, 0.0, 2022-02-27 11:05:16.744
82.0, -4059.2109035504945, -6778.837058405526, -1560.2411699582542, -10378.205523276989, -1158.9379500076711, 826.1651785570597, -5792.655741292923, -3423.7284569416593, -4131.228224185494, -8371.778830501895, -3934.711686934434, -2324.424961140747, -5164.929350010079, -4164.06293679034, -11387.744413345386, -14066.0198409581, 0.013750000000000002, -0.1095, 0.9904999999999999, 192.0, 0.0, 0.0, 0.0, 0.0, 0.0, 0.0, 0.0, 0.0, 0.0, 1.645920316751379E9, 0.0, 2022-02-27 11:05:16.751
84.0, -3746.398239898472, -6643.564300962008, -1469.8507153809924, -10192.06019545319, -899.5906590927433, 983.6108665002427, -5795.852040750032, -3348.7607060385594, -2994.932591311049, -7700.131261364372, -3884.263799698806, -2303.526080075035, -5138.1519601526215, -4103.199136638539, -11191.093765627595, -13368.578358719154, 0.013750000000000002, -0.1095, 0.9904999999999999, 192.0, 0.0, 0.0, 0.0, 0.0, 0.0, 0.0, 0.0, 0.0, 0.0, 1.645920316758463E9, 0.0, 2022-02-27 11:05:16.758
86.0, -3846.914034713988, -6645.039516096058, -1479.9090003858805, -10284.216437842422, -1010.8799947357172, 942.4836567024776, -5814.985134003775, -3470.287140642064, -5255.878598198724, -8604.75106295956, -3918.484320459881, -2534.754876465187, -5142.0858671767555, -4210.845137935297, -11692.64455946023, -14480.264720948306, 0.014875000000000001, -0.11175, 0.98825, 192.0, 0.0, 64.0, 126.0, 56.0, 15.0, 104.0, 0.0, 0.0, 0.0, 1.645920316766666E9, 0.0, 2022-02-27 11:05:16.766
88.0, -3973.134335653107, -6758.564026184563, -1551.859265787514, -10328.249374419376, -1113.072170385381, 846.3935072891126, -5796.6343518059675, -3363.0211190010455, -2741.843788843607, -7813.588716219511, -3901.9887330518645, -2174.444755845637, -5155.832190016769, -4100.695741259545, -11077.05516541662, -13383.621082737576, 0.014875000000000001, -0.11175, 0.98825, 192.0, 0.0, 0.0, 0.0, 0.0, 0.0, 0.0, 0.0, 0.0, 0.0, 1.645920316773431E9, 0.0, 2022-02-27 11:05:16.773
90.0, -3653.4820381977606, -6550.044602161003, -1426.8906625378922, -10168.277939352743, -866.957112187995, 1061.6855098826302, -5818.784930561177, -3434.546701258028, -4536.80062732704, -8168.4673629364215, -3880.4863548858593, -2518.393399523902, -5135.82737872927, -4164.688785635089, -11578.136572615693, -14039.085988889456, 0.014875000000000001, -0.11175, 0.98825, 192.0, 0.0, 0.0, 0.0, 0.0, 0.0, 0.0, 0.0, 0.0, 0.0, 1.645920316781045E9, 0.0, 2022-02-27 11:05:16.781
92.0, -4020.743551342911, -6742.224900987733, -1557.6930710903491, -10379.211351777478, -1173.7348048370845, 822.2536232773809, -5810.090101968062, -3448.7847624760584, -4175.529381695912, -8375.109240425736, -3914.3492477356494, -2321.206309939183, -5165.912826766113, -4159.905512321653, -11405.201125764981, -14086.158762712332, 0.014875000000000001, -0.11175, 0.98825, 192.0, 0.0, 0.0, 0.0, 0.0, 0.0, 0.0, 0.0, 0.0, 0.0, 1.645920316788951E9, 0.0, 2022-02-27 11:05:16.788
94.0, -3733.3895246254833, -6630.443826966743, -1480.8254219085482, -10198.028111222759, -917.0473715123381, 982.8732589332175, -5826.29511669816, -3371.2689127050535, -2958.566303082264, -7682.674548944778, -3869.578703591669, -2288.505707801069, -5143.404620099619, -4102.52858430488, -11197.575771519634, -13360.397620248512, 0.014875000000000001, -0.11175, 0.98825, 192.0, 0.0, 0.0, 0.0, 0.0, 0.0, 0.0, 0.0, 0.0, 0.0, 1.645920316797048E9, 0.0, 2022-02-27 11:05:16.797
96.0, -3830.463150794882, -6627.35928623191, -1485.5639917330734, -10288.843248944671, -1015.886785493706, 936.9180723331061, -5832.173625489906, -3486.4698036277064, -5269.1108309162655, -8595.408033777241, -3915.9809250808867, -2541.527455035145, -5162.940044753557, -4220.1658153731605, -11718.729045239574, -14486.366747184606, 0.013437500000000002, -0.110875, 0.9881249999999999, 192.0, 0.0, 48.0, 126.0, 72.0, 15.0, 112.0, 0.0, 0.0, 0.0, 1.645920316803629E9, 0.0, 2022-02-27 11:05:16.803
98.0, -3972.5308385528137, -6751.791447614604, -1556.3966699119414, -10338.397066402087, -1111.0381616399482, 826.8804343796295, -5795.807337261122, -3377.9744360416457, -2769.291731034724, -7832.565347262067, -3900.0441312842527, -2177.7304622805673, -5169.31029192332, -4128.791884039865, -11094.467174347303, -13408.252705127325, 0.013437500000000002, -0.110875, 0.9881249999999999, 192.0, 0.0, 0.0, 0.0, 0.0, 0.0, 0.0, 0.0, 0.0, 0.0, 1.64592031681168E9, 0.0, 2022-02-27 11:05:16.811
100.0, -3653.4820381977606, -6548.658794004774, -1429.1481887278783, -10172.72593649935, -848.4498677790008, 1042.8429893068062, -5812.012351991219, -3414.9442213707234, -4504.3235426334795, -8164.399345445556, -3883.7050060874235, -2512.984277365718, -5143.739896266448, -4183.933637611108, -11573.554465002355, -14025.473776516174, 0.013437500000000002, -0.110875, 0.9881249999999999, 192.0, 0.0, 0.0, 0.0, 0.0, 0.0, 0.0, 0.0, 0.0, 0.0, 1.645920316826513E9, 0.0, 2022-02-27 11:05:16.826
102.0, -4019.5365571423245, -6744.929462066825, -1551.9710245097906, -10382.34059600122, -1170.069118746414, 811.994172572395, -5811.699427568845, -3449.3435560874414, -4241.779952261442, -8402.110147727746, -3917.0538088147414, -2332.4045339112918, -5169.69027157906, -4190.952085370074, -11415.415872981057, -14113.65140839236, 0.013437500000000002, -0.110875, 0.9881249999999999, 192.0, 0.0, 0.0, 0.0, 0.0, 0.0, 0.0, 0.0, 0.0, 0.0, 1.645920316833339E9, 0.0, 2022-02-27 11:05:16.833
104.0, -3736.0270304712094, -6627.560451932008, -1475.796279406104, -10198.586904834141, -921.8082930813185, 983.5438112668767, -5826.317468442616, -3354.9074357637687, -2937.332145849722, -7683.099232089428, -3861.5320755877588, -2283.0071786650633, -5154.8263615162805, -4106.686008773567, -11184.522352757735, -13354.11678005657, 0.013437500000000002, -0.110875, 0.9881249999999999, 192.0, 0.0, 0.0, 0.0, 0.0, 0.0, 0.0, 0.0, 0.0, 0.0, 1.645920316841381E9, 0.0, 2022-02-27 11:05:16.841
106.0, -3824.5175867697703, -6616.317524470988, -1480.5795527195398, -10276.147458094056, -1000.0617504193486, 956.3193865203127, -5808.637238578468, -3466.9567307182233, -5280.465517099562, -8596.615027977829, -3908.783663366278, -2538.0852863890277, -5162.247140675443, -4223.518577041456, -11709.65423699072, -14481.67288084899, 0.014718750000000001, -0.1114375, 0.9900625, 192.0, 0.0, 64.0, 126.0, 64.0, 15.5, 0.0, 0.0, 0.0, 0.0, 1.645920316849228E9, 0.0, 2022-02-27 11:05:16.849
108.0, -3976.0847659212072, -6746.38232545642, -1556.217855956299, -10335.267822178343, -1107.1266063602695, 832.3566117711797, -5790.0629389361075, -3357.9249212652353, -2801.902926195017, -7850.714963759776, -3907.844890099155, -2178.512773336503, -5171.634873346672, -4127.316668905815, -11089.438031844858, -13422.736635534364, 0.014718750000000001, -0.1114375, 0.9900625, 192.0, 0.0, 0.0, 0.0, 0.0, 0.0, 0.0, 0.0, 0.0, 0.0, 1.645920316857167E9, 0.0, 2022-02-27 11:05:16.857
110.0, -3634.0360205216434, -6529.257479817567, -1414.4407408762863, -10157.951433414393, -830.3226030257467, 1055.0023382904933, -5828.083256254585, -3433.093837868433, -4446.343117516412, -8133.688048563964, -3873.2890931712504, -2499.103844058972, -5130.6417740156385, -4170.008500815452, -11556.410677005135, -14001.646816926816, 0.014718750000000001, -0.1114375, 0.9900625, 192.0, 0.0, 0.0, 0.0, 0.0, 0.0, 0.0, 0.0, 0.0, 0.0, 1.645920316865291E9, 0.0, 2022-02-27 11:05:16.865
112.0, -4004.8514610351876, -6730.959621782258, -1545.377259895475, -10380.641863422617, -1153.5511795939422, 823.6617831780652, -5806.2008984328395, -3440.1346373718548, -4272.491249143034, -8407.698083841573, -3909.63302965558, -2334.0362112565294, -5150.803047514325, -4173.182448528105, -11421.249678283892, -14134.259716780152, 0.014718750000000001, -0.1114375, 0.9900625, 192.0, 0.0, 0.0, 0.0, 0.0, 0.0, 0.0, 0.0, 0.0, 0.0, 1.645920316871943E9, 0.0, 2022-02-27 11:05:16.871
114.0, -3737.1893211828856, -6627.918079843293, -1468.5319624581293, -10211.282695684755, -908.3301911747684, 975.4524797740555, -5796.656703550423, -3364.205761457177, -2895.377921507111, -7676.974854108675, -3865.8683140120884, -2273.5523907604684, -5136.408524085107, -4099.824023225788, -11168.876131639021, -13346.271317752758, 0.014718750000000001, -0.1114375, 0.9900625, 192.0, 0.0, 0.0, 0.0, 0.0, 0.0, 0.0, 0.0, 0.0, 0.0, 1.645920316878926E9, 0.0, 2022-02-27 11:05:16.878
116.0, -3801.18236555843, -6607.421530177776, -1470.9459508593025, -10281.221304085411, -985.9130961791392, 966.7129476920304, -5821.690657340367, -3466.219123151198, -5276.7998310088915, -8587.048481350957, -3906.2802679872834, -2548.769420238664, -5141.817646243292, -4218.601193261289, -11710.79417595794, -14485.807953573223, 0.016, -0.11, 0.986, 192.0, 0.0, 64.0, 126.0, 72.0, 15.0, 104.0, 0.0, 0.0, 0.0, 1.645920316885409E9, 0.0, 2022-02-27 11:05:16.885
118.0, -3971.2791408633166, -6744.840055089004, -1558.9224170353912, -10345.706086838973, -1113.876833185772, 841.9678618869617, -5799.137747184962, -3374.5993226288942, -2814.5540135567207, -7843.137722389427, -3898.5018609168364, -2184.123061194785, -5155.094582449745, -4111.446930342547, -11096.255313903728, -13436.974696752393, 0.016, -0.11, 0.986, 192.0, 0.0, 0.0, 0.0, 0.0, 0.0, 0.0, 0.0, 0.0, 0.0, 1.645920316893694E9, 0.0, 2022-02-27 11:05:16.893
120.0, -3633.276061210163, -6531.827930429928, -1429.2822991946102, -10160.164256115468, -824.4217424895457, 1064.8594575952839, -5821.802416062644, -3425.3377825424413, -4390.3296459114135, -8113.280905876269, -3877.401814151027, -2500.534355704112, -5121.946945422524, -4160.017271043929, -11542.887871609673, -13979.026851538045, 0.016, -0.11, 0.986, 192.0, 0.0, 0.0, 0.0, 0.0, 0.0, 0.0, 0.0, 0.0, 0.0, 1.645920316901493E9, 0.0, 2022-02-27 11:05:16.901
122.0, -4014.909746040076, -6740.973203298236, -1562.8339723150698, -10373.802229619292, -1144.7669440230065, 832.8930536381071, -5800.2776861521825, -3424.9578028867013, -4330.248156815548, -8419.790377591895, -3930.129579321096, -2347.603720140901, -5147.517341079395, -4173.271855505926, -11433.83371041223, -14146.08378959701, 0.016, -0.11, 0.986, 192.0, 0.0, 0.0, 0.0, 0.0, 0.0, 0.0, 0.0, 0.0, 0.0, 1.645920316908554E9, 0.0, 2022-02-27 11:05:16.908
124.0, -3742.620795085525, -6627.247527509633, -1485.0499016106012, -10199.436271123443, -910.1406824756483, 981.0851193767929, -5809.53130835668, -3354.326290407931, -2872.825011351706, -7671.56573195049, -3883.1015089871303, -2277.598056506879, -5136.54263455184, -4101.701569760033, -11158.080239067107, -13320.67857035143, 0.016, -0.11, 0.986, 192.0, 0.0, 0.0, 0.0, 0.0, 0.0, 0.0, 0.0, 0.0, 0.0, 1.64592031691615E9, 0.0, 2022-02-27 11:05:16.916
126.0, -3791.079377064631, -6604.02406502057, -1477.4950119847074, -10262.736411420872, -981.7109682215415, 976.1230321077147, -5828.686753354878, -3473.2375709101643, -5268.596740793793, -8575.98436784558, -3908.671904644001, -2548.5682545385666, -5139.694230520038, -4212.029780391429, -11712.671722492185, -14465.400810885527, 0.01, -0.108, 0.988, 192.0, 0.0, 40.0, 126.0, 80.0, 15.0, 112.0, 0.0, 0.0, 0.0, 1.645920316924228E9, 0.0, 2022-02-27 11:05:16.924
128.0, -3970.3850710851043, -6747.566967912551, -1562.7445653372486, -10333.390275644097, -1113.0498186409259, 847.0640596227718, -5801.57408733059, -3375.314578451464, -2832.5695195876983, -7863.678975543854, -3898.4795091723813, -2185.4865176065587, -5150.691288792049, -4103.62381978319, -11099.518668594203, -13437.75700780833, 0.01, -0.108, 0.988, 192.0, 0.0, 0.0, 0.0, 0.0, 0.0, 0.0, 0.0, 0.0, 0.0, 1.645920316932076E9, 0.0, 2022-02-27 11:05:16.932
130.0, -3630.504444897705, -6536.678258976729, -1431.8527498069705, -10158.957261914882, -833.2059780604814, 1069.9333035866384, -5813.107587469529, -3407.9257736117574, -4342.7874854549755, -8089.968036409383, -3877.066537984197, -2496.8910213578965, -5122.237518100443, -4143.521683635912, -11534.014229060916, -13939.352505129875, 0.01, -0.108, 0.988, 192.0, 0.0, 0.0, 0.0, 0.0, 0.0, 0.0, 0.0, 0.0, 0.0, 1.645920316940211E9, 0.0, 2022-02-27 11:05:16.940
132.0, -3991.9321527400202, -6719.09084547649, -1549.9817192532682, -10378.741965143916, -1144.9904614675595, 839.732687441431, -5810.000694990242, -3462.4640300827064, -4371.040090446483, -8429.960421319058, -3913.3434192351606, -2357.4161359567806, -5144.164579411099, -4158.25148323196, -11446.082466373738, -14168.27907184113, 0.01, -0.108, 0.988, 192.0, 0.0, 0.0, 0.0, 0.0, 0.0, 0.0, 0.0, 0.0, 0.0, 1.645920316955162E9, 0.0, 2022-02-27 11:05:16.955
134.0, -3737.748114794268, -6623.268916996589, -1487.352131289498, -10213.383759663553, -921.7188861034973, 983.8120322003404, -5824.417570163914, -3351.509970606562, -2833.4859411103657, -7664.971967336174, -3864.8624855115995, -2268.1879720911948, -5122.170462867077, -4088.670502742589, -11155.77800938821, -13315.135337726515, 0.01, -0.108, 0.988, 192.0, 0.0, 0.0, 0.0, 0.0, 0.0, 0.0, 0.0, 0.0, 0.0, 1.645920316963236E9, 0.0, 2022-02-27 11:05:16.963
136.0, -3777.0201298022425, -6592.311750925988, -1471.1918200483108, -10265.932710877982, -978.2911513198795, 981.1074711212482, -5830.5642998891235, -3478.6690448128043, -5268.730851260526, -8565.099068295845, -3898.0771777721857, -2541.326289335047, -5127.668992003083, -4199.535155240912, -11715.689207993652, -14464.685555062957, 0.012, -0.106, 0.99, 192.0, 0.0, 48.0, 126.0, 88.0, 15.0, 120.0, 0.0, 0.0, 0.0, 1.645920316969439E9, 0.0, 2022-02-27 11:05:16.969
138.0, -3973.6260740311236, -6745.823531845037, -1559.3023966911312, -10349.662345607561, -1127.4443420701436, 838.2351205629254, -5815.521575870702, -3394.6711891497603, -2865.5159909148206, -7879.705176318309, -3896.4007969380377, -2178.9374564811537, -5145.237463144954, -4105.613125039712, -11104.637218074467, -13463.506217420843, 0.012, -0.106, 0.99, 192.0, 0.0, 0.0, 0.0, 0.0, 0.0, 0.0, 0.0, 0.0, 0.0, 1.645920316976485E9, 0.0, 2022-02-27 11:05:16.976
140.0, -3624.8718052949675, -6533.973697897637, -1430.8469213064816, -10170.088430653625, -843.4654287654673, 1068.726309386052, -5846.456390196847, -3421.448579007218, -4289.590333651345, -8072.578379223154, -3871.7244710593786, -2491.3477887329805, -5118.214204098488, -4140.705363834544, -11528.493348180456, -13928.42250209123, 0.012, -0.106, 0.99, 192.0, 0.0, 0.0, 0.0, 0.0, 0.0, 0.0, 0.0, 0.0, 0.0, 1.645920316984358E9, 0.0, 2022-02-27 11:05:16.984
142.0, -3988.9146672385536, -6721.95186876677, -1554.1391437219554, -10381.893561112114, -1156.2780924174897, 833.317736782758, -5819.500186383747, -3462.2628643826088, -4418.179919502726, -8445.405476737677, -3916.8973466035545, -2363.6075691709007, -5142.44349508804, -4174.925884595619, -11466.89194046163, -14193.04480469761, 0.012, -0.106, 0.99, 192.0, 0.0, 0.0, 0.0, 0.0, 0.0, 0.0, 0.0, 0.0, 0.0, 1.64592031699097E9, 0.0, 2022-02-27 11:05:16.990
144.0, -3744.543045108682, -6628.83450136596, -1493.1412331034223, -10222.346809190132, -936.3369269772681, 967.4282035146003, -5816.169776459906, -3365.9268457802355, -2803.6463622625306, -7653.192598008228, -3869.042261724742, -2264.3658237893374, -5130.373553082175, -4092.4926510444466, -11155.800361132666, -13320.700922095886, 0.012, -0.106, 0.99, 192.0, 0.0, 0.0, 0.0, 0.0, 0.0, 0.0, 0.0, 0.0, 0.0, 1.645920316999094E9, 0.0, 2022-02-27 11:05:16.999
146.0, -3763.5196761512375, -6582.700500810207, -1474.321064272054, -10266.625614956096, -979.8334216872958, 975.3183693073237, -5834.520558657713, -3471.7176522872037, -5263.791115735903, -8557.097143780846, -3903.463948185915, -2557.240731387226, -5134.0615909173, -4211.202765846582, -11724.473443564588, -14474.609729601114, 0.012, -0.10400000000000001, 0.99, 192.0, 0.0, 48.0, 126.0, 96.0, 15.0, 120.0, 0.0, 0.0, 0.0, 1.645920317006162E9, 0.0, 2022-02-27 11:05:17.006
148.0, -3974.2966263647827, -6748.438685946308, -1571.372338696997, -10359.38535444562, -1146.7115457906182, 811.9494690834844, -5826.228061464794, -3391.8548693483913, -2899.848270398172, -7879.973397251773, -3901.6758086294903, -2183.7207297945893, -5159.6990418075375, -4114.062084443818, -11126.25135496275, -13496.3856335146, 0.012, -0.10400000000000001, 0.99, 192.0, 0.0, 0.0, 0.0, 0.0, 0.0, 0.0, 0.0, 0.0, 0.0, 1.645920317014022E9, 0.0, 2022-02-27 11:05:17.014
150.0, -3619.373276158962, -6531.023267629536, -1435.6748981088278, -10169.86491320907, -854.5965975042102, 1046.307509697379, -5841.024916294207, -3426.8800529098576, -4239.455370838091, -8055.92632960395, -3872.886761771055, -2481.982407806207, -5131.44643681603, -4163.325329223315, -11529.365066214212, -13924.80151948947, 0.012, -0.10400000000000001, 0.99, 192.0, 0.0, 0.0, 0.0, 0.0, 0.0, 0.0, 0.0, 0.0, 0.0, 1.645920317020621E9, 0.0, 2022-02-27 11:05:17.020
152.0, -3985.941885225998, -6719.694342576783, -1554.5861786110615, -10381.155953545089, -1171.1196507358136, 823.4829692224228, -5832.844177823566, -3462.6204922938937, -4459.374184533856, -8457.38601176572, -3917.1879192814736, -2361.8417813589313, -5157.374460384186, -4177.362224741248, -11488.12609769417, -14228.539374892638, 0.012, -0.10400000000000001, 0.99, 192.0, 0.0, 0.0, 0.0, 0.0, 0.0, 0.0, 0.0, 0.0, 0.0, 1.645920317028771E9, 0.0, 2022-02-27 11:05:17.028
154.0, -3753.886074291, -6643.296080028544, -1496.5163465161738, -10230.035809282757, -961.7508604229523, 943.9588718365279, -5837.58274764809, -3376.7227383521486, -2774.4996874928106, -7650.778609607055, -3879.7710990632895, -2263.1364778442953, -5146.735030023459, -4094.6607702566116, -11151.39706747497, -13317.30345693868, 0.012, -0.10400000000000001, 0.99, 192.0, 0.0, 0.0, 0.0, 0.0, 0.0, 0.0, 0.0, 0.0, 0.0, 1.645920317036706E9, 0.0, 2022-02-27 11:05:17.036
156.0, -3755.8977312919774, -6585.025082233558, -1467.9061136133807, -10265.798600411248, -984.3484740672677, 958.9568923660389, -5854.704183900855, -3488.4367571397734, -5255.23039760952, -8553.140885012255, -3905.5650121647136, -2565.108545435494, -5141.236500887454, -4210.30869606837, -11730.821338989896, -14479.638872103558, 0.012, -0.11, 0.992, 192.0, 0.0, 48.0, 126.0, 72.0, 15.5, 0.0, 0.0, 0.0, 0.0, 1.645920317043673E9, 0.0, 2022-02-27 11:05:17.043
158.0, -3970.250960618372, -6732.434836916308, -1567.9301700508797, -10363.073392280745, -1152.7018133046406, 812.8435388616966, -5830.474892911303, -3387.8315553464363, -2928.3467445786887, -7901.5651823956, -3899.194764994951, -2192.1696891986953, -5160.414297630107, -4103.914392461109, -11131.146386998462, -13519.922020426038, 0.012, -0.11, 0.992, 192.0, 0.0, 0.0, 0.0, 0.0, 0.0, 0.0, 0.0, 0.0, 0.0, 1.64592031705136E9, 0.0, 2022-02-27 11:05:17.051
160.0, -3604.5540695850937, -6517.366351767344, -1427.740028827194, -10161.885340438526, -854.3730800596571, 1042.4183061621554, -5856.917006601931, -3427.327087798964, -4177.295169507882, -8016.542555873699, -3867.008252979309, -2469.8677623114304, -5127.512529791896, -4135.363296909725, -11513.249458461936, -13900.527525011006, 0.012, -0.11, 0.992, 192.0, 0.0, 0.0, 0.0, 0.0, 0.0, 0.0, 0.0, 0.0, 0.0, 1.645920317059367E9, 0.0, 2022-02-27 11:05:17.059
162.0, -3989.384053872115, -6725.3046304350655, -1549.6911465753492, -10381.759450645382, -1166.3810809112886, 819.6608209205652, -5844.154160517951, -3448.091858397944, -4501.194298409736, -8465.05266011389, -3916.9867535813755, -2382.271275791082, -5153.485256848962, -4177.250466018971, -11496.642112331643, -14244.67733438937, 0.012, -0.11, 0.992, 192.0, 0.0, 0.0, 0.0, 0.0, 0.0, 0.0, 0.0, 0.0, 0.0, 1.645920317073284E9, 0.0, 2022-02-27 11:05:17.073
164.0, -3765.821905830134, -6649.778085920583, -1492.7612534476823, -10233.030943039768, -959.9403691220724, 937.275700244391, -5847.238701252782, -3363.0211190010455, -2757.445306473411, -7654.019612553074, -3877.2900554287503, -2262.0412423659855, -5146.846788745736, -4091.375063821681, -11148.938375584887, -13312.788404558707, 0.012, -0.11, 0.992, 192.0, 0.0, 0.0, 0.0, 0.0, 0.0, 0.0, 0.0, 0.0, 0.0, 1.645920317081024E9, 0.0, 2022-02-27 11:05:17.081
166.0, -3764.369042440539, -6601.386559174844, -1467.3026165130875, -10263.988109110369, -974.6254652292091, 975.9442181520723, -5837.96272730383, -3466.8449719959467, -5265.8251244813355, -8553.722030368093, -3911.8011488677444, -2570.517667593678, -5146.913843979102, -4203.491414009502, -11735.269336136502, -14470.429953387971, 0.012, -0.11, 0.99, 192.0, 0.0, 48.0, 126.0, 72.0, 15.0, 120.0, 0.0, 0.0, 0.0, 1.645920317088982E9, 0.0, 2022-02-27 11:05:17.088
168.0, -3990.83691726171, -6768.734069911728, -1563.6833386043716, -10367.141409771612, -1154.84758077235, 805.8250911027302, -5818.829634050087, -3379.3602441978746, -2981.3874341711326, -7938.825540402597, -3917.6349541705795, -2210.2075469741285, -5170.78550705737, -4115.33613387777, -11138.790683602178, -13537.937526457015, 0.012, -0.11, 0.99, 192.0, 0.0, 0.0, 0.0, 0.0, 0.0, 0.0, 0.0, 0.0, 0.0, 1.64592031709606E9, 0.0, 2022-02-27 11:05:17.096
170.0, -3623.8659767944787, -6549.128180638335, -1424.9684125147357, -10173.172971388456, -864.0513854088051, 1034.9081200251724, -5846.277576241205, -3410.0044858461006, -4142.806427813342, -8025.192680977903, -3881.62629385308, -2485.7598526191537, -5139.202492142021, -4140.191273712072, -11502.364158912202, -13879.539236967474, 0.012, -0.11, 0.99, 192.0, 0.0, 0.0, 0.0, 0.0, 0.0, 0.0, 0.0, 0.0, 0.0, 1.64592031710362E9, 0.0, 2022-02-27 11:05:17.103
172.0, -3979.303417122772, -6723.449435645275, -1542.4715331162852, -10388.017939092868, -1169.264455946023, 822.0748093217385, -5846.188169263383, -3467.381413862874, -4559.577054926998, -8491.003035426502, -3926.530948463792, -2399.973857399685, -5168.1480012116435, -4180.849096876275, -11513.89765905114, -14276.640328960459, 0.012, -0.11, 0.99, 192.0, 0.0, 0.0, 0.0, 0.0, 0.0, 0.0, 0.0, 0.0, 0.0, 1.645920317111584E9, 0.0, 2022-02-27 11:05:17.111
174.0, -3764.5031529072708, -6653.890806900359, -1490.7495964467046, -10243.245690255844, -978.2240960865136, 935.4875606879665, -5847.305756486149, -3354.795677041492, -2738.9827655533277, -7655.070144542474, -3882.0286252532755, -2257.5485417304685, -5153.015870215401, -4093.319665589293, -11144.244509249273, -13321.952619785383, 0.012, -0.11, 0.99, 192.0, 0.0, 0.0, 0.0, 0.0, 0.0, 0.0, 0.0, 0.0, 0.0, 1.64592031711966E9, 0.0, 2022-02-27 11:05:17.119
176.0, -3744.297175919673, -6587.707291568196, -1451.768154116649, -10265.083344588678, -983.2979420778684, 969.95395063805, -5849.630337909501, -3471.002396464634, -5250.156551618165, -8541.294460450943, -3904.9168115755097, -2574.3398158955356, -5148.567873068795, -4206.978286144529, -11730.776635500984, -14474.654433090023, 0.01, -0.108, 0.99, 192.0, 0.0, 40.0, 126.0, 80.0, 15.0, 120.0, 0.0, 0.0, 0.0, 1.645920317125714E9, 0.0, 2022-02-27 11:05:17.125
178.0, -3983.4608415914586, -6751.880854592426, -1562.565751381606, -10377.400860476597, -1176.7969938274616, 793.8222043302303, -5852.737230388789, -3392.4360147042294, -3001.168728014079, -7950.068467863616, -3906.9955238098532, -2205.379570171782, -5170.383175657174, -4116.878404245187, -11147.709029639844, -13568.000622749403, 0.01, -0.108, 0.99, 192.0, 0.0, 0.0, 0.0, 0.0, 0.0, 0.0, 0.0, 0.0, 0.0, 1.645920317133335E9, 0.0, 2022-02-27 11:05:17.133
180.0, -3621.6308023489482, -6547.518855037553, -1438.7594388436603, -10181.711337770384, -879.0941094272267, 1024.760428042463, -5853.4524862113585, -3416.553546971506, -4089.162241120606, -8002.818584778141, -3878.809974051711, -2472.661730368344, -5144.54455906684, -4150.160151739139, -11498.899638521629, -13866.1728937832, 0.01, -0.108, 0.99, 192.0, 0.0, 0.0, 0.0, 0.0, 0.0, 0.0, 0.0, 0.0, 0.0, 1.645920317141376E9, 0.0, 2022-02-27 11:05:17.141
182.0, -3974.3189781092383, -6717.369761153432, -1558.9447687798463, -10388.509677470885, -1178.2722089615118, 814.1175882956492, -5829.066733010618, -3459.2006753922315, -4600.458395535755, -8495.383977339743, -3934.4658177454257, -2403.1925086012493, -5175.322911181797, -4192.159079570661, -11530.90733658163, -14297.53921002617, 0.01, -0.108, 0.99, 192.0, 0.0, 0.0, 0.0, 0.0, 0.0, 0.0, 0.0, 0.0, 0.0, 1.645920317149392E9, 0.0, 2022-02-27 11:05:17.149
184.0, -3772.572132655637, -6650.873321398893, -1506.6193350099725, -10249.168902536501, -987.9024014356615, 913.1581679771148, -5832.933584801386, -3372.252389461087, -2713.255907685269, -7654.176074764261, -3887.191878222451, -2250.373631760315, -5160.123724952188, -4101.634514526667, -11142.769294115222, -13318.599858117088, 0.011, -0.11, 0.991, 192.0, 0.0, 48.0, 126.0, 64.0, 15.5, 0.0, 0.0, 0.0, 0.0, 1.645920317155801E9, 0.0, 2022-02-27 11:05:17.155
186.0, -3734.730629292802, -6570.2505791486, -1461.2005902767887, -10262.445838742953, -975.631293729698, 962.1755435676031, -5876.54183823369, -3479.1384314463658, -5237.773685189925, -8520.037951473947, -3902.2122504964177, -2569.623597815466, -5155.385155127663, -4203.424358776136, -11737.45980709312, -14476.442572646449, 0.011, -0.11, 0.991, 192.0, 0.0, 0.0, 0.0, 0.0, 0.0, 0.0, 0.0, 0.0, 0.0, 1.645920317163996E9, 0.0, 2022-02-27 11:05:17.163
188.0, -3992.356835884671, -6755.9488720832915, -1568.0419287731563, -10384.821639635758, -1175.9476275381598, 774.8232215432193, -5830.318430700116, -3399.4991659521065, -3040.17252208859, -7965.535875026689, -3907.397855210049, -2206.988895772564, -5177.7145478385155, -4133.262232930927, -11163.265843780739, -13598.622512653175, 0.011, -0.11, 0.991, 192.0, 0.0, 0.0, 0.0, 0.0, 0.0, 0.0, 0.0, 0.0, 0.0, 1.645920317171902E9, 0.0, 2022-02-27 11:05:17.171
190.0, -3621.1614157153867, -6535.694782220696, -1429.192892216789, -10185.086451183135, -863.4478883085118, 1026.4591606210663, -5852.804285622155, -3422.2979452965196, -4034.1545980160954, -7992.246209650781, -3876.0160059947975, -2473.5110966576453, -5148.456114346518, -4157.1785994981055, -11480.213580156993, -13857.723934379093, 0.011, -0.11, 0.991, 192.0, 0.0, 0.0, 0.0, 0.0, 0.0, 0.0, 0.0, 0.0, 0.0, 1.64592031717886E9, 0.0, 2022-02-27 11:05:17.178
192.0, -3957.4434110454813, -6700.337731878488, -1536.6824313023606, -10385.91687511407, -1163.6765198321964, 815.3692859851463, -5854.815942623132, -3472.187038920765, -4629.403904605378, -8499.183773897144, -3913.0975500461523, -2406.165290613805, -5161.196608686043, -4193.54488772689, -11534.99770581695, -14325.389483617484, 0.011, -0.11, 0.991, 192.0, 0.0, 0.0, 0.0, 0.0, 0.0, 0.0, 0.0, 0.0, 0.0, 1.645920317186612E9, 0.0, 2022-02-27 11:05:17.186
194.0, -3766.8500860750783, -6645.2406817961555, -1497.2986575721095, -10247.380762980076, -984.0355496448934, 919.0813802577711, -5851.507884443747, -3389.418529202763, -2675.6602735114425, -7638.105170500895, -3865.9577209899094, -2234.6827071526895, -5152.725297537482, -4103.333247105271, -11128.084198008084, -13318.599858117088, 0.0115, -0.11, 0.9904999999999999, 192.0, 0.0, 48.0, 126.0, 72.0, 15.0, 120.0, 0.0, 0.0, 0.0, 1.645920317201483E9, 0.0, 2022-02-27 11:05:17.201
196.0, -3724.761751265735, -6566.92016922476, -1453.28807273961, -10257.21553054041, -962.4661162455221, 976.5253635079102, -5848.5798059201015, -3456.5631695465054, -5208.98463833149, -8499.63080878625, -3893.8974015590434, -2561.621673300466, -5143.806951499814, -4203.536117498412, -11723.914649953205, -14458.494121848837, 0.0115, -0.11, 0.9904999999999999, 192.0, 0.0, 0.0, 0.0, 0.0, 0.0, 0.0, 0.0, 0.0, 0.0, 1.645920317208352E9, 0.0, 2022-02-27 11:05:17.208
198.0, -3993.5414783408023, -6755.390078471909, -1565.1585537384217, -10385.067508824768, -1173.8018600704504, 795.1856607420041, -5831.480721411792, -3375.515744151562, -3068.268664868911, -7971.369680329523, -3910.3482854781496, -2217.695381366656, -5169.846733790247, -4128.702477062044, -11152.648765164467, -13601.416480710088, 0.0115, -0.11, 0.9904999999999999, 192.0, 0.0, 0.0, 0.0, 0.0, 0.0, 0.0, 0.0, 0.0, 0.0, 1.64592031721615E9, 0.0, 2022-02-27 11:05:17.216
200.0, -3629.543319886127, -6547.228282359634, -1436.8371888205038, -10188.05923319569, -865.280731353847, 1023.7322477975188, -5851.552587932657, -3405.19886078821, -3985.226629403428, -7965.468819793323, -3884.57672412118, -2480.7977653500757, -5137.459056074507, -4152.77530584041, -11460.298175847314, -13815.009750725003, 0.0115, -0.11, 0.9904999999999999, 192.0, 0.0, 0.0, 0.0, 0.0, 0.0, 0.0, 0.0, 0.0, 0.0, 1.645920317224154E9, 0.0, 2022-02-27 11:05:17.224
202.0, -3969.6251117736238, -6704.092824946979, -1548.148876207933, -10392.935322873036, -1162.1342494647802, 818.5655854422553, -5840.086143027084, -3465.213294650709, -4692.2793617581565, -8512.63952405924, -3938.1762073250065, -2430.171064158805, -5172.014853002412, -4205.7265884550325, -11546.978240844994, -14329.79277727518, 0.0115, -0.11, 0.9904999999999999, 192.0, 0.0, 0.0, 0.0, 0.0, 0.0, 0.0, 0.0, 0.0, 0.0, 1.645920317231258E9, 0.0, 2022-02-27 11:05:17.231
204.0, -3800.2212405468513, -6667.681833229284, -1518.286945615643, -10272.258254558832, -1003.8615469767508, 899.1659759480925, -5820.774235817699, -3355.063897974956, -2682.2093346368474, -7648.789304350532, -3895.10439575963, -2255.693346940678, -5167.87978027818, -4114.263250143916, -11122.876241549999, -13305.568791099644, 0.01175, -0.108, 0.98925, 192.0, 0.0, 48.0, 126.0, 88.0, 15.0, 112.0, 0.0, 0.0, 0.0, 1.645920317238831E9, 0.0, 2022-02-27 11:05:17.238
206.0, -3734.9988502262654, -6576.419660618265, -1467.3696717464534, -10268.078478345691, -963.6284069571981, 960.6779766890976, -5849.25035825376, -3492.6165333529157, -5222.596850704772, -8517.221631672577, -3920.004239082842, -2595.708083594809, -5158.380288884675, -4233.286289368426, -11737.169234415202, -14454.04612470223, 0.01175, -0.108, 0.98925, 192.0, 0.0, 0.0, 0.0, 0.0, 0.0, 0.0, 0.0, 0.0, 0.0, 1.645920317246777E9, 0.0, 2022-02-27 11:05:17.246
208.0, -4012.853385550188, -6769.896360623403, -1581.5647341686172, -10402.926552644558, -1177.6016566278527, 773.4374133869903, -5839.594404649068, -3409.2892300235308, -3117.0625230148466, -7997.118889942038, -3921.1441780500627, -2229.7429716280667, -5176.574608871295, -4150.830704072798, -11182.957730645863, -13638.252155572434, 0.01175, -0.108, 0.98925, 192.0, 0.0, 0.0, 0.0, 0.0, 0.0, 0.0, 0.0, 0.0, 0.0, 1.645920317253783E9, 0.0, 2022-02-27 11:05:17.253
210.0, -3639.5792531465595, -6556.593663286408, -1444.57089240204, -10192.864858253582, -860.9668446739728, 1009.0024482014715, -5840.466122682825, -3428.3999715328187, -3939.4279050145037, -7963.948901170362, -3892.5562968917247, -2480.171916505327, -5146.4891608344515, -4166.700442636066, -11467.249568372914, -13811.277009400967, 0.01175, -0.108, 0.98925, 192.0, 0.0, 0.0, 0.0, 0.0, 0.0, 0.0, 0.0, 0.0, 0.0, 1.645920317260979E9, 0.0, 2022-02-27 11:05:17.260
212.0, -3966.7193849944338, -6707.132662192901, -1549.3111669196091, -10385.112212313677, -1146.8456562573501, 828.8920913806071, -5833.000640034752, -3475.584504077972, -4724.465873773798, -8528.039875988947, -3940.7690096818224, -2445.81728527752, -5164.392908143152, -4207.470024522546, -11565.440781765079, -14354.804379320667, 0.01175, -0.108, 0.98925, 192.0, 0.0, 0.0, 0.0, 0.0, 0.0, 0.0, 0.0, 0.0, 0.0, 1.645920317268447E9, 0.0, 2022-02-27 11:05:17.268
214.0, -3805.6750661939463, -6661.959786648726, -1524.0089921962015, -10258.824856141193, -996.7536922399631, 911.5488423763327, -5831.570128389612, -3358.99780499909, -2650.805133677141, -7641.524987402558, -3898.166584750007, -2249.546617215469, -5158.0673644623, -4105.546069806346, -11127.681866607889, -13304.853535277074, 0.011875, -0.108, 0.988625, 192.0, 0.0, 48.0, 126.0, 80.0, 15.0, 112.0, 0.0, 0.0, 0.0, 1.645920317276349E9, 0.0, 2022-02-27 11:05:17.276
216.0, -3724.5158820767265, -6567.3001488805, -1466.833229879526, -10245.279699001278, -955.6711859311088, 981.308636821346, -5859.330995003104, -3485.4863268716726, -5192.757271856937, -8482.509372533486, -3914.0363233132753, -2584.8227840450745, -5146.377402112174, -4212.074483880339, -11744.679420552186, -14443.585508297147, 0.011875, -0.108, 0.988625, 192.0, 0.0, 0.0, 0.0, 0.0, 0.0, 0.0, 0.0, 0.0, 0.0, 1.64592031728439E9, 0.0, 2022-02-27 11:05:17.284
218.0, -3994.83787951921, -6754.965395327258, -1577.250847488743, -10388.084994326235, -1175.2100199711347, 788.9048205500628, -5828.86556731052, -3392.6595321487825, -3138.9895843255026, -8004.1149859565485, -3916.0926838031633, -2227.8430733493656, -5157.665033062105, -4132.725791063999, -11195.944094174398, -13656.200606370045, 0.011875, -0.108, 0.988625, 192.0, 0.0, 0.0, 0.0, 0.0, 0.0, 0.0, 0.0, 0.0, 0.0, 1.645920317290955E9, 0.0, 2022-02-27 11:05:17.290
220.0, -3658.578235933571, -6571.189352415723, -1456.3949652188976, -10187.858067495594, -858.4858010394337, 1024.4922071089993, -5822.651782351945, -3402.7625206425814, -3877.334758917661, -7935.249261289748, -3890.6340468685685, -2475.790974592087, -5139.671878775583, -4155.770439597421, -11450.575167009256, -13774.910721172182, 0.011875, -0.108, 0.988625, 192.0, 0.0, 0.0, 0.0, 0.0, 0.0, 0.0, 0.0, 0.0, 0.0, 1.645920317299109E9, 0.0, 2022-02-27 11:05:17.299
222.0, -3981.7397572684004, -6722.734179822705, -1556.9331117788688, -10386.766241403371, -1143.0235079554925, 827.5956902021993, -5824.797549819655, -3472.2093906652203, -4778.601798844552, -8554.571396657395, -3951.2519778313613, -2464.9727302757183, -5174.294730936853, -4220.702257240088, -11571.341642301279, -14363.74507710279, 0.011875, -0.108, 0.988625, 192.0, 0.0, 0.0, 0.0, 0.0, 0.0, 0.0, 0.0, 0.0, 0.0, 1.645920317307163E9, 0.0, 2022-02-27 11:05:17.307
224.0, -3821.455397779393, -6680.467031057719, -1529.4404660988412, -10267.40792601203, -1002.0734074203262, 902.7422550609416, -5830.854872567043, -3375.225171473643, -2646.491246997267, -7661.0157085675855, -3904.134500519574, -2257.325024285916, -5161.35307089723, -4118.152453679139, -11116.237773446772, -13302.081918964615, 0.012937500000000001, -0.108, 0.9903124999999999, 192.0, 0.0, 56.0, 126.0, 80.0, 15.5, 0.0, 0.0, 0.0, 0.0, 1.645920317320735E9, 0.0, 2022-02-27 11:05:17.320
226.0, -3726.080504188598, -6571.904608238293, -1476.8691631399588, -10244.475036200885, -950.6867469175753, 979.4310902871002, -5854.234797267294, -3492.571829864005, -5176.887533293669, -8484.230456856545, -3913.6339919130796, -2593.6293713604655, -5151.294785892343, -4221.618678762756, -11735.42579834769, -14429.57096452367, 0.012937500000000001, -0.108, 0.9903124999999999, 192.0, 0.0, 0.0, 0.0, 0.0, 0.0, 0.0, 0.0, 0.0, 0.0, 1.645920317328711E9, 0.0, 2022-02-27 11:05:17.328
228.0, -4025.9515078009977, -6772.466811235763, -1596.8980308649577, -10392.734157172938, -1189.4033777002546, 769.704672062954, -5829.066733010618, -3415.6594771932937, -3206.8047770029043, -8043.3199457311575, -3928.0285153422974, -2241.678803167201, -5180.754385084437, -4143.052297002351, -11205.018902423251, -13680.228731659501, 0.012937500000000001, -0.108, 0.9903124999999999, 192.0, 0.0, 0.0, 0.0, 0.0, 0.0, 0.0, 0.0, 0.0, 0.0, 1.64592031733679E9, 0.0, 2022-02-27 11:05:17.336
230.0, -3661.662776668403, -6579.973587986659, -1464.6874624118166, -10190.83084950815, -877.4847838264446, 996.2172503730358, -5845.562320418635, -3416.575898715961, -3846.757572502801, -7940.8371974035745, -3896.333741704672, -2469.688948355788, -5155.854541761225, -4164.666433890633, -11447.222405340959, -13765.210064078577, 0.012937500000000001, -0.108, 0.9903124999999999, 192.0, 0.0, 0.0, 0.0, 0.0, 0.0, 0.0, 0.0, 0.0, 0.0, 1.645920317344692E9, 0.0, 2022-02-27 11:05:17.344
232.0, -3975.9283037100204, -6717.727389064717, -1556.6648908454051, -10379.077241310744, -1143.7164120336072, 825.3381640122133, -5848.646861153467, -3479.607818079927, -4820.041933064692, -8568.474181708596, -3951.7660679538335, -2470.8065355785534, -5183.078966507789, -4221.193995618105, -11594.185125134603, -14387.37087099205, 0.012937500000000001, -0.108, 0.9903124999999999, 192.0, 0.0, 0.0, 0.0, 0.0, 0.0, 0.0, 0.0, 0.0, 0.0, 1.645920317351314E9, 0.0, 2022-02-27 11:05:17.351
234.0, -3841.0802294111527, -6697.722577777216, -1533.3520213785198, -10271.766516180816, -1021.0276867184266, 882.6927402845312, -5827.859738810032, -3369.123145237344, -2635.516540469711, -7667.676528415267, -3905.4085499535267, -2247.602015447857, -5169.891437279158, -4098.214697625005, -11118.897631036954, -13303.579485843122, 0.013468750000000002, -0.108, 0.99115625, 192.0, 0.0, 56.0, 126.0, 80.0, 15.5, 0.0, 0.0, 0.0, 0.0, 1.645920317359214E9, 0.0, 2022-02-27 11:05:17.359
236.0, -3735.781161282201, -6585.919152011771, -1475.5727619615511, -10246.64315541305, -952.407831240634, 969.3281017933014, -5853.787762378188, -3477.506754101128, -5172.327777424786, -8484.252808600999, -3927.514425219825, -2601.541888897644, -5166.7398413109595, -4224.502053797491, -11741.728990284086, -14422.820737698166, 0.013468750000000002, -0.108, 0.99115625, 192.0, 0.0, 0.0, 0.0, 0.0, 0.0, 0.0, 0.0, 0.0, 0.0, 1.645920317366458E9, 0.0, 2022-02-27 11:05:17.366
238.0, -4031.6064991481903, -6781.3628055289755, -1599.3567227550416, -10394.611703707184, -1187.3693689548218, 767.8047737842529, -5816.505052626736, -3417.0676370939777, -3261.3430334738537, -8064.956434363894, -3935.9633846239312, -2246.7079456696447, -5189.6950828665595, -4145.108657492239, -11220.776882264243, -13708.14606048418, 0.013468750000000002, -0.108, 0.99115625, 192.0, 0.0, 0.0, 0.0, 0.0, 0.0, 0.0, 0.0, 0.0, 0.0, 1.645920317373093E9, 0.0, 2022-02-27 11:05:17.373
240.0, -3649.525779429171, -6571.614035560374, -1468.3307967580315, -10181.152544159002, -876.0989756702156, 1005.1802998996139, -5836.599270892057, -3413.670171936771, -3789.3582927415723, -7907.890726076452, -3886.141346233052, -2452.947491758763, -5149.6631085471045, -4145.935672037086, -11441.120379104661, -13747.90981387017, 0.013468750000000002, -0.108, 0.99115625, 192.0, 0.0, 0.0, 0.0, 0.0, 0.0, 0.0, 0.0, 0.0, 0.0, 1.64592031738109E9, 0.0, 2022-02-27 11:05:17.381
242.0, -3966.1158878941405, -6713.905240762859, -1566.0079200277235, -10380.395994233608, -1142.4870660885651, 808.3731899706353, -5817.220308449306, -3472.187038920765, -4853.122514858546, -8564.383812473276, -3942.847721916166, -2471.3876809343915, -5174.339434425764, -4220.009353161973, -11611.083043942815, -14409.610856725081, 0.013468750000000002, -0.108, 0.99115625, 192.0, 0.0, 0.0, 0.0, 0.0, 0.0, 0.0, 0.0, 0.0, 0.0, 1.645920317388963E9, 0.0, 2022-02-27 11:05:17.388
244.0, -3853.261930139295, -6708.920801749326, -1544.5949488395393, -10290.251408845355, -1029.722515311541, 856.183571360537, -5827.256241709739, -3377.7062151081823, -2637.036459092672, -7676.393708752837, -3910.169471522507, -2257.7497074305666, -5170.092602979255, -4120.521738591402, -11125.044360762164, -13320.276238951235, 0.011734375000000002, -0.10600000000000001, 0.989578125, 192.0, 0.0, 40.0, 126.0, 96.0, 15.0, 112.0, 0.0, 0.0, 0.0, 1.645920317396015E9, 0.0, 2022-02-27 11:05:17.396
246.0, -3737.748114794268, -6594.368111415877, -1480.7807184196377, -10258.98131835238, -955.9617586090278, 952.8772178741954, -5853.296024000171, -3494.6952455872593, -5165.197570943543, -8482.419965555664, -3933.705858433945, -2615.0646942931053, -5163.342376153752, -4240.5506063164, -11748.65803106523, -14426.687589488934, 0.011734375000000002, -0.10600000000000001, 0.989578125, 192.0, 0.0, 0.0, 0.0, 0.0, 0.0, 0.0, 0.0, 0.0, 0.0, 1.645920317403652E9, 0.0, 2022-02-27 11:05:17.403
248.0, -4042.491798697925, -6790.907000411392, -1605.5258042247062, -10411.800195193315, -1202.9708865846262, 741.5861775381777, -5838.566224404124, -3439.5981955049274, -3308.7957869524703, -8093.477260288866, -3946.3345940511936, -2264.634044722801, -5188.130460754688, -4167.996843814474, -11240.89345227402, -13747.216909792056, 0.011734375000000002, -0.10600000000000001, 0.989578125, 192.0, 0.0, 0.0, 0.0, 0.0, 0.0, 0.0, 0.0, 0.0, 0.0, 1.645920317411579E9, 0.0, 2022-02-27 11:05:17.411
250.0, -3661.0369278236544, -6582.164058943279, -1475.9527416172912, -10193.870686754071, -883.1621269180927, 977.5311920083991, -5854.234797267294, -3411.613811446883, -3745.9065015204555, -7913.277496490181, -3906.1461575205517, -2463.6763290973104, -5149.6631085471045, -4168.82385835932, -11437.097065102706, -13735.86222360876, 0.011734375000000002, -0.10600000000000001, 0.989578125, 192.0, 0.0, 0.0, 0.0, 0.0, 0.0, 0.0, 0.0, 0.0, 0.0, 1.64592031741874E9, 0.0, 2022-02-27 11:05:17.418
