%OpenBCI Raw EEG Data
%Number of channels = 16
%Sample Rate = 125 Hz
%Board = OpenBCI_GUI$BoardCytonSerialDaisy
Sample Index, EXG Channel 0, EXG Channel 1, EXG Channel 2, EXG Channel 3, EXG Channel 4, EXG Channel 5, EXG Channel 6, EXG Channel 7, EXG Channel 8, EXG Channel 9, EXG Channel 10, EXG Channel 11, EXG Channel 12, EXG Channel 13, EXG Channel 14, EXG Channel 15, Accel Channel 0, Accel Channel 1, Accel Channel 2, Other, Other, Other, Other, Other, Other, Other, Analog Channel 0, Analog Channel 1, Analog Channel 2, Timestamp, Other, Timestamp (Formatted)
0.0, -2503.3059720165697, -5751.953214639809, -2373.889371620342, -11117.377712413992, -1209.3187820099333, -56.594616960837484, -5788.118337168496, -2109.0211998249533, 0.0, 0.0, 0.0, 0.0, 0.0, 0.0, 0.0, 0.0, 0.0, 0.0, 0.0, 192.0, 0.0, 0.0, 0.0, 0.0, 0.0, 0.0, 0.0, 0.0, 0.0, 1.645921115959819E9, 0.0, 2022-02-27 11:18:35.959
216.0, -1861.3415195156956, -5272.843572240302, -1970.2839219908622, -10671.840390186357, -637.5388070987234, 345.2897483455835, -5611.740721671667, -1915.7680172643684, -3238.6336611072616, -6985.121307983555, -4262.70118507161, -3428.2435093216313, -4484.005806923605, -3443.9791374181677, -10148.362535043065, -14695.355557841725, 0.022, -0.108, 0.984, 192.0, 0.0, 88.0, 126.0, 80.0, 15.0, 96.0, 0.0, 0.0, 0.0, 1.645921115959822E9, 0.0, 2022-02-27 11:18:35.959
0.0, -1050.1296579992363, -2739.8097800981736, -1064.3230157283565, -5428.746989816069, -486.26220062520514, 29.23608174754164, -2979.956922525993, -1060.7690883599626, -812.9552975839732, -3417.4923202386285, -2283.074233898429, -1698.3525989475966, -2420.045723920551, -1831.2560714788524, -4997.604191017651, -7131.905213821557, 0.022, -0.109, 0.987, 192.0, 0.0, 88.0, 126.0, 72.0, 15.0, 120.0, 0.0, 0.0, 0.0, 1.645921116054188E9, 0.0, 2022-02-27 11:18:36.054
2.0, -2755.7912773837184, -5970.933255068452, -2546.869521959963, -11317.068197377706, -1555.7261175782821, -344.0604024005416, -6118.141844051104, -2290.249143868583, -4257.694394313621, -7828.229108837737, -4696.54854494912, -3689.602457237537, -4852.116686358057, -3845.5058748133038, -10546.178882858621, -15596.443783812974, 0.022, -0.109, 0.987, 192.0, 0.0, 0.0, 0.0, 0.0, 0.0, 0.0, 0.0, 0.0, 0.0, 1.645921116060185E9, 0.0, 2022-02-27 11:18:36.060
4.0, -2118.61009819628, -5487.420319011249, -2071.2467516954844, -10785.834286908423, -961.8849708896842, 116.20671942314142, -5765.051336890619, -1843.4154204625395, -2195.701264822634, -6794.595038246517, -4451.97575711915, -3436.6924687257374, -4688.770137878673, -3537.409429241351, -10099.881601319505, -14413.097728860108, 0.022, -0.109, 0.987, 192.0, 0.0, 0.0, 0.0, 0.0, 0.0, 0.0, 0.0, 0.0, 0.0, 1.645921116066326E9, 0.0, 2022-02-27 11:18:36.066
6.0, -2431.489817081668, -5734.317688264571, -2356.6114731563894, -11106.291247164161, -1282.8560212678935, -156.19399025368574, -6090.582143137711, -2265.1928383341838, -5063.541837160807, -7741.86196826243, -4436.731867400631, -3653.1691137753864, -4555.978424069694, -3601.983618972733, -10570.51993257045, -15703.933322898547, 0.022, -0.109, 0.987, 192.0, 0.0, 0.0, 0.0, 0.0, 0.0, 0.0, 0.0, 0.0, 0.0, 1.645921116072347E9, 0.0, 2022-02-27 11:18:36.072
8.0, -2510.011495353162, -5784.3632441000045, -2338.148932236306, -11090.53326732317, -1331.515768947097, -150.18137099520814, -5930.5883563266225, -2030.7006872535574, -2365.9097988497974, -7173.904141653078, -4667.647739368408, -3517.605783653949, -4896.864878757582, -3757.7529260817682, -10221.005704522813, -14726.446834379058, 0.018000000000000002, -0.108, 0.996, 192.0, 0.0, 72.0, 126.0, 80.0, 15.5, 16.0, 0.0, 0.0, 0.0, 1.645921116078795E9, 0.0, 2022-02-27 11:18:36.078
10.0, -1987.5394687103594, -5387.508021296027, -2019.770684214912, -10733.777074072013, -872.0980134127157, 172.4660602171493, -5836.219291236316, -1933.9623372509882, -3635.600642633515, -7103.876126274601, -4313.730217663076, -3491.7895188080693, -4491.851269227418, -3451.9140066998016, -10286.920998921514, -14940.084807882884, 0.018000000000000002, -0.108, 0.996, 192.0, 0.0, 0.0, 0.0, 0.0, 0.0, 0.0, 0.0, 0.0, 0.0, 1.645921116086585E9, 0.0, 2022-02-27 11:18:36.086
12.0, -2745.800047612196, -5966.41820268848, -2535.9618706657734, -11302.696025692943, -1568.31014970662, -334.8738354294104, -6133.028105858339, -2273.150059360273, -4284.8517638268195, -7828.229108837737, -4685.171507021369, -3680.5500007331375, -4834.48115998282, -3824.3834763030386, -10551.252728849975, -15598.164868136033, 0.018000000000000002, -0.108, 0.996, 192.0, 0.0, 0.0, 0.0, 0.0, 0.0, 0.0, 0.0, 0.0, 0.0, 1.645921116094765E9, 0.0, 2022-02-27 11:18:36.094
14.0, -2112.1057405597858, -5473.003443837577, -2064.9435597590877, -10780.425164750239, -984.5049362784549, 116.4749403566051, -5796.991979717252, -1855.5077142128605, -2164.565284796391, -6763.4590582202745, -4447.997146606105, -3419.3028115395086, -4685.015044810181, -3539.398734497873, -10104.463708932843, -14403.531182233237, 0.018000000000000002, -0.108, 0.996, 192.0, 0.0, 0.0, 0.0, 0.0, 0.0, 0.0, 0.0, 0.0, 0.0, 1.645921116101319E9, 0.0, 2022-02-27 11:18:36.101
16.0, -2419.0175436756067, -5716.592754911513, -2349.458914930691, -11093.707215035822, -1282.6325038233406, -149.4214116837277, -6127.21665229996, -2259.7837161759994, -5036.183301947511, -7739.000944972151, -4425.421884706246, -3645.144837515931, -4547.820037343507, -3598.899078237901, -10574.856170994779, -15689.941130869525, 0.018000000000000002, -0.108, 0.996, 192.0, 0.0, 0.0, 0.0, 0.0, 0.0, 0.0, 0.0, 0.0, 0.0, 1.645921116116243E9, 0.0, 2022-02-27 11:18:36.116
18.0, -2510.167957564349, -5785.927866211876, -2334.2820804455378, -11087.269912632693, -1328.900614845826, -147.76738259403498, -5932.220033671861, -2017.3790475581943, -2370.6483686743222, -7169.791420673302, -4667.491277157221, -3515.1470917638653, -4890.606390310096, -3767.7665075977457, -10227.532413903764, -14735.63340135019, 0.008, -0.10400000000000001, 0.996, 192.0, 0.0, 32.0, 126.0, 96.0, 15.5, 16.0, 0.0, 0.0, 0.0, 1.645921116124412E9, 0.0, 2022-02-27 11:18:36.124
20.0, -1994.222640302496, -5397.476899323095, -2020.5082917819373, -10736.906318295756, -861.056251651794, 165.91699909174432, -5782.038662676652, -1930.5648720937816, -3621.206119204297, -7109.620524599615, -4313.350238007336, -3502.7642253356253, -4486.062167413494, -3464.3415766169524, -10276.773306938805, -14936.441473536668, 0.008, -0.10400000000000001, 0.996, 192.0, 0.0, 0.0, 0.0, 0.0, 0.0, 0.0, 0.0, 0.0, 0.0, 1.645921116130866E9, 0.0, 2022-02-27 11:18:36.130
22.0, -2750.8962453480062, -5975.090679537139, -2540.3428125790138, -11308.932162395975, -1562.8116205706144, -356.6891380177901, -6111.369265481147, -2271.0042918925633, -4305.415368725702, -7837.125103130949, -4677.147230761913, -3692.3517218055395, -4826.076904067624, -3845.7293922578565, -10548.548167770883, -15610.860658986649, 0.008, -0.10400000000000001, 0.996, 192.0, 0.0, 0.0, 0.0, 0.0, 0.0, 0.0, 0.0, 0.0, 0.0, 1.645921116138728E9, 0.0, 2022-02-27 11:18:36.138
24.0, -2124.6897726881234, -5491.488336502116, -2073.973664519032, -10790.66226371077, -967.7634796814299, 116.8102165234347, -5775.757822484711, -1834.005336046855, -2160.7431364945337, -6787.889514909925, -4447.863036139373, -3442.5039222841174, -4680.835268597039, -3551.423973014829, -10091.253827959756, -14405.47578400085, 0.008, -0.10400000000000001, 0.996, 192.0, 0.0, 0.0, 0.0, 0.0, 0.0, 0.0, 0.0, 0.0, 0.0, 1.645921116146962E9, 0.0, 2022-02-27 11:18:36.146
26.0, -2415.664782007311, -5722.22539451425, -2346.7096503626885, -11088.834534744565, -1268.908532727782, -152.90828381875562, -6074.3994801520685, -2261.0354138654966, -5035.75861880286, -7732.00484895764, -4423.700800383187, -3655.8736748544784, -4534.453694159233, -3595.1886886583197, -10562.316842355352, -15684.06262207778, 0.009000000000000001, -0.10200000000000001, 0.994, 192.0, 0.0, 40.0, 126.0, 112.0, 15.5, 0.0, 0.0, 0.0, 0.0, 1.645921116154078E9, 0.0, 2022-02-27 11:18:36.154
28.0, -2520.3380012915136, -5785.100851667029, -2348.0284032855516, -11093.282531891171, -1348.0784115884796, -167.81689737044542, -5938.970260497363, -2040.0660681803308, -2416.1341686408723, -7174.999377131388, -4677.415451695377, -3530.7486093936695, -4893.10978568909, -3782.630417660525, -10234.081475029168, -14760.801465606864, 0.009000000000000001, -0.10200000000000001, 0.994, 192.0, 0.0, 0.0, 0.0, 0.0, 0.0, 0.0, 0.0, 0.0, 0.0, 1.645921116161541E9, 0.0, 2022-02-27 11:18:36.161
30.0, -1974.5978086707366, -5388.759718985524, -2010.2711928214067, -10724.434044889695, -861.9726731744615, 174.05303407347608, -5832.374791190004, -1923.881700501645, -3566.153772610876, -7099.003445983344, -4304.610705925311, -3489.8225652960023, -4478.015539409583, -3465.3697568618963, -10276.639196472073, -14914.335598270369, 0.009000000000000001, -0.10200000000000001, 0.994, 192.0, 0.0, 0.0, 0.0, 0.0, 0.0, 0.0, 0.0, 0.0, 0.0, 1.645921116168539E9, 0.0, 2022-02-27 11:18:36.168
32.0, -2729.3715154375454, -5958.148057240017, -2526.2165100832594, -11300.505554736323, -1550.406402397919, -335.5890912519802, -6123.752131909387, -2295.9041352157756, -4347.213130857126, -7835.73929497472, -4655.77896306264, -3689.602457237537, -4801.8699648225265, -3816.828586677145, -10556.550092285883, -15628.451481872975, 0.009000000000000001, -0.10200000000000001, 0.994, 192.0, 0.0, 0.0, 0.0, 0.0, 0.0, 0.0, 0.0, 0.0, 0.0, 1.645921116176506E9, 0.0, 2022-02-27 11:18:36.176
34.0, -2111.546946948403, -5490.549563234993, -2064.3400626587945, -10782.839153151412, -972.8373256727846, 113.99389672206603, -5762.2350170892505, -1852.3561182446622, -2118.8112638963776, -6796.338474314031, -4441.381030247335, -3426.7906459320366, -4670.888742314428, -3556.9448538952893, -10089.488040147788, -14402.458298499383, 0.009000000000000001, -0.10200000000000001, 0.994, 192.0, 0.0, 0.0, 0.0, 0.0, 0.0, 0.0, 0.0, 0.0, 0.0, 1.645921116183049E9, 0.0, 2022-02-27 11:18:36.183
36.0, -2400.040912633051, -5709.1719757523515, -2337.768952580566, -11074.842342715543, -1267.2768553825445, -133.99870800956583, -6081.9096662890515, -2218.276526722494, -5008.154214400556, -7717.140938894861, -4406.691122852698, -3647.8717503394787, -4515.052379972027, -3586.695025765303, -10555.164284129654, -15666.38239221363, 0.0115, -0.10500000000000001, 0.99, 192.0, 0.0, 56.0, 126.0, 80.0, 15.0, 104.0, 0.0, 0.0, 0.0, 1.645921116191069E9, 0.0, 2022-02-27 11:18:36.191
38.0, -2519.1533588353823, -5789.347683113538, -2346.1285050068504, -11086.91228472141, -1348.6819086887729, -146.89566456027802, -5927.146187680506, -2006.002009630443, -2416.0000581741406, -7189.371548816151, -4669.301768458101, -3528.6251936704152, -4885.264323385278, -3763.072641262131, -10231.779245350272, -14747.166901489129, 0.0115, -0.10500000000000001, 0.99, 192.0, 0.0, 0.0, 0.0, 0.0, 0.0, 0.0, 0.0, 0.0, 0.0, 1.645921116199164E9, 0.0, 2022-02-27 11:18:36.199
40.0, -1976.3635964827058, -5386.278675350985, -2009.3994747876495, -10716.83445177489, -865.7724697318638, 192.18029882673014, -5832.10657025654, -1916.9973632094102, -3553.770906182636, -7071.600207281138, -4302.219069268593, -3492.54947811955, -4471.712347473186, -3455.4902858126507, -10272.45942025893, -14898.37645272928, 0.0115, -0.10500000000000001, 0.99, 192.0, 0.0, 0.0, 0.0, 0.0, 0.0, 0.0, 0.0, 0.0, 0.0, 1.645921116206311E9, 0.0, 2022-02-27 11:18:36.206
42.0, -2744.2354255003247, -5972.140249269039, -2533.0561438865834, -11307.85927866212, -1553.02155649919, -338.85244594245506, -6110.92223059204, -2296.529984060524, -4358.679575762699, -7863.969548221773, -4663.423259666355, -3694.408082295428, -4796.907877553449, -3827.8256449491555, -10552.347964328286, -15624.718740548939, 0.0115, -0.10500000000000001, 0.99, 192.0, 0.0, 0.0, 0.0, 0.0, 0.0, 0.0, 0.0, 0.0, 0.0, 1.645921116213808E9, 0.0, 2022-02-27 11:18:36.213
44.0, -2135.4409617711262, -5497.523307505048, -2072.8784290407216, -10789.142345087808, -986.0919101347816, 115.29029790047383, -5755.238921074739, -1839.6156239051372, -2124.1086273322853, -6793.879782423947, -4441.805713391986, -3440.380506560863, -4663.736184088729, -3548.831170658013, -10088.303397691656, -14399.574923464648, 0.0115, -0.10500000000000001, 0.99, 192.0, 0.0, 0.0, 0.0, 0.0, 0.0, 0.0, 0.0, 0.0, 0.0, 1.645921116221661E9, 0.0, 2022-02-27 11:18:36.221
46.0, -2392.843650918442, -5706.51211816217, -2323.463836129169, -11058.994955896731, -1260.4595733236758, -123.15811194874192, -6068.811544038242, -2237.0743438094073, -5021.587612818195, -7716.604497027934, -4407.495785653089, -3649.123448028976, -4517.309906162012, -3586.7397292542137, -10555.052525407378, -15662.873168334148, 0.01175, -0.10650000000000001, 0.987, 192.0, 0.0, 48.0, 126.0, 80.0, 15.0, 96.0, 0.0, 0.0, 0.0, 1.645921116236187E9, 0.0, 2022-02-27 11:18:36.236
48.0, -2541.5051032906895, -5804.725683298789, -2355.5609411669902, -11100.368034883504, -1368.2843885760772, -160.28435948900696, -5948.693269335422, -2029.0466581638645, -2466.2914831985813, -7214.785482261835, -4673.280378971145, -3540.1810455538093, -4882.023320439258, -3771.6780628774245, -10239.892928587547, -14781.387422250204, 0.01175, -0.10650000000000001, 0.987, 192.0, 0.0, 0.0, 0.0, 0.0, 0.0, 0.0, 0.0, 0.0, 0.0, 1.645921116243395E9, 0.0, 2022-02-27 11:18:36.243
50.0, -1986.3771779986835, -5392.693626009658, -2010.5841172437808, -10718.913164009235, -868.2535133664029, 188.67107494724692, -5818.539061372168, -1912.61642129617, -3504.7311788476923, -7053.942329161446, -4309.66220017221, -3498.115062488921, -4475.556847519499, -3440.8498931944246, -10267.989071367869, -14878.70691760861, 0.01175, -0.10650000000000001, 0.987, 192.0, 0.0, 0.0, 0.0, 0.0, 0.0, 0.0, 0.0, 0.0, 0.0, 1.645921116252762E9, 0.0, 2022-02-27 11:18:36.252
52.0, -2757.2664925177687, -5980.745670884332, -2541.2815858461363, -11310.13915659656, -1561.4258124143855, -343.1216291334187, -6127.082541833227, -2299.636876539812, -4388.474451121623, -7848.278623614147, -4663.937349788827, -3705.0698644006093, -4789.7776710722055, -3821.790673946223, -10558.85232196478, -15634.464101131452, 0.01175, -0.10650000000000001, 0.987, 192.0, 0.0, 0.0, 0.0, 0.0, 0.0, 0.0, 0.0, 0.0, 0.0, 1.645921116259375E9, 0.0, 2022-02-27 11:18:36.259
54.0, -2150.9754241675646, -5515.963496680677, -2085.149536746685, -10799.535906259527, -997.2901341068905, 106.86369024082306, -5773.679110250368, -1846.9469960864778, -2124.0415720989195, -6813.303448355609, -4458.994204878117, -3445.9460909302347, -4666.776021334651, -3559.269435318641, -10089.935075036892, -14401.094842087608, 0.01175, -0.10650000000000001, 0.987, 192.0, 0.0, 0.0, 0.0, 0.0, 0.0, 0.0, 0.0, 0.0, 0.0, 1.645921116265993E9, 0.0, 2022-02-27 11:18:36.265
56.0, -2401.0914446224506, -5707.361484451471, -2332.8739205448533, -11065.342851322039, -1260.6607390237737, -123.38162939329499, -6078.378090665114, -2240.6506229222564, -5009.8976504680695, -7715.95629643873, -4412.033189777517, -3647.0000323057216, -4506.335199634457, -3586.7844327431244, -10556.125409141232, -15658.559281654274, 0.010875, -0.10525000000000001, 0.9855, 192.0, 0.0, 40.0, 126.0, 96.0, 15.0, 96.0, 0.0, 0.0, 0.0, 1.64592111627403E9, 0.0, 2022-02-27 11:18:36.274
58.0, -2548.9705859387623, -5813.3087531696265, -2360.523028436068, -11101.955008739831, -1372.3300543224877, -164.28532174650692, -5940.1549029534945, -2057.321614899828, -2458.1330964723943, -7209.599877548204, -4682.73516687574, -3532.7155629057365, -4869.282826099733, -3779.5011734367818, -10247.157245535524, -14780.515704216446, 0.010875, -0.10525000000000001, 0.9855, 192.0, 0.0, 0.0, 0.0, 0.0, 0.0, 0.0, 0.0, 0.0, 0.0, 1.645921116281948E9, 0.0, 2022-02-27 11:18:36.281
60.0, -1988.6347041886693, -5394.012378932522, -2016.1497016131523, -10718.17555644221, -869.5275628003553, 186.77117666854582, -5811.028875235185, -1914.3151538747734, -3509.425045183307, -7074.863561971612, -4321.441569500157, -3498.897373544857, -4466.035004381538, -3454.998547434634, -10264.345737021655, -14879.891560064741, 0.010875, -0.10525000000000001, 0.9855, 192.0, 0.0, 0.0, 0.0, 0.0, 0.0, 0.0, 0.0, 0.0, 0.0, 1.645921116289039E9, 0.0, 2022-02-27 11:18:36.289
62.0, -2753.1090680490815, -5973.146077769527, -2543.650870758399, -11308.462775762413, -1569.248922973743, -331.0516871275529, -6147.556739754288, -2298.049902683485, -4432.350925487391, -7868.663414557388, -4666.194875978813, -3703.505242288738, -4769.504638851242, -3808.401979017494, -10564.127333656232, -15646.042304759301, 0.010875, -0.10525000000000001, 0.9855, 192.0, 0.0, 0.0, 0.0, 0.0, 0.0, 0.0, 0.0, 0.0, 0.0, 1.645921116295616E9, 0.0, 2022-02-27 11:18:36.295
64.0, -2160.541970794436, -5519.897403704811, -2109.222365525051, -10804.497993528605, -1013.4504453480776, 110.57407982040404, -5790.599380803034, -1844.55535942976, -2112.3069062598834, -6797.970151659269, -4475.378033563857, -3454.082125911966, -4663.646777110908, -3543.8020281555687, -10094.316016950133, -14393.361138506072, 0.010875, -0.10525000000000001, 0.9855, 192.0, 0.0, 0.0, 0.0, 0.0, 0.0, 0.0, 0.0, 0.0, 0.0, 1.645921116303701E9, 0.0, 2022-02-27 11:18:36.303
66.0, -2405.04770339104, -5714.916374077365, -2320.826330283443, -11070.528456035669, -1272.3059978849885, -125.61680383882569, -6075.762936563842, -2241.4999892115584, -5009.674133023516, -7708.133185879373, -4422.717323627153, -3665.373166247984, -4496.478080329666, -3578.9836739282223, -10549.241071848997, -15647.584575126717, 0.0134375, -0.10462500000000001, 0.98475, 192.0, 0.0, 64.0, 126.0, 96.0, 15.0, 96.0, 0.0, 0.0, 0.0, 1.645921116311788E9, 0.0, 2022-02-27 11:18:36.311
68.0, -2562.8957227344185, -5824.3952184194595, -2358.5784266684564, -11113.041473989662, -1391.284333620588, -170.9237898497331, -5943.351202410603, -2068.6986528275793, -2496.5780969355224, -7244.580357620759, -4694.983922837248, -3550.1946270697867, -4880.481050071842, -3780.954036826377, -10251.091152559657, -14796.899532902185, 0.0134375, -0.10462500000000001, 0.98475, 192.0, 0.0, 0.0, 0.0, 0.0, 0.0, 0.0, 0.0, 0.0, 0.0, 1.645921116318222E9, 0.0, 2022-02-27 11:18:36.318
70.0, -1988.3664832552056, -5394.191192888164, -2003.9456491405547, -10712.095881950365, -882.3798158621569, 184.8042231564788, -5811.945296757853, -1924.3063836462957, -3470.6894720422592, -7062.793619965747, -4318.871118887797, -3496.997475266156, -4472.494658529122, -3454.506809056617, -10256.902606118038, -14870.36971692678, 0.0134375, -0.10462500000000001, 0.98475, 192.0, 0.0, 0.0, 0.0, 0.0, 0.0, 0.0, 0.0, 0.0, 0.0, 1.645921116326331E9, 0.0, 2022-02-27 11:18:36.326
72.0, -2736.5911288966095, -5953.342432182126, -2527.7587804506757, -11296.437537245458, -1586.8844493489803, -331.90105341685455, -6164.320548095769, -2292.1937456361948, -4444.532626215533, -7861.0638214425835, -4664.004405022193, -3698.4760997862936, -4771.672758063407, -3801.472938236349, -10567.345984857797, -15649.171548983044, 0.0134375, -0.10462500000000001, 0.98475, 192.0, 0.0, 0.0, 0.0, 0.0, 0.0, 0.0, 0.0, 0.0, 0.0, 1.645921116334344E9, 0.0, 2022-02-27 11:18:36.334
74.0, -2132.4681797585704, -5497.411548782772, -2071.4702691400375, -10790.75167068859, -1024.3804483867227, 104.06972218390969, -5764.403136301415, -1852.780801389313, -2074.5324581304144, -6757.692308150806, -4449.07003033996, -3426.1424453428326, -4656.918902029861, -3537.431780985806, -10086.80583081315, -14388.756679148279, 0.0134375, -0.10462500000000001, 0.98475, 192.0, 0.0, 0.0, 0.0, 0.0, 0.0, 0.0, 0.0, 0.0, 0.0, 1.645921116341318E9, 0.0, 2022-02-27 11:18:36.341
76.0, -2375.521048965579, -5695.60446686798, -2302.7661207635547, -11042.23114755525, -1263.1864861472234, -114.28446939998501, -6081.797907566775, -2239.890663610776, -4973.21843781691, -7700.980627653674, -4400.834965805408, -3642.0379450366436, -4496.209859396203, -3573.6192552589487, -10539.003972888468, -15635.805205798772, 0.01471875, -0.1033125, 0.984375, 192.0, 0.0, 64.0, 126.0, 104.0, 15.0, 96.0, 0.0, 0.0, 0.0, 1.645921116348875E9, 0.0, 2022-02-27 11:18:36.348
78.0, -2540.029888156639, -5812.347628158049, -2355.5385894225346, -11104.123127951996, -1391.351388853954, -172.89074336180013, -5945.273452433759, -2064.585931847803, -2492.331265489014, -7219.56875557527, -4674.085041771536, -3528.8263593705133, -4871.361538334077, -3774.136754767508, -10242.061047799712, -14802.509820760468, 0.01471875, -0.1033125, 0.984375, 192.0, 0.0, 0.0, 0.0, 0.0, 0.0, 0.0, 0.0, 0.0, 0.0, 1.645921116364046E9, 0.0, 2022-02-27 11:18:36.364
80.0, -1965.746517866435, -5385.474012550594, -1982.5997331857366, -10700.651788789248, -889.5323740878551, 191.06271160396477, -5816.259183437727, -1917.489101587427, -3420.6886196957375, -7044.085209856655, -4302.2861245019585, -3475.2715796555976, -4465.856190425896, -3437.9665181596897, -10252.767533393804, -14850.096684705817, 0.01471875, -0.1033125, 0.984375, 192.0, 0.0, 0.0, 0.0, 0.0, 0.0, 0.0, 0.0, 0.0, 0.0, 1.645921116371058E9, 0.0, 2022-02-27 11:18:36.371
82.0, -2737.8651783305622, -5969.636853890044, -2517.231108812226, -11295.387005256058, -1589.0078650722344, -340.372364565416, -6160.811324216285, -2318.0547139709847, -4463.442202024723, -7869.848057013519, -4643.999593734693, -3684.618018224003, -4773.930284253393, -3805.0268656047424, -10571.27989188193, -15665.398915457597, 0.01471875, -0.1033125, 0.984375, 192.0, 0.0, 0.0, 0.0, 0.0, 0.0, 0.0, 0.0, 0.0, 0.0, 1.645921116378575E9, 0.0, 2022-02-27 11:18:36.378
84.0, -2135.0162786264755, -5502.954781407689, -2063.9824347475096, -10797.501897514094, -1033.0976287242925, 90.21164062161931, -5798.087215195563, -1880.6087232361704, -2061.344928901783, -6771.304520524088, -4451.618129207865, -3421.6273929628605, -4665.390213178422, -3551.9157113928454, -10087.878714547005, -14396.736251918825, 0.01471875, -0.1033125, 0.984375, 192.0, 0.0, 0.0, 0.0, 0.0, 0.0, 0.0, 0.0, 0.0, 0.0, 1.645921116387929E9, 0.0, 2022-02-27 11:18:36.387
86.0, -2337.478379902647, -5664.379079863916, -2276.569876261935, -11030.451778227303, -1259.453744823187, -113.3009926439515, -6078.556904620756, -2253.502875984058, -4929.386666940054, -7649.683374128745, -4375.5998463153655, -3618.9038895254007, -4477.657911498298, -3569.081851134521, -10542.647307234682, -15633.950011008981, 0.015359375, -0.10265625, 0.9841875, 192.0, 0.0, 64.0, 126.0, 104.0, 15.0, 96.0, 0.0, 0.0, 0.0, 1.645921116394668E9, 0.0, 2022-02-27 11:18:36.394
88.0, -2544.7684579811644, -5809.039569978663, -2351.7164411206772, -11109.91222976592, -1419.9169182678365, -196.60594422888093, -5980.209229017405, -2095.096063029297, -2539.269928845159, -7244.8485785542225, -4661.143381731914, -3532.1344175498984, -4879.832849482638, -3785.3796822285276, -10266.782077167283, -14843.771141024965, 0.015359375, -0.10265625, 0.9841875, 192.0, 0.0, 0.0, 0.0, 0.0, 0.0, 0.0, 0.0, 0.0, 0.0, 1.645921116401204E9, 0.0, 2022-02-27 11:18:36.401
90.0, -1947.9545292800105, -5363.837523917857, -1975.2460092599404, -10694.817983486413, -892.7510252894194, 175.79647014099004, -5853.810114122643, -1942.456000144005, -3368.452592903685, -7012.882174597046, -4284.5611911489, -3464.118059172399, -4471.444126539723, -3446.638995008349, -10257.595510196152, -14844.978135225552, 0.015359375, -0.10265625, 0.9841875, 192.0, 0.0, 0.0, 0.0, 0.0, 0.0, 0.0, 0.0, 0.0, 0.0, 1.645921116409284E9, 0.0, 2022-02-27 11:18:36.409
92.0, -2711.221898939836, -5946.234577445338, -2510.704399431276, -11286.80393538522, -1588.761995883226, -344.73095473420085, -6186.672292551076, -2335.89140604632, -4489.169059892781, -7850.2008736373045, -4620.8431864789945, -3668.144782560442, -4758.485228834776, -3793.2251445323404, -10585.09326995531, -15685.493133722919, 0.015359375, -0.10265625, 0.9841875, 192.0, 0.0, 0.0, 0.0, 0.0, 0.0, 0.0, 0.0, 0.0, 0.0, 1.64592111641624E9, 0.0, 2022-02-27 11:18:36.416
94.0, -2139.2631100729836, -5505.9499151647, -2061.389632390694, -10800.295865571006, -1033.6340705912198, 85.80834696392381, -5804.457462365325, -1888.7000547289915, -2038.7249635130124, -6765.269549521155, -4436.3518877448905, -3406.204689288699, -4673.079213271048, -3550.2393305586975, -10090.203295970357, -14400.178420564942, 0.015359375, -0.10265625, 0.9841875, 192.0, 0.0, 0.0, 0.0, 0.0, 0.0, 0.0, 0.0, 0.0, 0.0, 1.645921116424192E9, 0.0, 2022-02-27 11:18:36.424
96.0, -2318.233527926627, -5650.811570979545, -2261.3259865434156, -11020.013513566675, -1231.6705264652403, -106.39430360726162, -6054.037040953283, -2248.272567781516, -4911.2594021868, -7629.276231441049, -4362.76994499802, -3615.595831346015, -4478.663739998787, -3552.742725937692, -10525.391760515186, -15620.382502124608, 0.016, -0.10400000000000001, 0.984, 192.0, 0.0, 64.0, 126.0, 96.0, 15.0, 96.0, 0.0, 0.0, 0.0, 1.645921116430918E9, 0.0, 2022-02-27 11:18:36.430
98.0, -2540.879254445941, -5802.579915831079, -2347.1566852517944, -11124.150290983951, -1412.4961391086745, -193.11907209385302, -5985.216019775394, -2085.2612954689616, -2570.718833293776, -7259.645433383636, -4659.2881869421235, -3541.030411843111, -4870.266302855766, -3767.565341897648, -10256.634385184572, -14862.70306857861, 0.016, -0.10400000000000001, 0.984, 192.0, 0.0, 0.0, 0.0, 0.0, 0.0, 0.0, 0.0, 0.0, 0.0, 1.645921116438849E9, 0.0, 2022-02-27 11:18:36.438
100.0, -1939.8631977871894, -5355.723840680581, -1970.3286254797729, -10693.342768352362, -878.7141297714866, 183.39606325579445, -5807.162023444417, -1919.2101859104857, -3318.6976097461716, -6983.735499827326, -4285.365853949292, -3468.677815041282, -4469.3430625609235, -3443.308585084508, -10229.968754049392, -14816.971399423051, 0.016, -0.10400000000000001, 0.984, 192.0, 0.0, 0.0, 0.0, 0.0, 0.0, 0.0, 0.0, 0.0, 0.0, 1.645921116446925E9, 0.0, 2022-02-27 11:18:36.446
102.0, -2709.8137390391516, -5937.025658729752, -2505.4070359953685, -11289.866124375598, -1572.4005189419413, -339.8806261873992, -6139.197187328004, -2328.7164960761665, -4494.444071584234, -7846.043449168617, -4618.3397911, -3670.9387506173553, -4768.051775461648, -3792.1969642873964, -10564.261444122963, -15679.72638365345, 0.016, -0.10400000000000001, 0.984, 192.0, 0.0, 0.0, 0.0, 0.0, 0.0, 0.0, 0.0, 0.0, 0.0, 1.645921116453487E9, 0.0, 2022-02-27 11:18:36.453
104.0, -2129.5177494904697, -5506.262839587073, -2058.729774800512, -10796.764289947068, -1021.3853146297115, 88.64701850974781, -5790.509973825214, -1890.7340634744244, -2031.2147773760294, -6756.686479650317, -4432.5967946763985, -3402.3378374979306, -4672.16279174838, -3539.8681211314347, -10077.328691164099, -14390.142487304509, 0.016, -0.10400000000000001, 0.984, 192.0, 0.0, 0.0, 0.0, 0.0, 0.0, 0.0, 0.0, 0.0, 0.0, 1.645921116461504E9, 0.0, 2022-02-27 11:18:36.461
106.0, -2303.8166527529543, -5641.35678307495, -2255.961567874142, -11013.196231507807, -1222.8862908943047, -100.38168434878402, -6093.107890261161, -2252.497047483569, -4897.244858413322, -7629.455045396691, -4346.81079945693, -3595.501613080694, -4485.570429035477, -3538.504664719661, -10523.60362095876, -15614.168717166034, 0.012, -0.108, 0.986, 192.0, 0.0, 48.0, 126.0, 80.0, 15.0, 104.0, 0.0, 0.0, 0.0, 1.645921116469643E9, 0.0, 2022-02-27 11:18:36.469
108.0, -2529.88219617393, -5796.321427383594, -2348.8107143414873, -11115.00842750173, -1410.126854196412, -192.62733371583627, -5957.544560139723, -2083.4061006791712, -2540.0969433900054, -7245.966165776988, -4646.033602480126, -3514.387132452385, -4875.027224424747, -3768.8170395871452, -10260.724754419894, -14857.204539442604, 0.012, -0.108, 0.986, 192.0, 0.0, 0.0, 0.0, 0.0, 0.0, 0.0, 0.0, 0.0, 0.0, 1.645921116483298E9, 0.0, 2022-02-27 11:18:36.483
110.0, -1921.0206772113654, -5336.456636960106, -1968.7863551123567, -10690.414689828718, -863.537295286333, 185.02774060103187, -5826.809206820632, -1922.6747063010582, -3306.4488537846632, -6965.228255418331, -4278.168592234682, -3455.736155001659, -4482.485888300645, -3422.5885179744387, -10231.756893605816, -14813.015140654463, 0.012, -0.108, 0.986, 192.0, 0.0, 0.0, 0.0, 0.0, 0.0, 0.0, 0.0, 0.0, 0.0, 1.645921116491287E9, 0.0, 2022-02-27 11:18:36.491
112.0, -2674.6991484998644, -5911.2764491172375, -2504.177690050327, -11275.762173624298, -1568.6454258734498, -345.1556378788517, -6177.977463957962, -2333.835045556432, -4532.330278435979, -7843.3388880895245, -4593.462299521244, -3654.9125498429003, -4751.533836309175, -3778.4729931918378, -10575.61613030626, -15699.462974007485, 0.012, -0.108, 0.986, 192.0, 0.0, 0.0, 0.0, 0.0, 0.0, 0.0, 0.0, 0.0, 0.0, 1.645921116499248E9, 0.0, 2022-02-27 11:18:36.499
114.0, -2124.175682565651, -5486.570952721948, -2071.0455859953863, -10801.435804538227, -1043.4464864070997, 75.05715788092111, -5793.259238393216, -1900.971162434955, -2000.1235008386973, -6761.357994241476, -4430.451027208689, -3388.1668315132656, -4693.128728047458, -3562.7116039647585, -10081.79904005516, -14396.08805132962, 0.012, -0.108, 0.986, 192.0, 0.0, 0.0, 0.0, 0.0, 0.0, 0.0, 0.0, 0.0, 0.0, 1.645921116506385E9, 0.0, 2022-02-27 11:18:36.506
116.0, -2275.541696016991, -5608.477366981193, -2242.438762478681, -10996.030091766132, -1206.4801104641094, -87.28356209797408, -6074.131259218605, -2240.024774077508, -4857.81638119416, -7584.036300663508, -4335.053781873439, -3590.539525811616, -4485.816298224485, -3536.2024350407646, -10515.93697261059, -15592.979263422403, 0.01, -0.106, 0.992, 192.0, 0.0, 40.0, 126.0, 88.0, 15.5, 0.0, 0.0, 0.0, 0.0, 1.645921116513757E9, 0.0, 2022-02-27 11:18:36.513
118.0, -2536.654774743888, -5803.988075731764, -2356.432659200747, -11126.944259040863, -1409.4786536072081, -215.38140957133885, -5952.895397293019, -2106.450749212593, -2612.583650658566, -7263.266415985396, -4647.486465869721, -3512.733103362692, -4885.845468741116, -3778.5624001696588, -10266.446801000453, -14890.530990425468, 0.01, -0.106, 0.992, 192.0, 0.0, 0.0, 0.0, 0.0, 0.0, 0.0, 0.0, 0.0, 0.0, 1.64592111652191E9, 0.0, 2022-02-27 11:18:36.521
120.0, -1894.42210130955, -5315.580107638849, -1955.4647154169936, -10677.49538153355, -854.8648184376739, 194.48252850562676, -5820.8189393066095, -1911.6105927956812, -3231.25758543701, -6949.336165110608, -4266.076298484361, -3437.474779781673, -4473.634597496342, -3439.3299745714635, -10212.467338140887, -14791.06572759935, 0.01, -0.106, 0.992, 192.0, 0.0, 0.0, 0.0, 0.0, 0.0, 0.0, 0.0, 0.0, 0.0, 1.645921116528907E9, 0.0, 2022-02-27 11:18:36.528
122.0, -2689.764224262741, -5919.479539332336, -2499.5732306925333, -11275.270435246282, -1554.764992566704, -331.58812899448026, -6130.681172690532, -2339.1994642257055, -4516.840519528451, -7816.494442998701, -4587.628494218408, -3637.0982095120207, -4746.862321718017, -3770.8734000770332, -10559.634633020716, -15687.236569790432, 0.01, -0.106, 0.992, 192.0, 0.0, 0.0, 0.0, 0.0, 0.0, 0.0, 0.0, 0.0, 0.0, 1.645921116535362E9, 0.0, 2022-02-27 11:18:36.535
124.0, -2130.545929735414, -5490.683673701725, -2067.3575481602606, -10797.077214369443, -1022.6370123192087, 86.4118440642171, -5788.207744146317, -1892.969237919955, -2010.4723585215045, -6748.841017346504, -4434.072009810449, -3385.6634361342713, -4691.407643724399, -3545.187836311798, -10066.219874169812, -14381.492362200304, 0.01, -0.106, 0.992, 192.0, 0.0, 0.0, 0.0, 0.0, 0.0, 0.0, 0.0, 0.0, 0.0, 1.645921116543342E9, 0.0, 2022-02-27 11:18:36.543
126.0, -2288.6174665233452, -5614.937021128777, -2251.513570727536, -10991.962074275265, -1202.4120929732435, -81.27094283949648, -6053.05356419725, -2223.149207013751, -4870.109840644579, -7594.183992646217, -4339.591185997866, -3584.4151478308618, -4484.989283679639, -3530.905071604857, -10506.258667261442, -15580.976376649902, 0.016, -0.10400000000000001, 0.992, 192.0, 0.0, 64.0, 126.0, 96.0, 15.5, 0.0, 0.0, 0.0, 0.0, 1.645921116551495E9, 0.0, 2022-02-27 11:18:36.551
128.0, -2548.0541644160944, -5800.680017552379, -2354.7115748776882, -11111.454500133337, -1404.158938426845, -191.64385695980275, -5961.254949719304, -2092.279743227928, -2606.0122377887055, -7248.715430344991, -4654.907245028883, -3514.342428963474, -4893.06508220018, -3764.726670351824, -10264.233978299377, -14861.920757522674, 0.016, -0.10400000000000001, 0.992, 192.0, 0.0, 0.0, 0.0, 0.0, 0.0, 0.0, 0.0, 0.0, 0.0, 1.645921116558777E9, 0.0, 2022-02-27 11:18:36.558
130.0, -1931.548348849815, -5338.53534919445, -1961.2985207198287, -10675.975462910588, -851.6238154916543, 198.59524948540326, -5809.441901378858, -1917.6008603097034, -3268.1826672771776, -6949.47027557734, -4285.164688249193, -3440.8275414499694, -4488.431452325756, -3430.0092971336007, -10215.663637597996, -14782.25914028396, 0.016, -0.10400000000000001, 0.992, 192.0, 0.0, 0.0, 0.0, 0.0, 0.0, 0.0, 0.0, 0.0, 0.0, 1.645921116566683E9, 0.0, 2022-02-27 11:18:36.566
132.0, -2700.604820323565, -5919.45718758788, -2501.003742337673, -11275.47160094638, -1566.186733983366, -335.32087031851654, -6159.470219548967, -2329.6999728322, -4575.692662679275, -7834.0629141405725, -4598.938476912794, -3645.144837515931, -4752.316147365111, -3765.0619465186533, -10571.391650604208, -15702.569866486772, 0.016, -0.10400000000000001, 0.992, 192.0, 0.0, 0.0, 0.0, 0.0, 0.0, 0.0, 0.0, 0.0, 0.0, 1.645921116573934E9, 0.0, 2022-02-27 11:18:36.573
134.0, -2154.3952410692264, -5495.779871437535, -2077.12526048723, -10796.205496335686, -1044.7428875855073, 80.7121492281138, -5805.2621251657165, -1884.7437959604022, -2010.7405794549682, -6748.438685946308, -4456.200236821203, -3395.5652589279725, -4700.348341506522, -3553.636795715904, -10072.165438194925, -14384.42044072395, 0.016, -0.10400000000000001, 0.992, 192.0, 0.0, 0.0, 0.0, 0.0, 0.0, 0.0, 0.0, 0.0, 0.0, 1.645921116581447E9, 0.0, 2022-02-27 11:18:36.581
136.0, -2286.5834577779124, -5607.1586140583295, -2233.922747841209, -10978.528675857626, -1195.0360173029921, -73.22431483558594, -6059.669680556021, -2223.529186669491, -4851.4684857688535, -7582.7398994851, -4345.424991300702, -3581.017682673655, -4482.016501667083, -3520.377399966407, -10504.22465851601, -15564.704306686439, 0.012, -0.10200000000000001, 0.992, 192.0, 0.0, 48.0, 126.0, 104.0, 15.5, 0.0, 0.0, 0.0, 0.0, 1.645921116589343E9, 0.0, 2022-02-27 11:18:36.589
138.0, -2560.5711413110666, -5811.5429653576575, -2356.4550109452025, -11115.701331579845, -1412.831415275504, -197.09768260689768, -5954.08003974915, -2100.929868332132, -2637.2823282816803, -7270.195456766541, -4663.06563175507, -3518.5892604099827, -4889.846430998616, -3760.569245883137, -10265.016289355313, -14881.053850776418, 0.012, -0.10200000000000001, 0.992, 192.0, 0.0, 0.0, 0.0, 0.0, 0.0, 0.0, 0.0, 0.0, 0.0, 1.645921116596445E9, 0.0, 2022-02-27 11:18:36.596
140.0, -1939.8631977871894, -5342.938642852145, -1962.974901553977, -10674.701413476636, -861.4138795630789, 199.7351884526239, -5795.449709349837, -1924.0158109683766, -3246.099143755334, -6948.665612776949, -4295.491194187545, -3433.809093691003, -4492.164193649793, -3416.1065120823996, -10210.030997995258, -14768.669279655132, 0.012, -0.10200000000000001, 0.992, 192.0, 0.0, 0.0, 0.0, 0.0, 0.0, 0.0, 0.0, 0.0, 0.0, 1.64592111661103E9, 0.0, 2022-02-27 11:18:36.611
142.0, -2698.839032511596, -5920.641830044011, -2503.820062139042, -11269.950720065919, -1565.9185130499022, -331.9904603946758, -6156.430382303046, -2333.6562316007894, -4610.963715429749, -7843.204777622793, -4612.304820097068, -3659.494657456238, -4752.360850854022, -3759.4516586603713, -10575.102040183789, -15702.77103218687, 0.012, -0.10200000000000001, 0.992, 192.0, 0.0, 0.0, 0.0, 0.0, 0.0, 0.0, 0.0, 0.0, 0.0, 1.645921116618976E9, 0.0, 2022-02-27 11:18:36.618
144.0, -2167.2698458754835, -5513.728322235146, -2083.517859401448, -10802.262819083075, -1058.1315825142362, 76.62177999279261, -5806.826747277588, -1870.975121375933, -2012.618125989214, -6755.904168594381, -4464.090402613927, -3394.0006368161007, -4709.3113910331, -3546.4842374902055, -10078.021595242215, -14375.345632475095, 0.012, -0.10200000000000001, 0.992, 192.0, 0.0, 0.0, 0.0, 0.0, 0.0, 0.0, 0.0, 0.0, 0.0, 1.645921116626064E9, 0.0, 2022-02-27 11:18:36.626
146.0, -2289.7574054905663, -5620.703771198246, -2241.701154911656, -10980.942664258799, -1197.6064679153524, -79.46045153861661, -6024.197462105449, -2207.212413217117, -4862.376137063043, -7588.886629210309, -4357.293767606469, -3592.9535142127893, -4489.861963970896, -3521.2938214890746, -10500.31310323633, -15555.227167037388, 0.01, -0.10200000000000001, 0.992, 192.0, 0.0, 40.0, 126.0, 104.0, 15.5, 0.0, 0.0, 0.0, 0.0, 1.645921116633814E9, 0.0, 2022-02-27 11:18:36.633
148.0, -2576.038548474139, -5831.190148733873, -2360.0312900580516, -11123.703256094845, -1423.3143834250432, -214.10736013738637, -5957.27633920626, -2102.98622882202, -2678.320131101624, -7295.162355323119, -4669.190009735824, -3540.1810455538093, -4900.239992170334, -3783.1892112719074, -10264.971585866402, -14899.516391696501, 0.01, -0.10200000000000001, 0.992, 192.0, 0.0, 0.0, 0.0, 0.0, 0.0, 0.0, 0.0, 0.0, 0.0, 1.645921116641659E9, 0.0, 2022-02-27 11:18:36.641
150.0, -1945.875817045667, -5358.048422103932, -1956.7387648509462, -10666.766544195003, -858.3516905727018, 196.76240644006808, -5786.263142378705, -1912.7505317629018, -3228.105989468812, -6958.478028592829, -4297.949886077629, -3432.4679890236844, -4498.199164652725, -3434.6584599803045, -10197.670483311473, -14758.767456861433, 0.01, -0.10200000000000001, 0.992, 192.0, 0.0, 0.0, 0.0, 0.0, 0.0, 0.0, 0.0, 0.0, 0.0, 1.645921116649708E9, 0.0, 2022-02-27 11:18:36.649
152.0, -2699.777805778719, -5925.425103357447, -2494.9017161013744, -11261.926443806464, -1556.5307803786732, -330.87287317191044, -6138.660745461077, -2333.186844967228, -4672.788640593129, -7857.644004540922, -4609.24263110669, -3649.123448028976, -4745.655327517429, -3747.9628620103435, -10566.943653457602, -15716.293837582332, 0.01, -0.10200000000000001, 0.992, 192.0, 0.0, 0.0, 0.0, 0.0, 0.0, 0.0, 0.0, 0.0, 0.0, 1.645921116656212E9, 0.0, 2022-02-27 11:18:36.656
154.0, -2162.6877382621456, -5510.688484989225, -2080.522725644437, -10807.671941241259, -1065.9099895846832, 71.27971306797423, -5800.970590230298, -1892.812775708768, -2011.7464079554568, -6762.453229719786, -4469.410117794289, -3385.5516774119947, -4715.368713780488, -3543.7126211777477, -10070.399650382955, -14388.957844848377, 0.01, -0.10200000000000001, 0.992, 192.0, 0.0, 0.0, 0.0, 0.0, 0.0, 0.0, 0.0, 0.0, 0.0, 1.645921116663303E9, 0.0, 2022-02-27 11:18:36.663
156.0, -2260.990710376586, -5595.446299963749, -2213.739122598067, -10965.899940240377, -1186.8552788323498, -54.49355298203862, -6057.501561343856, -2213.1579772422288, -4812.218822505334, -7544.272547277516, -4334.04795337295, -3565.3267580660295, -4466.727908459653, -3500.372588678907, -10491.238294987475, -15538.485710440364, 0.016, -0.106, 0.986, 192.0, 0.0, 64.0, 126.0, 88.0, 15.0, 104.0, 0.0, 0.0, 0.0, 1.645921116671259E9, 0.0, 2022-02-27 11:18:36.671
158.0, -2574.563333340089, -5834.453503424347, -2366.178019783261, -11128.464177663825, -1438.3347556990095, -204.96549665516577, -5961.411411930491, -2100.03579855392, -2703.3317331471126, -7277.996215581444, -4668.430050424344, -3525.5853564244935, -4892.327474633154, -3771.0969175215864, -10278.047356372757, -14910.6699121797, 0.016, -0.106, 0.986, 192.0, 0.0, 0.0, 0.0, 0.0, 0.0, 0.0, 0.0, 0.0, 0.0, 1.645921116679348E9, 0.0, 2022-02-27 11:18:36.679
160.0, -1941.8301512992564, -5359.769506426991, -1957.3422619512394, -10672.510942520017, -873.7743942468637, 200.80807218647865, -5799.405968118425, -1898.9595054339775, -3199.518108310474, -6944.932871452913, -4298.709845389109, -3441.833369950458, -4503.2730106440795, -3425.9412796427346, -10202.073776969168, -14743.635325865189, 0.016, -0.106, 0.986, 192.0, 0.0, 0.0, 0.0, 0.0, 0.0, 0.0, 0.0, 0.0, 0.0, 1.645921116686766E9, 0.0, 2022-02-27 11:18:36.686
162.0, -2693.161689419948, -5930.633059815534, -2492.197155022282, -11270.353051466114, -1555.9719867672904, -331.61048073893556, -6134.123341336649, -2338.9312432922416, -4681.952855819804, -7861.823780754064, -4600.771319958129, -3661.1933900348417, -4736.580519268575, -3754.1542952244636, -10572.911569227168, -15722.932305685557, 0.016, -0.106, 0.986, 192.0, 0.0, 0.0, 0.0, 0.0, 0.0, 0.0, 0.0, 0.0, 0.0, 1.645921116693975E9, 0.0, 2022-02-27 11:18:36.693
164.0, -2173.930665723165, -5528.301659620007, -2084.6354466242133, -10820.434787325239, -1066.0888035403257, 70.67621596768093, -5806.133843199474, -1883.4250430375391, -2002.068102606309, -6775.774869415149, -4473.902818429807, -3394.157099027288, -4708.573783466075, -3560.2305603302198, -10070.89138876097, -14385.090993057609, 0.015, -0.10500000000000001, 0.987, 192.0, 0.0, 56.0, 126.0, 96.0, 15.0, 112.0, 0.0, 0.0, 0.0, 1.645921116701944E9, 0.0, 2022-02-27 11:18:36.701
166.0, -2252.8770271393096, -5596.563887186514, -2210.34165744086, -10964.268262895139, -1177.4675461611207, -56.37109951628441, -6038.726096001398, -2205.871308549799, -4803.993380545781, -7540.316288508927, -4341.960470910129, -3571.0041011576777, -4463.553960746999, -3510.341466705974, -10490.701853120549, -15531.176690003478, 0.015, -0.10500000000000001, 0.987, 192.0, 0.0, 0.0, 0.0, 0.0, 0.0, 0.0, 0.0, 0.0, 0.0, 1.645921116708537E9, 0.0, 2022-02-27 11:18:36.708
168.0, -2575.546810096122, -5834.095875513062, -2367.116793050384, -11136.06377077863, -1436.9489475427804, -199.95870589717697, -5946.5475018677125, -2102.2039177660845, -2746.470599945855, -7312.261439831429, -4674.621483638463, -3531.441513471784, -4889.846430998616, -3773.1532780114744, -10282.94238840847, -14928.48425251058, 0.015, -0.10500000000000001, 0.987, 192.0, 0.0, 0.0, 0.0, 0.0, 0.0, 0.0, 0.0, 0.0, 0.0, 1.645921116716552E9, 0.0, 2022-02-27 11:18:36.716
170.0, -1943.2830146888514, -5357.9813668705665, -1956.448192173027, -10672.689756475658, -863.9843301754393, 208.29590657900653, -5771.7121567383, -1881.0110546363658, -3157.6085874567734, -6936.573319026628, -4295.580601165367, -3434.7925704470363, -4498.445033841734, -3422.7002766967153, -10192.73074778685, -14725.351598900748, 0.015, -0.10500000000000001, 0.987, 192.0, 0.0, 0.0, 0.0, 0.0, 0.0, 0.0, 0.0, 0.0, 0.0, 1.6459211167317E9, 0.0, 2022-02-27 11:18:36.731
172.0, -2690.904163229962, -5926.02860045774, -2498.5674021920445, -11272.968205567386, -1556.8437048010476, -330.3140795605278, -6143.935757152529, -2322.5921180954124, -4705.578649709064, -7873.781964037653, -4603.230011848213, -3677.1972390648416, -4735.239414601257, -3748.722821321824, -10575.213798906065, -15716.807927704804, 0.015, -0.10500000000000001, 0.987, 192.0, 0.0, 0.0, 0.0, 0.0, 0.0, 0.0, 0.0, 0.0, 0.0, 1.645921116738159E9, 0.0, 2022-02-27 11:18:36.738
174.0, -2181.373796626782, -5529.799226498512, -2100.9075165876766, -10818.28901985753, -1079.9245333581607, 74.56541950290436, -5788.0065784462195, -1870.393976020095, -1996.7260356814904, -6779.619369461462, -4480.0271964105605, -3415.77123591557, -4717.089798103547, -3551.2451590591863, -10070.287891660679, -14375.233873752819, 0.0135, -0.10450000000000001, 0.9864999999999999, 192.0, 0.0, 48.0, 126.0, 96.0, 15.0, 104.0, 0.0, 0.0, 0.0, 1.645921116746272E9, 0.0, 2022-02-27 11:18:36.746
176.0, -2244.7186404131226, -5591.512392939615, -2214.253212720539, -10951.393658088882, -1170.3149879354226, -43.63060517675939, -6016.150834101539, -2195.0754159778853, -4796.304380453155, -7538.483445463592, -4345.559101767433, -3573.2616273476638, -4477.2108766091915, -3507.9721817937116, -10484.152791995144, -15506.142736213535, 0.0135, -0.10450000000000001, 0.9864999999999999, 192.0, 0.0, 0.0, 0.0, 0.0, 0.0, 0.0, 0.0, 0.0, 0.0, 1.64592111675431E9, 0.0, 2022-02-27 11:18:36.754
178.0, -2570.8529437605075, -5832.643012123467, -2371.1177553078837, -11133.20274748835, -1437.8877208099034, -213.0121246590763, -5967.893417822531, -2108.9541445915875, -2760.731012908341, -7321.090378891276, -4674.509724916187, -3523.12666453441, -4887.611256553085, -3776.6401501465025, -10280.75191745185, -14928.372493788302, 0.0135, -0.10450000000000001, 0.9864999999999999, 192.0, 0.0, 0.0, 0.0, 0.0, 0.0, 0.0, 0.0, 0.0, 0.0, 1.645921116761499E9, 0.0, 2022-02-27 11:18:36.761
180.0, -1927.7932557813235, -5343.206863785608, -1952.357822937706, -10665.313680805408, -868.5664377887772, 208.36296181237245, -5798.646008806945, -1900.2782583568405, -3147.52795070743, -6931.588880013094, -4292.831336597364, -3430.054000622511, -4493.84057448394, -3426.477721509662, -10191.523753586263, -14720.747139542955, 0.0135, -0.10450000000000001, 0.9864999999999999, 192.0, 0.0, 0.0, 0.0, 0.0, 0.0, 0.0, 0.0, 0.0, 0.0, 1.645921116768967E9, 0.0, 2022-02-27 11:18:36.768
182.0, -2678.3424828460793, -5916.126777664039, -2491.526602688623, -11262.999327540318, -1557.4472019013408, -314.6231549529022, -6140.203015828492, -2340.764086337577, -4726.052847630125, -7857.576949307555, -4587.852011662962, -3663.786192391657, -4730.545548265642, -3742.0843532185977, -10579.170057674653, -15723.91578244159, 0.0135, -0.10450000000000001, 0.9864999999999999, 192.0, 0.0, 0.0, 0.0, 0.0, 0.0, 0.0, 0.0, 0.0, 0.0, 1.645921116776939E9, 0.0, 2022-02-27 11:18:36.776
184.0, -2192.14733745424, -5539.544587081026, -2103.030932310931, -10828.459063584694, -1082.629094437253, 61.62375946328157, -5797.707235539822, -1885.5261070163378, -2005.5326229968814, -6787.218962576266, -4490.219591882181, -3411.412645746785, -4730.925527921382, -3565.5949789994934, -10073.506542862242, -14380.46418195536, 0.01175, -0.10625000000000001, 0.98725, 192.0, 0.0, 40.0, 126.0, 80.0, 15.0, 112.0, 0.0, 0.0, 0.0, 1.645921116783969E9, 0.0, 2022-02-27 11:18:36.783
186.0, -2237.409619976237, -5587.556134171025, -2205.6924945941564, -10942.721181240224, -1160.7037378196405, -36.45569520660582, -6022.386970804569, -2187.7216920520896, -4781.865153535027, -7536.516491951525, -4346.676688990198, -3581.75529024068, -4475.780364964052, -3500.663161356826, -10482.275245460898, -15494.87745700806, 0.01175, -0.10625000000000001, 0.98725, 192.0, 0.0, 0.0, 0.0, 0.0, 0.0, 0.0, 0.0, 0.0, 0.0, 1.645921116791007E9, 0.0, 2022-02-27 11:18:36.791
188.0, -2589.717816080787, -5842.701297128356, -2386.495755493135, -11143.551605171157, -1444.1015057684788, -216.0743136494534, -5964.808877087698, -2117.939545862621, -2834.2011969329355, -7341.721039023524, -4684.456251198799, -3548.9876328692003, -4894.517945589775, -3787.3689874850497, -10290.854905945649, -14958.010906936039, 0.01175, -0.10625000000000001, 0.98725, 192.0, 0.0, 0.0, 0.0, 0.0, 0.0, 0.0, 0.0, 0.0, 0.0, 1.645921116798568E9, 0.0, 2022-02-27 11:18:36.798
190.0, -1931.101313960709, -5344.793837641935, -1951.1508287371194, -10666.453619772628, -854.4624870374784, 212.76625547006793, -5759.798676943622, -1900.0770926567427, -3107.652438599162, -6908.410121012941, -4300.296819245436, -3440.5816722609607, -4503.764749022097, -3429.7634279445924, -10179.453811580397, -14695.489668308457, 0.01175, -0.10625000000000001, 0.98725, 192.0, 0.0, 0.0, 0.0, 0.0, 0.0, 0.0, 0.0, 0.0, 0.0, 1.645921116806495E9, 0.0, 2022-02-27 11:18:36.806
192.0, -2679.7282910023087, -5910.538841550212, -2494.588791679, -11263.222844984872, -1545.9807569957684, -318.53471023258095, -6135.68796344852, -2332.6504031003005, -4745.588272284063, -7864.394231366424, -4587.71790119623, -3662.087459813054, -4715.83810041405, -3745.0347834866984, -10575.794944261903, -15723.1111196412, 0.01175, -0.10625000000000001, 0.98725, 192.0, 0.0, 0.0, 0.0, 0.0, 0.0, 0.0, 0.0, 0.0, 0.0, 1.645921116813714E9, 0.0, 2022-02-27 11:18:36.813
194.0, -2194.6283810887794, -5535.342459123428, -2106.60721142378, -10824.301639116007, -1082.3608735037892, 72.93374215766694, -5789.548848813635, -1885.4367000385166, -2008.6171637317138, -6771.416279246364, -4490.890144215839, -3403.880107865347, -4719.2802690601675, -3566.08671737751, -10068.65621431544, -14370.919987072944, 0.011875, -0.10512500000000001, 0.989625, 192.0, 0.0, 48.0, 126.0, 96.0, 15.5, 0.0, 0.0, 0.0, 0.0, 1.64592111682113E9, 0.0, 2022-02-27 11:18:36.821
196.0, -2241.678803167201, -5581.699977123735, -2211.1686719857066, -10934.182814858295, -1150.7572115370288, -21.189453743631095, -6001.5551449722225, -2182.066700704897, -4795.991456030781, -7527.39698021376, -4359.953625196651, -3575.608560515471, -4474.014577152083, -3496.8410130549687, -10475.055632001833, -15478.091296922124, 0.011875, -0.10512500000000001, 0.989625, 192.0, 0.0, 0.0, 0.0, 0.0, 0.0, 0.0, 0.0, 0.0, 0.0, 1.645921116829316E9, 0.0, 2022-02-27 11:18:36.829
198.0, -2585.5380398676443, -5837.515692414724, -2386.5404589820455, -11140.936451069887, -1429.550520128074, -202.506804765082, -5960.115010752083, -2135.262147815484, -2850.5179703853096, -7350.21470191654, -4699.923658361871, -3547.087734590499, -4891.478108343853, -3785.1338130395193, -10289.334987322687, -14951.663011510733, 0.011875, -0.10512500000000001, 0.989625, 192.0, 0.0, 0.0, 0.0, 0.0, 0.0, 0.0, 0.0, 0.0, 0.0, 1.645921116837093E9, 0.0, 2022-02-27 11:18:36.837
200.0, -1927.2344621699408, -5340.882282362257, -1956.5375991508483, -10664.888997660757, -838.7939141743082, 223.94212769772147, -5753.584891985046, -1881.100461614187, -3114.782645080405, -6915.205051327354, -4305.169499536693, -3435.0831431249553, -4486.464498813689, -3418.9451836282237, -10172.077735910147, -14692.896865951643, 0.011875, -0.10512500000000001, 0.989625, 192.0, 0.0, 0.0, 0.0, 0.0, 0.0, 0.0, 0.0, 0.0, 0.0, 1.645921116843656E9, 0.0, 2022-02-27 11:18:36.843
202.0, -2667.747755974264, -5904.414463569458, -2486.005721808162, -11258.774847838265, -1527.0041259532127, -307.0906170714637, -6108.687056146509, -2322.5921180954124, -4786.044929748169, -7864.617748810977, -4582.018206360127, -3664.076765069576, -4702.3152950185895, -3732.853082758556, -10565.401383090184, -15724.63103826416, 0.011875, -0.10512500000000001, 0.989625, 192.0, 0.0, 0.0, 0.0, 0.0, 0.0, 0.0, 0.0, 0.0, 0.0, 1.645921116858815E9, 0.0, 2022-02-27 11:18:36.858
204.0, -2209.402884173737, -5542.405610371306, -2115.1679295501626, -10832.795302009023, -1083.2772950264568, 58.114535583798364, -5789.705311024823, -1901.5076043018823, -2006.2478788194514, -6790.258799822188, -4495.427548340267, -3413.4690062366735, -4731.685487232863, -3581.084737907021, -10065.03523171368, -14379.726574388334, 0.0109375, -0.1065625, 0.9868125, 192.0, 0.0, 40.0, 126.0, 80.0, 15.0, 96.0, 0.0, 0.0, 0.0, 1.64592111686681E9, 0.0, 2022-02-27 11:18:36.866
206.0, -2217.0024772885417, -5565.67377634928, -2197.2211834455948, -10921.01763737412, -1132.8087607394173, -9.387732671228965, -5999.834060649164, -2162.1736481396733, -4746.638804273463, -7510.029674771986, -4340.9099389207295, -3563.851542931979, -4457.5413414885215, -3491.6777600857927, -10465.153809208132, -15454.398447799498, 0.0109375, -0.1065625, 0.9868125, 192.0, 0.0, 0.0, 0.0, 0.0, 0.0, 0.0, 0.0, 0.0, 0.0, 1.6459211168734E9, 0.0, 2022-02-27 11:18:36.873
208.0, -2589.3825399139573, -5838.923852315409, -2388.619171216389, -11149.966555829831, -1444.8838168244145, -208.72058972365735, -5952.515417637279, -2129.361287279283, -2887.130127803103, -7375.740394084501, -4683.763347120685, -3549.3676125249403, -4884.482012329342, -3777.489516435804, -10292.017196657323, -14969.902034986262, 0.0109375, -0.1065625, 0.9868125, 192.0, 0.0, 0.0, 0.0, 0.0, 0.0, 0.0, 0.0, 0.0, 0.0, 1.645921116881491E9, 0.0, 2022-02-27 11:18:36.881
210.0, -1929.8049127823012, -5340.5470061954275, -1960.806782341812, -10658.362288279806, -839.9338531415289, 222.71278175267958, -5751.215607072783, -1870.461031253461, -3050.3872693046656, -6897.547173207662, -4305.460072214612, -3430.612794233894, -4492.566525049988, -3421.090951095933, -10158.465523536865, -14656.284708533849, 0.0109375, -0.1065625, 0.9868125, 192.0, 0.0, 0.0, 0.0, 0.0, 0.0, 0.0, 0.0, 0.0, 0.0, 1.645921116889377E9, 0.0, 2022-02-27 11:18:36.889
212.0, -2680.979988691806, -5920.083036432628, -2505.071759828539, -11255.310327447693, -1537.1071144470113, -295.4006547213381, -6120.645239430099, -2307.459987099169, -4796.9972845312695, -7857.800466752108, -4586.28738955109, -3664.0097098362103, -4706.383312509455, -3735.6023473265586, -10567.323633113341, -15718.439605050042, 0.0109375, -0.1065625, 0.9868125, 192.0, 0.0, 0.0, 0.0, 0.0, 0.0, 0.0, 0.0, 0.0, 0.0, 1.645921116896442E9, 0.0, 2022-02-27 11:18:36.896
214.0, -2211.1910237301618, -5556.330747166961, -2118.0960080738078, -10838.986735223143, -1083.5455159599205, 71.61498923480383, -5781.85984872101, -1893.1927553645082, -2004.5938497297586, -6787.844811421015, -4495.896934973828, -3415.7488841711147, -4720.889594660949, -3561.9069411643677, -10060.184903166879, -14364.303870714173, 0.010468749999999999, -0.10528125, 0.9844062499999999, 192.0, 0.0, 40.0, 126.0, 96.0, 15.0, 88.0, 0.0, 0.0, 0.0, 1.645921116904039E9, 0.0, 2022-02-27 11:18:36.904
216.0, -2225.9655268151196, -5572.602817130425, -2207.257116706028, -10928.01373338863, -1125.5444437914425, -10.28180244944125, -5975.425955703969, -2158.6197207712794, -4750.103324664035, -7524.111273778829, -4341.871063932307, -3579.9671506842556, -4462.4140217797785, -3490.828393796491, -10451.966279979502, -15457.661802489973, 0.010468749999999999, -0.10528125, 0.9844062499999999, 192.0, 0.0, 0.0, 0.0, 0.0, 0.0, 0.0, 0.0, 0.0, 0.0, 1.645921116911038E9, 0.0, 2022-02-27 11:18:36.911
218.0, -2607.196880244837, -5848.848026853565, -2401.493776022646, -11150.614756419034, -1441.7098691117608, -216.63310726083606, -5958.840961318131, -2125.4273802551484, -2906.57614547922, -7386.290417467406, -4695.498012959721, -3553.860313160457, -4884.169087906967, -3799.327170768639, -10292.240714101878, -14974.90882574425, 0.010468749999999999, -0.10528125, 0.9844062499999999, 192.0, 0.0, 0.0, 0.0, 0.0, 0.0, 0.0, 0.0, 0.0, 0.0, 1.645921116918935E9, 0.0, 2022-02-27 11:18:36.918
220.0, -1937.71743031948, -5345.0620585753995, -1971.5132679359042, -10658.9657853801, -855.7588882158861, 218.6894677507243, -5762.011499644697, -1871.5786184762262, -3051.974243160992, -6888.740585892271, -4315.563060708411, -3423.2590703080978, -4503.161251921803, -3426.6341837208493, -10162.91352068347, -14659.592766713235, 0.010468749999999999, -0.10528125, 0.9844062499999999, 192.0, 0.0, 0.0, 0.0, 0.0, 0.0, 0.0, 0.0, 0.0, 0.0, 1.645921116925713E9, 0.0, 2022-02-27 11:18:36.925
222.0, -2659.7011279703534, -5896.457242543369, -2495.080530057017, -11247.911900032987, -1538.1129429475002, -298.1722710337962, -6125.652030188087, -2340.674679359756, -4811.883546338505, -7860.08034468655, -4577.9948923581715, -3655.1360672874534, -4706.69623693183, -3736.339954893584, -10576.733717529025, -15733.929363957568, 0.010468749999999999, -0.10528125, 0.9844062499999999, 192.0, 0.0, 0.0, 0.0, 0.0, 0.0, 0.0, 0.0, 0.0, 0.0, 1.645921116933689E9, 0.0, 2022-02-27 11:18:36.933
224.0, -2192.5273171099802, -5532.973174211165, -2121.672287186657, -10831.655363041802, -1095.7942719214288, 65.44590776513908, -5795.67322679439, -1895.5396885323155, -1976.6541691606249, -6793.790375446127, -4484.408138323801, -3399.052131063, -4721.180167338868, -3562.443383031295, -10075.071164974113, -14379.592463921603, 0.011234375, -0.10364062500000001, 0.988203125, 192.0, 0.0, 48.0, 126.0, 104.0, 15.5, 0.0, 0.0, 0.0, 0.0, 1.645921116941823E9, 0.0, 2022-02-27 11:18:36.941
226.0, -2179.160973925707, -5536.57180506847, -2188.2357821745613, -10900.029349330587, -1117.3190018318894, -0.1788139556424565, -5976.342377226637, -2167.672177275679, -4690.804146624106, -7479.7654127795, -4316.457130486623, -3552.385098026407, -4447.706573928186, -3480.434832624773, -10451.742762534948, -15441.188566826413, 0.011234375, -0.10364062500000001, 0.988203125, 192.0, 0.0, 0.0, 0.0, 0.0, 0.0, 0.0, 0.0, 0.0, 0.0, 1.645921116948706E9, 0.0, 2022-02-27 11:18:36.948
228.0, -2593.070577749083, -5844.847064596065, -2411.395598816347, -11150.078314552107, -1477.740881173716, -230.91587196777726, -5996.749519914332, -2145.2980810759163, -2951.570207067753, -7381.484792409515, -4671.961626048283, -3530.4133332268398, -4884.392605351521, -3782.585714171614, -10316.04532194678, -15021.221640255648, 0.011234375, -0.10364062500000001, 0.988203125, 192.0, 0.0, 0.0, 0.0, 0.0, 0.0, 0.0, 0.0, 0.0, 0.0, 1.645921116956344E9, 0.0, 2022-02-27 11:18:36.956
230.0, -1926.0274679693543, -5342.8939393632345, -1963.9807300544658, -10662.519712748493, -873.6402837801319, 205.90426992228865, -5772.248598605228, -1876.9877406344106, -2979.2640184478782, -6868.221684482299, -4296.631133154766, -3407.9704771006677, -4509.643257813842, -3431.216291334187, -10163.338203828122, -14647.634583429646, 0.011234375, -0.10364062500000001, 0.988203125, 192.0, 0.0, 0.0, 0.0, 0.0, 0.0, 0.0, 0.0, 0.0, 0.0, 1.645921116965756E9, 0.0, 2022-02-27 11:18:36.965
232.0, -2644.166665573915, -5878.531143490212, -2489.87257359893, -11250.527054134256, -1543.700879061327, -326.78250393658925, -6155.469257291467, -2368.726118651166, -4796.013807775236, -7819.400169777891, -4552.580958912487, -3658.667642911392, -4701.063597329092, -3741.5032078627596, -10575.929054728635, -15745.239346651953, 0.011234375, -0.10364062500000001, 0.988203125, 192.0, 0.0, 0.0, 0.0, 0.0, 0.0, 0.0, 0.0, 0.0, 0.0, 1.645921116978437E9, 0.0, 2022-02-27 11:18:36.978
234.0, -2195.097767722341, -5544.19374992773, -2122.0299150979417, -10838.606755567404, -1108.0206761384818, 34.62285216127064, -5824.864605053021, -1916.907956231589, -1950.9273112925664, -6781.027529362146, -4469.11954511637, -3389.619694902861, -4721.426036527877, -3586.180935642831, -10066.353984636544, -14392.310606516672, 0.008, -0.1, 0.99, 192.0, 0.0, 32.0, 126.0, 112.0, 15.0, 120.0, 0.0, 0.0, 0.0, 1.645921116986035E9, 0.0, 2022-02-27 11:18:36.986
236.0, -2173.1707064116845, -5531.944993966222, -2185.4641658621035, -10902.510392965127, -1128.7407432485513, -15.690924607625558, -5999.901115882531, -2177.842221002844, -4668.184181235335, -7474.803325510422, -4307.382322237769, -3543.667917688837, -4457.094306599415, -3494.2258589536978, -10459.610576583216, -15446.53063375123, 0.008, -0.1, 0.99, 192.0, 0.0, 0.0, 0.0, 0.0, 0.0, 0.0, 0.0, 0.0, 0.0, 1.645921116993921E9, 0.0, 2022-02-27 11:18:36.993
238.0, -2598.5020516517225, -5857.296986257671, -2407.2158226032047, -11166.797419404676, -1480.5572009750845, -253.245264678629, -5991.3403977561475, -2165.57111329688, -2950.854951245183, -7390.17962100263, -4671.2687219701675, -3535.88951061839, -4888.6841402869395, -3805.652714449491, -10324.85190926217, -15038.387779997323, 0.008, -0.1, 0.99, 192.0, 0.0, 0.0, 0.0, 0.0, 0.0, 0.0, 0.0, 0.0, 0.0, 1.645921117001894E9, 0.0, 2022-02-27 11:18:37.001
240.0, -1935.6834215740469, -5357.266111047997, -1964.0254335433763, -10668.755849451525, -875.7860512478413, 196.22596457314071, -5777.0318719186635, -1890.9575809189776, -2959.2815589048337, -6878.525838676195, -4297.815775610898, -3422.454407507707, -4522.450807386734, -3457.2113701357093, -10165.640433507018, -14655.368287011182, 0.008, -0.1, 0.99, 192.0, 0.0, 0.0, 0.0, 0.0, 0.0, 0.0, 0.0, 0.0, 0.0, 1.645921117008521E9, 0.0, 2022-02-27 11:18:37.008
242.0, -2654.4931715122666, -5909.3989025829915, -2488.687931142799, -11252.695173346421, -1539.0070127257125, -319.3170212885167, -6167.3156818527805, -2354.9127405777863, -4834.3917530049985, -7866.517647089679, -4554.056174046537, -3670.9163988729, -4699.163699050391, -3746.3535364095615, -10589.675377568648, -15756.638736324161, 0.008, -0.1, 0.99, 192.0, 0.0, 0.0, 0.0, 0.0, 0.0, 0.0, 0.0, 0.0, 0.0, 1.645921117016672E9, 0.0, 2022-02-27 11:18:37.016
244.0, -2224.9596983146307, -5572.938093297254, -2132.311717547383, -10851.615470840392, -1122.4151995676993, 22.08352352184338, -5802.132880941973, -1926.8544825142008, -1971.6697301470913, -6794.8632591799815, -4487.090347658437, -3409.713913168182, -4747.488170562765, -3597.1779939148423, -10078.669795831418, -14399.463164742372, 0.016, -0.10200000000000001, 0.984, 192.0, 0.0, 64.0, 126.0, 104.0, 15.0, 96.0, 0.0, 0.0, 0.0, 1.645921117024531E9, 0.0, 2022-02-27 11:18:37.024
246.0, -2183.8771920057766, -5547.4571046182045, -2174.377700612271, -10892.362700982416, -1111.529900017965, -15.802683329902093, -5983.718452896888, -2164.230008629562, -4649.63223333743, -7452.451581055115, -4306.287086759458, -3551.2898625480966, -4464.403327036301, -3508.2851062160858, -10452.323907890786, -15434.125415578535, 0.016, -0.10200000000000001, 0.984, 192.0, 0.0, 0.0, 0.0, 0.0, 0.0, 0.0, 0.0, 0.0, 0.0, 1.645921117031767E9, 0.0, 2022-02-27 11:18:37.031
248.0, -2622.686639152365, -5871.378585264514, -2416.245927363149, -11169.345518272581, -1485.765157433171, -255.65925307980217, -6007.344246786148, -2168.342729609338, -3029.5777952167746, -7400.550830429892, -4679.628274396453, -3549.792295669591, -4898.988294480836, -3811.0841883521307, -10333.211461688456, -15067.802675700508, 0.016, -0.10200000000000001, 0.984, 192.0, 0.0, 0.0, 0.0, 0.0, 0.0, 0.0, 0.0, 0.0, 0.0, 1.645921117038239E9, 0.0, 2022-02-27 11:18:37.038
250.0, -1931.973031994466, -5346.760791154003, -1959.4433259300383, -10660.10572434732, -871.7403855014308, 194.08019710543124, -5772.136839882951, -1893.3492175756953, -2906.598497223675, -6855.816466309603, -4304.454243714124, -3411.3679422578743, -4528.195205711747, -3461.7264225156814, -10153.190511845412, -14633.32946697825, 0.016, -0.10200000000000001, 0.984, 192.0, 0.0, 0.0, 0.0, 0.0, 0.0, 0.0, 0.0, 0.0, 0.0, 1.645921117046236E9, 0.0, 2022-02-27 11:18:37.046
252.0, -2648.7934766761637, -5887.6730069724335, -2489.9843323212067, -11243.5533098642, -1542.0468499716342, -315.91955613131, -6168.7238417534645, -2359.3607377243925, -4836.7386861728055, -7859.163923163882, -4548.892921077361, -3662.2886255131516, -4700.661265928897, -3747.493475376782, -10582.031080964933, -15757.935137502569, 0.016, -0.10200000000000001, 0.984, 192.0, 0.0, 0.0, 0.0, 0.0, 0.0, 0.0, 0.0, 0.0, 0.0, 1.64592111705417E9, 0.0, 2022-02-27 11:18:37.054
254.0, -2213.739122598067, -5562.298662936529, -2131.4623512580815, -10846.027534726565, -1132.4958363170429, 36.56745392888235, -5819.5225381282025, -1917.1761771650526, -1952.424878171072, -6792.672788223361, -4485.548077291021, -3409.9150788682796, -4747.152894395936, -3604.6211248184595, -10076.456973130344, -14388.108478559076, 0.01, -0.108, 0.986, 192.0, 0.0, 40.0, 126.0, 80.0, 15.0, 104.0, 0.0, 0.0, 0.0, 1.645921117060917E9, 0.0, 2022-02-27 11:18:37.060
0.0, -2156.406898070204, -5534.493092834126, -2161.57015103938, -10885.59012241246, -1114.2568128415123, 1.9893052565223286, -5998.716473426399, -2162.307758606405, -4625.805273748073, -7446.193092607629, -4299.581563422867, -3542.952661866267, -4463.732774702642, -3491.7001118302483, -10443.740838019949, -15413.271238001733, 0.01, -0.108, 0.986, 192.0, 0.0, 0.0, 0.0, 0.0, 0.0, 0.0, 0.0, 0.0, 0.0, 1.645921117068867E9, 0.0, 2022-02-27 11:18:37.068
2.0, -2597.8314993180634, -5847.976308819808, -2406.4111598028135, -11156.82854137761, -1490.637837724428, -244.9974709746207, -6033.764008732321, -2166.9345697086537, -3011.271716507878, -7401.13197578573, -4664.451439911299, -3525.339487235485, -4892.39452986652, -3798.4107492459716, -10328.808168030759, -15052.827006915451, 0.01, -0.108, 0.986, 192.0, 0.0, 0.0, 0.0, 0.0, 0.0, 0.0, 0.0, 0.0, 0.0, 1.645921117076919E9, 0.0, 2022-02-27 11:18:37.076
4.0, -1929.290822659829, -5333.595613669827, -1956.3587851952059, -10653.511959733005, -889.8676502546848, 193.0520168604871, -5774.148496883929, -1908.6601625275807, -2897.255468041357, -6839.052657968124, -4291.646694141233, -3395.7887763725257, -4522.830787042473, -3433.4738175241732, -10155.604500246585, -14621.304228461293, 0.01, -0.108, 0.986, 192.0, 0.0, 0.0, 0.0, 0.0, 0.0, 0.0, 0.0, 0.0, 0.0, 1.645921117084053E9, 0.0, 2022-02-27 11:18:37.084
6.0, -2658.4717820253113, -5918.7866352542205, -2482.2282769952153, -11234.031466726241, -1542.3150709050979, -320.792236422567, -6159.760792226886, -2361.908836592297, -4889.488803087331, -7860.572083064567, -4540.823941328996, -3653.4149829643948, -4690.6923879018295, -3727.466312344827, -10588.021348478955, -15768.708678330027, 0.01, -0.108, 0.986, 192.0, 0.0, 0.0, 0.0, 0.0, 0.0, 0.0, 0.0, 0.0, 0.0, 1.645921117091449E9, 0.0, 2022-02-27 11:18:37.091
8.0, -2298.8098619949656, -5629.443303280271, -2149.8131334558884, -10865.384145424861, -1148.3208713914003, 5.63263960273738, -5809.128976956485, -1920.61834581117, -1998.7600444269235, -6830.693105541838, -4519.567432351999, -3404.3047910099976, -4771.024557474203, -3617.495729624716, -10082.022557499715, -14413.343598049118, 0.012, -0.10400000000000001, 0.99, 192.0, 0.0, 48.0, 126.0, 96.0, 15.0, 120.0, 0.0, 0.0, 0.0, 1.645921117106486E9, 0.0, 2022-02-27 11:18:37.106
10.0, -2257.436783008192, -5615.92049788481, -2170.4884970770477, -10886.238323001662, -1113.206280852113, -2.3692849122625486, -5973.70487138091, -2149.8131334558884, -4619.569137045042, -7453.368002577782, -4327.320078291903, -3556.408412028362, -4466.45968752619, -3491.901277530346, -10429.97216343548, -15391.56769413563, 0.012, -0.10400000000000001, 0.99, 192.0, 0.0, 0.0, 0.0, 0.0, 0.0, 0.0, 0.0, 0.0, 0.0, 1.645921117113469E9, 0.0, 2022-02-27 11:18:37.113
12.0, -2743.0060795552827, -5987.205325031916, -2420.828034976487, -11173.190018318894, -1485.2063638217885, -253.42407863427147, -5985.3501302421255, -2140.6042147403023, -3075.8235544948047, -7453.747982233523, -4708.529079977165, -3575.1391738819093, -4899.278867158755, -3807.731426683835, -10326.70710405196, -15062.371201797869, 0.012, -0.10400000000000001, 0.99, 192.0, 0.0, 0.0, 0.0, 0.0, 0.0, 0.0, 0.0, 0.0, 0.0, 1.645921117121102E9, 0.0, 2022-02-27 11:18:37.121
14.0, -2093.9784758065316, -5505.011141897577, -1962.192590498041, -10663.257320315519, -865.5266005428554, 207.2677263340624, -5764.783115957155, -1865.7895166623018, -2940.930776707027, -6889.321731248108, -4337.601880741344, -3445.0520211520225, -4526.027086499583, -3439.5311402715615, -10139.779465172227, -14613.771690579855, 0.012, -0.10400000000000001, 0.99, 192.0, 0.0, 0.0, 0.0, 0.0, 0.0, 0.0, 0.0, 0.0, 0.0, 1.645921117129143E9, 0.0, 2022-02-27 11:18:37.129
16.0, -2827.1156939406033, -6074.5112388743455, -2485.625742152422, -11243.46390288638, -1528.7922655096372, -292.6290384088801, -6142.996983885406, -2331.4210571552585, -4938.260309488811, -7903.532135907667, -4580.4535842482555, -3695.950352662844, -4681.5952279085195, -3707.953239435344, -10573.291548882908, -15758.35982064722, 0.012, -0.10400000000000001, 0.99, 192.0, 0.0, 0.0, 0.0, 0.0, 0.0, 0.0, 0.0, 0.0, 0.0, 1.645921117137112E9, 0.0, 2022-02-27 11:18:37.137
18.0, -2429.276994380593, -5765.364261312993, -2145.2980810759163, -10865.272386702585, -1127.4666938145988, 36.858026606801346, -5795.852040750032, -1908.0790171717426, -2025.1127511397306, -6850.384992406964, -4545.89778732035, -3442.5709775174832, -4759.803981757639, -3590.0924909225096, -10067.873903259506, -14392.042385583209, 0.01, -0.106, 0.988, 192.0, 0.0, 40.0, 126.0, 88.0, 15.0, 112.0, 0.0, 0.0, 0.0, 1.645921117143775E9, 0.0, 2022-02-27 11:18:37.143
20.0, -2354.9127405777863, -5707.160318751374, -2168.8121162428997, -10885.433660201272, -1097.8729841557722, 22.351744455307063, -5966.798182344221, -2126.746133178012, -4662.015099765671, -7476.85968600031, -4355.885607705785, -3596.2615723921745, -4465.990300892628, -3478.9819692351784, -10422.841956954237, -15389.958368534848, 0.01, -0.106, 0.988, 192.0, 0.0, 0.0, 0.0, 0.0, 0.0, 0.0, 0.0, 0.0, 0.0, 1.64592111715186E9, 0.0, 2022-02-27 11:18:37.151
22.0, -2803.8922314515394, -6040.558939046734, -2432.629756048889, -11182.35423354557, -1501.2325645962435, -249.7136890546905, -6044.246976881859, -2161.5030958060142, -3159.754354924483, -7480.078337201874, -4736.22289135729, -3594.451081091295, -4902.072835215668, -3799.9977231022986, -10335.871319278636, -15088.500391066122, 0.01, -0.106, 0.988, 192.0, 0.0, 0.0, 0.0, 0.0, 0.0, 0.0, 0.0, 0.0, 0.0, 1.645921117158761E9, 0.0, 2022-02-27 11:18:37.158
24.0, -2109.13295854723, -5521.238508372129, -1969.6580731461136, -10672.10861111982, -883.2515338959139, 198.66230471876918, -5737.2904702771275, -1859.7992491482794, -2922.5576427647643, -6883.018539311713, -4360.914750208229, -3442.7497914731257, -4545.629566386887, -3454.5738642899832, -10141.902880895483, -14606.999112009897, 0.01, -0.106, 0.988, 192.0, 0.0, 0.0, 0.0, 0.0, 0.0, 0.0, 0.0, 0.0, 0.0, 1.645921117165783E9, 0.0, 2022-02-27 11:18:37.165
26.0, -2796.5608592701983, -6035.328630844192, -2492.688893400299, -11250.549405878712, -1530.4686463437852, -310.64454443985755, -6135.755018681886, -2359.0925167909286, -4970.223304059899, -7916.227926758281, -4594.401072788367, -3695.4586142848275, -4696.973228093771, -3738.105742705553, -10577.180752418131, -15769.200416708043, 0.01, -0.106, 0.988, 192.0, 0.0, 0.0, 0.0, 0.0, 0.0, 0.0, 0.0, 0.0, 0.0, 1.645921117173416E9, 0.0, 2022-02-27 11:18:37.173
28.0, -2382.0924618354397, -5710.155452508385, -2162.195999884129, -10877.945825808743, -1146.8680080018055, 15.735628096536171, -5817.2426601937605, -1918.4949300879157, -2022.5423005273701, -6866.768821092704, -4556.80543861454, -3445.297890341031, -4771.002205729747, -3620.379104659451, -10072.344252150566, -14412.181307337441, 0.012, -0.10200000000000001, 0.988, 192.0, 0.0, 48.0, 126.0, 104.0, 15.0, 112.0, 0.0, 0.0, 0.0, 1.645921117181378E9, 0.0, 2022-02-27 11:18:37.181
30.0, -2285.6223327663342, -5648.822265723022, -2170.6002557993243, -10882.10325027743, -1095.146071332225, 17.613174630781966, -5955.8234758166645, -2132.669345458668, -4618.831529478018, -7463.5603980494025, -4356.332642594891, -3564.119763865443, -4468.31488231598, -3508.2627544716306, -10422.529032531862, -15380.034193996693, 0.012, -0.10200000000000001, 0.988, 192.0, 0.0, 0.0, 0.0, 0.0, 0.0, 0.0, 0.0, 0.0, 0.0, 1.645921117189422E9, 0.0, 2022-02-27 11:18:37.189
32.0, -2740.703849876386, -5978.175220271972, -2438.1282851848946, -11184.567056246646, -1504.8758989424587, -255.23456993515134, -6007.813633419709, -2147.510903776992, -3155.239302544511, -7488.549648350436, -4736.446408801843, -3584.3927960864066, -4910.499442875319, -3820.740141956823, -10331.825653532225, -15090.422641089279, 0.012, -0.10200000000000001, 0.988, 192.0, 0.0, 0.0, 0.0, 0.0, 0.0, 0.0, 0.0, 0.0, 0.0, 1.645921117195996E9, 0.0, 2022-02-27 11:18:37.195
34.0, -2024.062219150331, -5437.307707942451, -1972.586151669759, -10669.336994807363, -887.0066269644054, 200.78572044202335, -5763.956101412309, -1864.5601707172598, -2895.1767558070133, -6864.935978047369, -4350.141209380771, -3428.377619788363, -4539.527540150588, -3448.605948520416, -10143.802779174182, -14600.762975306867, 0.012, -0.10200000000000001, 0.988, 192.0, 0.0, 0.0, 0.0, 0.0, 0.0, 0.0, 0.0, 0.0, 0.0, 1.645921117203954E9, 0.0, 2022-02-27 11:18:37.203
36.0, -2700.3589511345567, -5946.860426290086, -2485.3798729634136, -11237.138359205528, -1537.218873169288, -311.1586345623296, -6163.337071339735, -2351.7164411206772, -4942.529492679774, -7890.031682256661, -4565.187342785281, -3670.8493436395343, -4679.091832529525, -3734.149483936964, -10582.411060620674, -15769.155713219132, 0.012, -0.10200000000000001, 0.988, 192.0, 0.0, 0.0, 0.0, 0.0, 0.0, 0.0, 0.0, 0.0, 0.0, 1.64592111721224E9, 0.0, 2022-02-27 11:18:37.212
38.0, -2302.564955063457, -5642.742591231178, -2156.697470748123, -10867.261691959107, -1147.9855952245707, 10.19239547162002, -5838.208596492839, -1925.066342957776, -1980.0516343178315, -6845.557015604618, -4524.261298687613, -3401.8908026088243, -4756.004185200237, -3616.892232524423, -10078.446278386866, -14410.259057314284, 0.008, -0.10200000000000001, 0.988, 192.0, 0.0, 32.0, 126.0, 104.0, 15.0, 112.0, 0.0, 0.0, 0.0, 1.645921117225619E9, 0.0, 2022-02-27 11:18:37.225
40.0, -2206.7877300724663, -5575.1062125094195, -2161.8830754617543, -10873.117849006398, -1091.9050683862054, 17.34495369731828, -5970.530923668257, -2137.18439783864, -4570.61881668792, -7439.509921015492, -4324.749627679543, -3544.4949322336834, -4454.680318198242, -3491.0072077521336, -10421.25498309791, -15370.959385747838, 0.008, -0.10200000000000001, 0.988, 192.0, 0.0, 0.0, 0.0, 0.0, 0.0, 0.0, 0.0, 0.0, 0.0, 1.645921117233698E9, 0.0, 2022-02-27 11:18:37.233
42.0, -2696.626209810521, -5940.668993075967, -2449.1923986902716, -11190.266751082749, -1517.5716897930731, -273.3841864328607, -6011.747540443843, -2170.9802354550643, -3157.9885671125135, -7488.5049448615255, -4714.74286493574, -3575.8097262155684, -4899.345922392121, -3832.0948281401193, -10347.181301973022, -15112.908496011318, 0.008, -0.10200000000000001, 0.988, 192.0, 0.0, 0.0, 0.0, 0.0, 0.0, 0.0, 0.0, 0.0, 0.0, 1.645921117241753E9, 0.0, 2022-02-27 11:18:37.241
44.0, -1997.5530502263368, -5411.40203611875, -1986.2207157874961, -10669.739326207558, -904.4856911284556, 194.75074943909044, -5782.038662676652, -1879.0217493798436, -2858.542246644765, -6870.680376372383, -4346.855502945841, -3423.6166982193827, -4548.445886188256, -3467.9178557298014, -10147.20024433139, -14597.32080666075, 0.008, -0.10200000000000001, 0.988, 192.0, 0.0, 0.0, 0.0, 0.0, 0.0, 0.0, 0.0, 0.0, 0.0, 1.645921117248774E9, 0.0, 2022-02-27 11:18:37.248
46.0, -2685.875020727518, -5921.6029550555895, -2496.77926263562, -11248.157769221994, -1534.1343324344555, -305.3918844928604, -6137.230233815937, -2345.0556212729957, -4964.635367946073, -7878.185257695349, -4565.2543980186465, -3678.8736198989895, -4682.779870364651, -3719.4196843409163, -10591.418813636163, -15776.241216211465, 0.008, -0.10200000000000001, 0.988, 192.0, 0.0, 0.0, 0.0, 0.0, 0.0, 0.0, 0.0, 0.0, 0.0, 1.645921117256313E9, 0.0, 2022-02-27 11:18:37.256
48.0, -2302.944934719197, -5643.21197786474, -2174.0424244454416, -10882.8185061, -1171.298464691456, 7.219613459064181, -5834.162930746428, -1919.813683010779, -1996.1448903256526, -6853.536588375162, -4540.511016906621, -3433.58557624645, -4775.85253427655, -3642.730849114758, -10081.530819121697, -14416.696359717413, 0.006, -0.108, 0.986, 192.0, 0.0, 24.0, 126.0, 80.0, 15.0, 104.0, 0.0, 0.0, 0.0, 1.645921117264288E9, 0.0, 2022-02-27 11:18:37.264
50.0, -2175.3611773683047, -5553.089744220942, -2162.575979539869, -10866.009994269609, -1088.2617340399902, 18.149616497709335, -5969.7933161012315, -2128.8695489012657, -4548.4235344438, -7439.755790204501, -4322.715618934109, -3539.309327520052, -4462.2352078241365, -3502.5183561466165, -10428.407541323608, -15361.795170521162, 0.006, -0.108, 0.986, 192.0, 0.0, 0.0, 0.0, 0.0, 0.0, 0.0, 0.0, 0.0, 0.0, 1.645921117271387E9, 0.0, 2022-02-27 11:18:37.271
52.0, -2666.361947818035, -5910.695303761399, -2450.757020802143, -11186.086974869606, -1510.4191315673747, -264.6223026063803, -6022.901060927041, -2179.3844913702596, -3187.3811110712422, -7490.583657095869, -4704.438710741843, -3565.125592365932, -4898.92123924747, -3837.369839831572, -10357.127828255634, -15131.706313098231, 0.006, -0.108, 0.986, 192.0, 0.0, 0.0, 0.0, 0.0, 0.0, 0.0, 0.0, 0.0, 0.0, 1.645921117277987E9, 0.0, 2022-02-27 11:18:37.277
54.0, -1969.836887101756, -5382.747099727047, -1974.843677859745, -10665.179570338676, -887.051330453316, 192.6943889492022, -5772.248598605228, -1873.4785167549273, -2822.086551438159, -6845.087628971056, -4329.510549248523, -3407.545793956017, -4535.347763937445, -3475.7633180336143, -10145.121532097046, -14594.728004303934, 0.006, -0.108, 0.986, 192.0, 0.0, 0.0, 0.0, 0.0, 0.0, 0.0, 0.0, 0.0, 0.0, 1.645921117286008E9, 0.0, 2022-02-27 11:18:37.286
56.0, -2656.19190409087, -5905.912030447964, -2483.30116072907, -11231.550423091701, -1533.3743731229752, -309.7728264061006, -6161.526580038855, -2345.0556212729957, -4955.404097486031, -7887.349472922025, -4544.377868697389, -3657.0359655661546, -4667.1560009903915, -3735.2670711597293, -10595.442127638118, -15780.041012768866, 0.006, -0.109, 0.987, 192.0, 0.0, 24.0, 126.0, 72.0, 15.0, 112.0, 0.0, 0.0, 0.0, 1.645921117294062E9, 0.0, 2022-02-27 11:18:37.294
58.0, -2287.254010111572, -5616.032256607086, -2165.5934650413355, -10875.956520552221, -1172.8407350588723, 3.7103895795809723, -5854.34655598957, -1927.2344621699408, -1980.1186895511973, -6848.015707494701, -4530.855063301929, -3408.350456756408, -4769.683452806885, -3649.570482918082, -10091.85732506005, -14426.732292977846, 0.006, -0.109, 0.987, 192.0, 0.0, 0.0, 0.0, 0.0, 0.0, 0.0, 0.0, 0.0, 0.0, 1.645921117300969E9, 0.0, 2022-02-27 11:18:37.300
60.0, -2149.1649328666845, -5527.51934856407, -2142.9734996525644, -10847.592156838436, -1073.7331001440407, 35.69573589512538, -5955.84582756112, -2125.6956011886123, -4507.855118257417, -7418.454577738593, -4313.216127540604, -3525.2277285132086, -4448.287719284024, -3488.92849551779, -10420.87500344217, -15348.115902914513, 0.006, -0.109, 0.987, 192.0, 0.0, 0.0, 0.0, 0.0, 0.0, 0.0, 0.0, 0.0, 0.0, 1.645921117308769E9, 0.0, 2022-02-27 11:18:37.308
62.0, -2653.0850116115826, -5897.954809421874, -2440.296404397059, -11185.125849858028, -1509.3015443446095, -259.43669789274907, -6036.267404111315, -2168.2980261204275, -3216.1925096741334, -7506.8780788037875, -4700.102472317514, -3558.1294963514206, -4876.4800878143415, -3828.004458904798, -10361.776991102337, -15144.983249304683, 0.006, -0.109, 0.987, 192.0, 0.0, 0.0, 0.0, 0.0, 0.0, 0.0, 0.0, 0.0, 0.0, 1.645921117316527E9, 0.0, 2022-02-27 11:18:37.316
64.0, -1962.3714044536835, -5361.49059075005, -1972.9437795810438, -10666.900654661735, -886.8725164976736, 207.82651994544506, -5763.173790356373, -1850.523275199327, -2774.5890944706316, -6832.861224754003, -4331.589261482866, -3403.902459609802, -4524.171891709792, -3463.738079516659, -10133.230404046823, -14568.956442946965, 0.006, -0.109, 0.987, 192.0, 0.0, 0.0, 0.0, 0.0, 0.0, 0.0, 0.0, 0.0, 0.0, 1.645921117324726E9, 0.0, 2022-02-27 11:18:37.324
66.0, -2633.6613456799205, -5886.175440093928, -2483.614085151444, -11221.961524720375, -1521.5503003061176, -285.1412040163522, -6147.892015921118, -2332.583347866934, -4980.8403826761705, -7855.632347539944, -4542.299156463046, -3662.512142957705, -4658.416468908366, -3740.1173997065307, -10589.317749657363, -15771.390887664664, 0.01, -0.1075, 0.9875, 192.0, 0.0, 56.0, 126.0, 88.0, 15.0, 112.0, 0.0, 0.0, 0.0, 1.645921117331211E9, 0.0, 2022-02-27 11:18:37.331
68.0, -2287.1646031337505, -5618.200375819251, -2183.1395844387516, -10882.706747377724, -1186.430595687699, 16.473235663561304, -5859.4427537253805, -1918.7631510213796, -1991.451023990038, -6855.011803509213, -4544.690793119764, -3397.353398484397, -4776.768955799217, -3631.912604798389, -10091.633807615497, -14419.535031263236, 0.01, -0.1075, 0.9875, 192.0, 0.0, 0.0, 0.0, 0.0, 0.0, 0.0, 0.0, 0.0, 0.0, 1.645921117339143E9, 0.0, 2022-02-27 11:18:37.339
70.0, -2136.08916236033, -5517.259897859085, -2146.99681365452, -10849.089723716943, -1075.588294933831, 48.279768023463255, -5953.565949626679, -2112.1727957931516, -4481.50241154461, -7402.651894408691, -4318.848767143341, -3521.092655788977, -4449.852341395896, -3487.386225150374, -10421.478500542462, -15323.707797969319, 0.01, -0.1075, 0.9875, 192.0, 0.0, 0.0, 0.0, 0.0, 0.0, 0.0, 0.0, 0.0, 0.0, 1.645921117354365E9, 0.0, 2022-02-27 11:18:37.354
72.0, -2656.9518634023507, -5899.07239664464, -2447.6948318117657, -11190.534972016212, -1524.8807102299584, -253.58054084545861, -6017.670752724499, -2201.1327387252736, -3244.8027425769264, -7516.288163219472, -4708.462024743799, -3570.1994383572865, -4888.6841402869395, -3835.2464241083176, -10368.549569672296, -15155.510920943132, 0.01, -0.1075, 0.9875, 192.0, 0.0, 0.0, 0.0, 0.0, 0.0, 0.0, 0.0, 0.0, 0.0, 1.645921117360966E9, 0.0, 2022-02-27 11:18:37.360
74.0, -1954.7941630833345, -5371.660634477214, -1966.2829597333623, -10660.485704003062, -892.1251764446708, 215.00142991559864, -5792.007540703719, -1850.299757754774, -2755.634815172531, -6836.97394573378, -4330.941060893662, -3395.6546659057935, -4534.632508114875, -3475.517448844606, -10135.912613381459, -14564.128466144619, 0.01, -0.1075, 0.9875, 192.0, 0.0, 0.0, 0.0, 0.0, 0.0, 0.0, 0.0, 0.0, 0.0, 1.645921117369604E9, 0.0, 2022-02-27 11:18:37.369
76.0, -2615.0423425486497, -5874.396070765981, -2468.39254717738, -11220.50866133078, -1513.7271897467601, -285.0294452940757, -6149.926024666551, -2338.9982985256074, -4980.706272209439, -7871.993824481228, -4530.698601090741, -3642.730849114758, -4646.480637369232, -3716.8715854730112, -10596.04562473841, -15774.117800488211, 0.012, -0.10675, 0.98675, 192.0, 0.0, 56.0, 126.0, 88.0, 15.0, 104.0, 0.0, 0.0, 0.0, 1.645921117378311E9, 0.0, 2022-02-27 11:18:37.378
78.0, -2283.789489720999, -5615.071131595509, -2180.14445068174, -10899.96229409722, -1187.302313721456, -2.7492645680027685, -5821.936526529375, -1923.0323342123431, -1987.740634410457, -6853.804809308625, -4541.114514006915, -3412.4631777361847, -4770.957502240837, -3655.650157409925, -10092.416118671432, -14436.678819260458, 0.012, -0.10675, 0.98675, 192.0, 0.0, 0.0, 0.0, 0.0, 0.0, 0.0, 0.0, 0.0, 0.0, 1.645921117384456E9, 0.0, 2022-02-27 11:18:37.384
80.0, -2098.8735078422437, -5485.252199799085, -2127.7519616785007, -10836.930374733254, -1053.013033033971, 55.76760241599112, -5953.4765426488575, -2114.4303219831377, -4433.289698754514, -7360.049469476876, -4301.1685372791935, -3525.2724320021193, -4435.97190808915, -3490.9848560076784, -10408.067453869278, -15310.900248396427, 0.012, -0.10675, 0.98675, 192.0, 0.0, 0.0, 0.0, 0.0, 0.0, 0.0, 0.0, 0.0, 0.0, 1.645921117391503E9, 0.0, 2022-02-27 11:18:37.391
82.0, -2670.0499856531605, -5914.159824151972, -2461.3293959295033, -11204.817736723155, -1537.3082801471091, -278.2345149796623, -6028.779569718787, -2184.2124681726063, -3309.8239671974147, -7530.950907582153, -4696.2132687822905, -3576.145002382398, -4879.117593660068, -3843.203645134407, -10380.53010470034, -15184.545836990577, 0.012, -0.10675, 0.98675, 192.0, 0.0, 0.0, 0.0, 0.0, 0.0, 0.0, 0.0, 0.0, 0.0, 1.64592111739967E9, 0.0, 2022-02-27 11:18:37.399
84.0, -1965.9253318220774, -5377.919122924701, -1979.7610616399124, -10670.25341633003, -908.2407841969472, 196.8741651623446, -5764.4701915347805, -1864.2248945504302, -2720.475521144333, -6836.616317822495, -4345.000308156051, -3403.9471630987127, -4550.122267022403, -3485.8216030385024, -10131.95635461287, -14548.862224681643, 0.012, -0.10675, 0.98675, 192.0, 0.0, 0.0, 0.0, 0.0, 0.0, 0.0, 0.0, 0.0, 0.0, 1.645921117406589E9, 0.0, 2022-02-27 11:18:37.406
86.0, -2610.32612446858, -5874.284312043705, -2473.980483291207, -11221.73800727582, -1521.282079372654, -288.27044824009516, -6145.925062409051, -2346.4190776847695, -5001.828670719704, -7861.399097609413, -4528.865758045406, -3653.370279475484, -4645.161884446369, -3719.777312252201, -10595.151554960199, -15779.54927439085, 0.011, -0.106375, 0.985375, 192.0, 0.0, 40.0, 126.0, 88.0, 15.0, 96.0, 0.0, 0.0, 0.0, 1.645921117413066E9, 0.0, 2022-02-27 11:18:37.413
88.0, -2296.9770189496303, -5625.3529340449495, -2191.633247331768, -10904.745567410657, -1195.1254242808134, -12.651087361703798, -5848.915082086931, -1934.2305581844519, -1999.2070793160296, -6863.1701902354, -4546.61304314292, -3417.9170033832793, -4777.059528477136, -3663.093288313543, -10100.418043186432, -14445.23953738684, 0.011, -0.106375, 0.985375, 192.0, 0.0, 0.0, 0.0, 0.0, 0.0, 0.0, 0.0, 0.0, 0.0, 1.645921117421263E9, 0.0, 2022-02-27 11:18:37.421
90.0, -2109.4011794806934, -5485.676882943736, -2133.541063492425, -10837.176243922264, -1054.3988411902, 54.292387281940854, -5962.484295664346, -2126.7237814335563, -4431.278041753536, -7341.318707623328, -4308.3881507382575, -3527.0382198140887, -4440.844588380407, -3504.842937569969, -10410.101462614712, -15303.323007026078, 0.011, -0.106375, 0.985375, 192.0, 0.0, 0.0, 0.0, 0.0, 0.0, 0.0, 0.0, 0.0, 0.0, 1.64592111742921E9, 0.0, 2022-02-27 11:18:37.429
92.0, -2662.3386338160794, -5906.35906533707, -2465.397413420369, -11205.018902423251, -1536.704783046816, -273.85357306642214, -6030.09832264165, -2173.5506860674245, -3310.1145398753333, -7523.574831911902, -4702.4941089742315, -3576.1002988934874, -4876.144811647512, -3844.6341567795466, -10386.38626174763, -15182.802400923063, 0.011, -0.106375, 0.985375, 192.0, 0.0, 0.0, 0.0, 0.0, 0.0, 0.0, 0.0, 0.0, 0.0, 1.645921117436273E9, 0.0, 2022-02-27 11:18:37.436
94.0, -1959.2198084854854, -5366.340919296851, -1977.9282185945772, -10669.471105274095, -897.6460573251317, 197.09768260689768, -5775.221380617783, -1867.4435457519944, -2725.549367135688, -6820.120730414478, -4340.999345898551, -3404.4389014767294, -4549.027031544093, -3477.0373674675666, -10134.10212208058, -14548.191672347984, 0.011, -0.106375, 0.985375, 192.0, 0.0, 0.0, 0.0, 0.0, 0.0, 0.0, 0.0, 0.0, 0.0, 1.645921117444131E9, 0.0, 2022-02-27 11:18:37.444
96.0, -2597.9879615292507, -5856.693489157377, -2470.068928011528, -11211.545611804202, -1501.5231372741625, -269.8526108089222, -6142.728762951942, -2338.6853741032332, -5023.733380285905, -7863.70132728831, -4522.540214364554, -3657.4606487108053, -4638.948099487794, -3717.7209517623132, -10596.403252649696, -15779.415163924119, 0.0125, -0.10618749999999999, 0.9856875, 192.0, 0.0, 56.0, 126.0, 88.0, 15.0, 104.0, 0.0, 0.0, 0.0, 1.645921117451841E9, 0.0, 2022-02-27 11:18:37.451
98.0, -2300.8438707403984, -5628.415123035326, -2191.633247331768, -10910.53466922458, -1208.424712231721, -6.638468103226198, -5868.048175340674, -1946.8816455461558, -2016.4626260355267, -6879.509315432229, -4548.9376245662725, -3424.48841625314, -4781.574580857108, -3666.088422070554, -10099.456918174854, -14450.089865933642, 0.0125, -0.10618749999999999, 0.9856875, 192.0, 0.0, 0.0, 0.0, 0.0, 0.0, 0.0, 0.0, 0.0, 0.0, 1.645921117459797E9, 0.0, 2022-02-27 11:18:37.459
100.0, -2107.3001155018947, -5494.438766770216, -2118.8112638963776, -10834.09170318743, -1056.6116638912754, 58.8744948952788, -5961.769039841776, -2110.4293597256374, -4383.780584786008, -7348.605376315758, -4292.451356941624, -3514.923574319312, -4429.467550452656, -3497.4892136441727, -10407.016921879878, -15280.568931170576, 0.0125, -0.10618749999999999, 0.9856875, 192.0, 0.0, 0.0, 0.0, 0.0, 0.0, 0.0, 0.0, 0.0, 0.0, 1.645921117473446E9, 0.0, 2022-02-27 11:18:37.473
102.0, -2681.069395669627, -5920.910050977475, -2466.984387276696, -11226.163652677973, -1543.186788938855, -296.09355879945264, -6011.635781721567, -2191.6779508206787, -3389.709101880682, -7554.7331636826, -4705.958629364804, -3599.703741038292, -4880.8163262386715, -3865.667148311991, -10384.039328579824, -15212.53022104862, 0.0125, -0.10618749999999999, 0.9856875, 192.0, 0.0, 0.0, 0.0, 0.0, 0.0, 0.0, 0.0, 0.0, 0.0, 1.645921117481441E9, 0.0, 2022-02-27 11:18:37.481
104.0, -1978.8446401172448, -5395.755815000036, -1991.518079223404, -10685.787878726469, -912.666429599098, 187.84406040240054, -5765.341909568538, -1864.493115483894, -2686.2773521277136, -6819.405474591908, -4354.186875127181, -3426.9471081432234, -4547.954147810238, -3505.513489903628, -10128.2906685222, -14539.385085032593, 0.0125, -0.10618749999999999, 0.9856875, 192.0, 0.0, 0.0, 0.0, 0.0, 0.0, 0.0, 0.0, 0.0, 0.0, 1.645921117489489E9, 0.0, 2022-02-27 11:18:37.489
106.0, -2613.7906448591525, -5878.017053367741, -2483.2788089846144, -11217.826451996143, -1531.3850678664528, -272.8030410770227, -6185.5100018394, -2373.688205920244, -5024.672153553028, -7866.160019178394, -4529.290441190057, -3663.540323202649, -4639.05985821007, -3728.941527478877, -10601.72296783006, -15784.868989571214, 0.01225, -0.10709374999999999, 0.98784375, 192.0, 0.0, 48.0, 126.0, 80.0, 15.0, 120.0, 0.0, 0.0, 0.0, 1.645921117496042E9, 0.0, 2022-02-27 11:18:37.496
108.0, -2308.8457952553986, -5635.142998116374, -2199.679875335679, -10914.423872759804, -1225.4790932511203, -9.745360582513879, -5868.651672440967, -1950.5249798923708, -2006.7172654530127, -6861.538512890162, -4555.33022348049, -3417.6934859387266, -4783.474479135809, -3665.9319598593665, -10112.778557870217, -14447.787636254745, 0.01225, -0.10709374999999999, 0.98784375, 192.0, 0.0, 0.0, 0.0, 0.0, 0.0, 0.0, 0.0, 0.0, 0.0, 1.645921117504075E9, 0.0, 2022-02-27 11:18:37.504
110.0, -2104.059112555875, -5489.253162056585, -2125.963822122076, -10835.745732277124, -1065.4182512066664, 62.18255307466425, -5975.202438259415, -2116.956069106587, -4402.801919317475, -7346.772533270423, -4310.936249606162, -3535.7554001516583, -4444.711440171175, -3495.8128328100247, -10408.53684050284, -15289.97901558626, 0.01225, -0.10709374999999999, 0.98784375, 192.0, 0.0, 0.0, 0.0, 0.0, 0.0, 0.0, 0.0, 0.0, 0.0, 1.645921117512046E9, 0.0, 2022-02-27 11:18:37.512
112.0, -2661.0422326376715, -5891.4951552742905, -2472.01352977914, -11218.966390963364, -1563.079841504078, -279.5085644136148, -6084.6142273681435, -2226.9490035711533, -3374.912247051269, -7520.91497432172, -4704.684579930852, -3602.631819561937, -4873.663768012973, -3836.364011331083, -10408.469785269474, -15221.359160108466, 0.01225, -0.10709374999999999, 0.98784375, 192.0, 0.0, 0.0, 0.0, 0.0, 0.0, 0.0, 0.0, 0.0, 0.0, 1.645921117518784E9, 0.0, 2022-02-27 11:18:37.518
114.0, -1967.9593405675103, -5380.266056092508, -1991.8310036457783, -10671.840390186357, -930.212548996514, 196.60594422888093, -5793.952142471331, -1870.461031253461, -2672.7545467322525, -6794.505631268697, -4336.3278313073915, -3405.4000264883075, -4548.535293166076, -3490.314303674019, -10135.845558148094, -14537.060503609242, 0.01225, -0.10709374999999999, 0.98784375, 192.0, 0.0, 0.0, 0.0, 0.0, 0.0, 0.0, 0.0, 0.0, 0.0, 1.645921117525679E9, 0.0, 2022-02-27 11:18:37.525
116.0, -2602.4136069314013, -5871.043309097685, -2471.7900123345867, -11207.008207679773, -1531.765047522193, -280.5367446585589, -6168.120344653171, -2355.404478955803, -5038.418476393042, -7871.144458191927, -4520.4167986413, -3650.799828863124, -4639.126913443436, -3718.235041884785, -10603.421700408662, -15783.371422692708, 0.012125, -0.10854687499999999, 0.9899218750000001, 192.0, 0.0, 48.0, 126.0, 72.0, 15.5, 0.0, 0.0, 0.0, 0.0, 1.645921117533612E9, 0.0, 2022-02-27 11:18:37.533
118.0, -2303.660190541767, -5632.840768437478, -2199.7692823135, -10909.30532327954, -1234.486846266609, -24.72102936756961, -5865.611835195045, -1961.522038164382, -2003.4092072736273, -6872.98260605128, -4545.920139064806, -3413.58076495895, -4785.128508225502, -3669.530590716671, -10107.660008389952, -14460.326964894173, 0.012125, -0.10854687499999999, 0.9899218750000001, 192.0, 0.0, 0.0, 0.0, 0.0, 0.0, 0.0, 0.0, 0.0, 0.0, 1.6459211175417E9, 0.0, 2022-02-27 11:18:37.541
120.0, -2081.059167511364, -5474.433955482717, -2118.5206912184585, -10817.28319135704, -1064.3230157283565, 61.48964899654973, -5991.809784389709, -2117.9171941181653, -4358.366651340324, -7326.454797560549, -4294.731234876065, -3518.4551499432505, -4445.292585527013, -3500.640809612371, -10402.479517755452, -15280.077192792558, 0.012125, -0.10854687499999999, 0.9899218750000001, 192.0, 0.0, 0.0, 0.0, 0.0, 0.0, 0.0, 0.0, 0.0, 0.0, 1.645921117548277E9, 0.0, 2022-02-27 11:18:37.548
122.0, -2656.683642468887, -5899.988818167308, -2472.0358815235954, -11209.6457135255, -1565.829106072081, -291.4890994416594, -6078.378090665114, -2234.1686170302173, -3405.489433466129, -7543.7808088995, -4684.16567852088, -3574.2898075926078, -4877.463564570376, -3846.9363864584434, -10412.448395782518, -15245.58845109802, 0.012125, -0.10854687499999999, 0.9899218750000001, 192.0, 0.0, 0.0, 0.0, 0.0, 0.0, 0.0, 0.0, 0.0, 0.0, 1.645921117556268E9, 0.0, 2022-02-27 11:18:37.556
124.0, -1950.9943665259323, -5358.696622693136, -1984.3655209977057, -10672.287425075463, -924.2669849714024, 188.76048192506815, -5777.165982385395, -1882.195697092497, -2638.645784693454, -6787.1519073429, -4324.280241045981, -3387.4739274351514, -4543.528502408088, -3484.4581466267286, -10128.268316777745, -14537.351076287161, 0.012125, -0.10854687499999999, 0.9899218750000001, 192.0, 0.0, 0.0, 0.0, 0.0, 0.0, 0.0, 0.0, 0.0, 0.0, 1.645921117564376E9, 0.0, 2022-02-27 11:18:37.564
126.0, -2564.013309957184, -5837.873320326009, -2451.3158144135255, -11197.441661052902, -1512.6990095018161, -277.4969074126372, -6179.542086069833, -2368.4578977177025, -5031.355325145165, -7824.921050658352, -4491.381882593856, -3649.794000362635, -4620.418503334344, -3707.9308876908885, -10596.939694516623, -15790.702794874049, 0.01, -0.10400000000000001, 0.992, 192.0, 0.0, 40.0, 126.0, 96.0, 15.5, 0.0, 0.0, 0.0, 0.0, 1.645921117571455E9, 0.0, 2022-02-27 11:18:37.571
128.0, -2302.0285131965297, -5635.187701605285, -2199.05402649093, -10913.574506470502, -1248.3002243399887, -34.66755565018126, -5888.142393605995, -1968.1828580120634, -2002.1351578396748, -6877.721175875804, -4532.285574947068, -3401.622581675361, -4788.95065652736, -3672.72689017378, -10114.119662537536, -14474.967357512398, 0.01, -0.10400000000000001, 0.992, 192.0, 0.0, 0.0, 0.0, 0.0, 0.0, 0.0, 0.0, 0.0, 0.0, 1.645921117578797E9, 0.0, 2022-02-27 11:18:37.578
130.0, -2063.8483242807774, -5454.093868028387, -2101.5557171768805, -10804.497993528605, -1068.3463297303117, 65.42355602068378, -5978.286978994248, -2113.8715283717547, -4313.819624640897, -7307.120538606709, -4278.548571890423, -3497.064530499522, -4449.718230929164, -3480.9712744917006, -10396.1539740746, -15251.623422100953, 0.01, -0.10400000000000001, 0.992, 192.0, 0.0, 0.0, 0.0, 0.0, 0.0, 0.0, 0.0, 0.0, 0.0, 1.645921117586977E9, 0.0, 2022-02-27 11:18:37.586
132.0, -2662.4056890494453, -5895.853745443076, -2468.5490093885674, -11212.5961437936, -1581.184754512877, -295.9147448438102, -6079.450974398968, -2240.4941607110695, -3466.3308818734745, -7542.5067594655475, -4677.862486584483, -3575.541505282105, -4882.716224517372, -3836.4757700533596, -10415.890564428635, -15263.916881551371, 0.01, -0.10400000000000001, 0.992, 192.0, 0.0, 0.0, 0.0, 0.0, 0.0, 0.0, 0.0, 0.0, 0.0, 1.645921117601098E9, 0.0, 2022-02-27 11:18:37.601
134.0, -1961.2314654864629, -5380.601332259337, -1980.878648862678, -10664.218445327097, -938.66150840062, 179.1045283203755, -5778.797659730632, -1874.551400488782, -2599.641990618943, -6771.595093202007, -4332.5727382389, -3389.7538053695926, -4569.814153887529, -3506.116987003921, -10123.350932997577, -14512.741805641868, 0.01, -0.10400000000000001, 0.992, 192.0, 0.0, 0.0, 0.0, 0.0, 0.0, 0.0, 0.0, 0.0, 0.0, 1.645921117608625E9, 0.0, 2022-02-27 11:18:37.608
136.0, -2566.695519291821, -5853.6313001670005, -2446.4207823778133, -11182.220123078838, -1511.4026083234082, -268.82443056397807, -6178.379795358157, -2355.337423722437, -5045.012241007357, -7840.410809565879, -4483.067033656483, -3619.3956279034173, -4624.799445247584, -3701.4041783099387, -10596.269142182964, -15781.69504185856, 0.014, -0.10400000000000001, 0.988, 192.0, 0.0, 56.0, 126.0, 96.0, 15.0, 112.0, 0.0, 0.0, 0.0, 1.645921117616575E9, 0.0, 2022-02-27 11:18:37.616
138.0, -2325.9001762747976, -5651.370364590927, -2207.1006544948405, -10921.084692607486, -1258.1796953892347, -39.36142198579574, -5888.7905941951985, -1980.9680558404991, -2032.9582134435432, -6893.814431883626, -4540.913348306817, -3413.312544025486, -4803.14401425648, -3668.994148849744, -10119.014694573247, -14484.355090183628, 0.014, -0.10400000000000001, 0.988, 192.0, 0.0, 0.0, 0.0, 0.0, 0.0, 0.0, 0.0, 0.0, 0.0, 1.645921117623779E9, 0.0, 2022-02-27 11:18:37.623
140.0, -2081.9755890340316, -5473.517533960049, -2099.029970053431, -10798.306560314484, -1059.1597627591805, 67.34580604384018, -5956.024641516762, -2102.293324743906, -4299.201583767126, -7299.54329723636, -4282.907162059208, -3498.450338655751, -4454.2556350535915, -3483.251152426142, -10384.598122191206, -15236.021904471148, 0.014, -0.10400000000000001, 0.988, 192.0, 0.0, 0.0, 0.0, 0.0, 0.0, 0.0, 0.0, 0.0, 0.0, 1.645921117631139E9, 0.0, 2022-02-27 11:18:37.631
142.0, -2681.1364509029927, -5925.559213824179, -2455.920273771319, -11209.26573386976, -1582.1682312689104, -302.08382631347496, -6068.900951016063, -2230.860558850832, -3479.473707613195, -7562.869198664332, -4677.773079606662, -3573.529848281127, -4882.179782650445, -3841.61667127808, -10415.264715583888, -15262.486369906232, 0.014, -0.10400000000000001, 0.988, 192.0, 0.0, 0.0, 0.0, 0.0, 0.0, 0.0, 0.0, 0.0, 0.0, 1.645921117639084E9, 0.0, 2022-02-27 11:18:37.639
144.0, -2000.3693700277056, -5402.9754284591, -1968.67459639008, -10663.503189504527, -941.6342904131759, 182.83726964441178, -5805.619753077001, -1879.6699499690474, -2623.670115908398, -6785.766099186671, -4327.945927136651, -3381.9753982991456, -4567.981310842194, -3480.859515769424, -10118.612363173052, -14520.96724760142, 0.014, -0.10400000000000001, 0.988, 192.0, 0.0, 0.0, 0.0, 0.0, 0.0, 0.0, 0.0, 0.0, 0.0, 1.645921117647262E9, 0.0, 2022-02-27 11:18:37.647
146.0, -2644.5242934852, -5910.6282485280335, -2441.302232897548, -11188.7915359487, -1514.4871490582407, -281.9449045592433, -6165.996928929917, -2390.8990491508307, -5068.369813963153, -7835.895757185907, -4496.612190796398, -3638.595776390526, -4633.024887207137, -3691.2788380716847, -10595.33036891584, -15785.78541109388, 0.012, -0.106, 0.99, 192.0, 0.0, 48.0, 126.0, 88.0, 15.0, 120.0, 0.0, 0.0, 0.0, 1.645921117653183E9, 0.0, 2022-02-27 11:18:37.653
148.0, -2428.71820076921, -5746.499388992714, -2201.602125358835, -10916.904916394344, -1249.9542534296816, -36.925081840167266, -5875.692471944389, -1970.2839219908622, -2045.519893827426, -6898.485946474785, -4564.226217773702, -3421.8509104074137, -4804.462767179342, -3668.7706314051907, -10105.357778711055, -14480.063555248209, 0.012, -0.106, 0.99, 192.0, 0.0, 0.0, 0.0, 0.0, 0.0, 0.0, 0.0, 0.0, 0.0, 1.6459211176609E9, 0.0, 2022-02-27 11:18:37.660
150.0, -2228.021887305008, -5614.937021128777, -2100.1475572761965, -10797.792470192013, -1053.0353847784263, 78.36521606030657, -5953.923577537964, -2068.02810049392, -4340.999345898551, -7324.979582426498, -4321.754493922531, -3531.4191617273286, -4464.649196225309, -3480.993626236156, -10378.183171532533, -15230.746892779696, 0.012, -0.106, 0.99, 192.0, 0.0, 0.0, 0.0, 0.0, 0.0, 0.0, 0.0, 0.0, 0.0, 1.645921117668899E9, 0.0, 2022-02-27 11:18:37.668
152.0, -2865.672453126008, -6092.839669327697, -2471.4994396566676, -11214.831318239132, -1571.1264695079888, -291.42204420829347, -6092.8843728166075, -2233.207492018639, -3569.953569168278, -7610.232545165128, -4726.812806941606, -3620.9155465263784, -4890.651093799007, -3839.627366021558, -10413.789500449837, -15271.874102577462, 0.012, -0.106, 0.99, 192.0, 0.0, 0.0, 0.0, 0.0, 0.0, 0.0, 0.0, 0.0, 0.0, 1.645921117676921E9, 0.0, 2022-02-27 11:18:37.676
154.0, -2194.762491555511, -5593.613456918413, -1991.3616170122168, -10670.789858196958, -933.2076827535252, 201.21040358667418, -5793.326293626582, -1864.0684323392431, -2640.7021451833425, -6812.185861132844, -4382.685349307698, -3425.382486031352, -4577.413747002333, -3471.695300542748, -10118.835880617606, -14501.476526436392, 0.012, -0.106, 0.99, 192.0, 0.0, 0.0, 0.0, 0.0, 0.0, 0.0, 0.0, 0.0, 0.0, 1.645921117683516E9, 0.0, 2022-02-27 11:18:37.683
156.0, -2796.2702865922793, -6061.43546836799, -2449.2594539236375, -11187.383376048014, -1491.576610991551, -239.49894183861517, -6133.318678536258, -2329.7893798100213, -5149.752515524926, -7874.2737024156695, -4543.640261130365, -3686.7637856917127, -4634.67891629683, -3681.622884466992, -10589.295397912909, -15772.910806287624, 0.01, -0.11, 0.992, 192.0, 0.0, 40.0, 126.0, 72.0, 15.5, 0.0, 0.0, 0.0, 0.0, 1.645921117691372E9, 0.0, 2022-02-27 11:18:37.691
158.0, -2570.1823914268484, -5874.865457399543, -2225.0714570369073, -10937.110893381941, -1260.906608212782, -27.827921846857294, -5860.403878736959, -1945.4064304121055, -2129.696563446112, -6947.4809703208175, -4615.299953854079, -3472.1423354318545, -4820.757188887262, -3664.9037796144225, -10108.062339790147, -14482.924578538488, 0.01, -0.11, 0.992, 192.0, 0.0, 0.0, 0.0, 0.0, 0.0, 0.0, 0.0, 0.0, 0.0, 1.64592111769946E9, 0.0, 2022-02-27 11:18:37.699
160.0, -2285.64468451079, -5666.211922909251, -2098.471176442048, -10796.697234713702, -1036.629204348231, 101.36516110481753, -5927.906146991986, -2060.450859123571, -4312.612630440311, -7315.435387544083, -4340.2617383315255, -3541.0751153320216, -4457.563693232977, -3469.929512730779, -10359.452409678986, -15193.508886517155, 0.01, -0.11, 0.992, 192.0, 0.0, 0.0, 0.0, 0.0, 0.0, 0.0, 0.0, 0.0, 0.0, 1.645921117706713E9, 0.0, 2022-02-27 11:18:37.706
162.0, -2896.5178604743314, -6119.818224885253, -2485.1116520299497, -11234.7020190599, -1573.0710712756004, -286.1023290279304, -6042.235319880881, -2209.3358289403714, -3619.3285726700515, -7614.41232137827, -4742.570786782598, -3638.1934449903306, -4892.707454288895, -3829.546729272214, -10407.48630851344, -15280.948910826315, 0.01, -0.11, 0.992, 192.0, 0.0, 0.0, 0.0, 0.0, 0.0, 0.0, 0.0, 0.0, 0.0, 1.645921117721029E9, 0.0, 2022-02-27 11:18:37.721
164.0, -2182.1337559382628, -5572.356947941416, -1995.362579269717, -10682.658634502726, -929.050258284838, 196.2036128286854, -5744.0406971026305, -1854.6359961791036, -2637.5729009595993, -6813.817538478082, -4398.398625659779, -3439.128808871366, -4590.198944830769, -3498.8750218004016, -10104.419005443931, -14488.512514652315, 0.01, -0.11, 0.992, 192.0, 0.0, 0.0, 0.0, 0.0, 0.0, 0.0, 0.0, 0.0, 0.0, 1.645921117729231E9, 0.0, 2022-02-27 11:18:37.729
166.0, -2740.323870220646, -6014.340342800659, -2448.499494612157, -11184.097669613084, -1478.6573026963833, -245.46685760818215, -6139.241890816915, -2341.7028596047, -5142.175274154577, -7873.5584465931, -4533.939604036761, -3686.3167508026067, -4626.386419103911, -3692.6422944834585, -10578.946540230101, -15772.687288843072, 0.012, -0.106, 0.992, 192.0, 0.0, 48.0, 126.0, 88.0, 15.5, 0.0, 0.0, 0.0, 0.0, 1.64592111773579E9, 0.0, 2022-02-27 11:18:37.735
168.0, -2509.0280185971283, -5820.126035228495, -2225.831416348388, -10941.31302133954, -1254.491657554109, -30.264261992485764, -5878.553495234668, -1973.3684627256946, -2109.490586458515, -6952.443057589896, -4607.275677594624, -3461.860532982413, -4823.282936010711, -3691.5917624940594, -10105.201316499868, -14489.875971064088, 0.012, -0.106, 0.992, 192.0, 0.0, 0.0, 0.0, 0.0, 0.0, 0.0, 0.0, 0.0, 0.0, 1.645921117743804E9, 0.0, 2022-02-27 11:18:37.743
170.0, -2209.2240702180948, -5597.055625564531, -2088.278780970428, -10790.952836388688, -1024.2463379199908, 103.44387333916109, -5932.979992983341, -2073.5936848632914, -4279.0403102684395, -7301.532602492882, -4329.599956226344, -3535.9118623628456, -4466.616149737376, -3475.4056901223294, -10359.407706190075, -15189.82084868203, 0.012, -0.106, 0.992, 192.0, 0.0, 0.0, 0.0, 0.0, 0.0, 0.0, 0.0, 0.0, 0.0, 1.645921117753467E9, 0.0, 2022-02-27 11:18:37.753
172.0, -2815.6939525239413, -6046.638613538577, -2480.306026972059, -11232.64565857001, -1577.7872893556703, -288.0022273066315, -6080.210933710448, -2248.5854922038907, -3682.2040298228303, -7642.7096298586885, -4721.470740016787, -3631.7784943316574, -4884.593771051618, -3847.405773092005, -10423.780730221359, -15321.27145782369, 0.012, -0.106, 0.992, 192.0, 0.0, 0.0, 0.0, 0.0, 0.0, 0.0, 0.0, 0.0, 0.0, 1.645921117758878E9, 0.0, 2022-02-27 11:18:37.758
174.0, -2100.929868332132, -5500.540793006515, -1986.131308809675, -10681.384585068774, -929.0055547959274, 191.5320982375262, -5774.595531773035, -1863.46493523895, -2544.9919754257176, -6772.2656455356655, -4376.560971326944, -3407.6352009338384, -4588.723729696719, -3487.3638734059186, -10097.445261173876, -14474.967357512398, 0.012, -0.106, 0.992, 192.0, 0.0, 0.0, 0.0, 0.0, 0.0, 0.0, 0.0, 0.0, 0.0, 1.645921117766453E9, 0.0, 2022-02-27 11:18:37.766
176.0, -2651.5203894997107, -5924.55338532369, -2428.293517624559, -11174.419364263937, -1467.0790990685343, -239.49894183861517, -6155.737478224931, -2347.916644563275, -5113.63209648515, -7838.019172909162, -4500.523746076077, -3662.400384235428, -4614.137663142403, -3686.4285095248833, -10578.208932663076, -15763.83599803877, 0.012, -0.10200000000000001, 0.984, 192.0, 0.0, 48.0, 126.0, 104.0, 15.0, 96.0, 0.0, 0.0, 0.0, 1.64592111777344E9, 0.0, 2022-02-27 11:18:37.773
178.0, -2452.142828958372, -5762.503238022714, -2227.44074194917, -10949.806684232555, -1266.3827856043322, -52.59365470333752, -5883.6273412260225, -1989.9087536226218, -2112.575127193347, -6951.258415133765, -4593.127023354415, -3453.0762974114773, -4823.931136599915, -3695.950352662844, -10109.604610157563, -14511.19953527445, 0.012, -0.10200000000000001, 0.984, 192.0, 0.0, 0.0, 0.0, 0.0, 0.0, 0.0, 0.0, 0.0, 0.0, 1.64592111778146E9, 0.0, 2022-02-27 11:18:37.781
180.0, -2138.860778672788, -5535.945956223722, -2084.5013361574815, -10784.046147351999, -1017.1831866721138, 100.6499052822477, -5936.958603496386, -2073.1913534630958, -4224.278536352937, -7270.664843400103, -4304.141319291749, -3518.701019132259, -4454.792076920518, -3479.1384314463658, -10349.438828163007, -15175.471028741722, 0.012, -0.10200000000000001, 0.984, 192.0, 0.0, 0.0, 0.0, 0.0, 0.0, 0.0, 0.0, 0.0, 0.0, 1.645921117790027E9, 0.0, 2022-02-27 11:18:37.790
182.0, -2757.802934384696, -5986.959455842907, -2481.5130211726455, -11224.151995676995, -1581.5423824241618, -292.9196110867991, -6085.597704124178, -2237.700192654156, -3630.4597414087943, -7611.171318432251, -4701.68944617384, -3616.7134185687805, -4884.034977440236, -3845.0364881797423, -10416.941096418035, -15302.875972136972, 0.012, -0.10200000000000001, 0.984, 192.0, 0.0, 0.0, 0.0, 0.0, 0.0, 0.0, 0.0, 0.0, 0.0, 1.645921117796192E9, 0.0, 2022-02-27 11:18:37.796
184.0, -2053.812391020345, -5456.798429107479, -1987.58417219927, -10677.562436766915, -938.1921217670587, 190.861545903867, -5776.450726562825, -1859.4416212369945, -2546.511894048678, -6779.641721205917, -4362.546427553467, -3404.3718462433635, -4589.774261686118, -3494.605838609438, -10093.62311287202, -14468.23948243135, 0.012, -0.10200000000000001, 0.984, 192.0, 0.0, 0.0, 0.0, 0.0, 0.0, 0.0, 0.0, 0.0, 0.0, 1.64592111780393E9, 0.0, 2022-02-27 11:18:37.803
186.0, -2610.639048890954, -5883.604989481568, -2426.0583431790287, -11171.960672373853, -1461.3347007435204, -240.68358429474645, -6154.776353213353, -2343.4239439277585, -5105.876041159158, -7832.45358853979, -4487.112699402893, -3656.6783376548697, -4604.504061282166, -3681.1311460889756, -10569.245883136498, -15759.83503578127, 0.012, -0.10400000000000001, 0.986, 192.0, 0.0, 48.0, 126.0, 96.0, 15.0, 104.0, 0.0, 0.0, 0.0, 1.645921117812319E9, 0.0, 2022-02-27 11:18:37.812
188.0, -2396.3528747979253, -5707.160318751374, -2208.888794051265, -10932.238213090684, -1253.6422912648072, -34.44403820562818, -5884.521411004235, -1961.7008521200244, -2077.058205253864, -6933.242909102787, -4574.597427200964, -3442.928605428768, -4812.889374838994, -3680.2594280552185, -10097.624075129519, -14488.065479763209, 0.012, -0.10400000000000001, 0.986, 192.0, 0.0, 0.0, 0.0, 0.0, 0.0, 0.0, 0.0, 0.0, 0.0, 1.645921117818696E9, 0.0, 2022-02-27 11:18:37.818
190.0, -2075.515934886448, -5466.521437945537, -2056.5616555883475, -10761.13560928531, -1004.1744713991251, 127.29318467297372, -5915.478577074836, -2049.1408764291855, -4187.01817834594, -7229.850558024712, -4280.627284124766, -3500.618457867916, -4443.3926872483125, -3463.7157277722035, -10335.938374512003, -15161.255319268146, 0.012, -0.10400000000000001, 0.986, 192.0, 0.0, 0.0, 0.0, 0.0, 0.0, 0.0, 0.0, 0.0, 0.0, 1.645921117826682E9, 0.0, 2022-02-27 11:18:37.826
192.0, -2709.8584425280624, -5944.401734400003, -2455.428535393302, -11206.069434412651, -1561.1352397364665, -270.67962535376853, -6070.666738828032, -2231.4640559511254, -3642.2614624811963, -7616.155757445784, -4673.235675482235, -3606.0069329746884, -4858.509285272275, -3830.7090199838904, -10406.949866646513, -15308.732129184262, 0.012, -0.10400000000000001, 0.986, 192.0, 0.0, 0.0, 0.0, 0.0, 0.0, 0.0, 0.0, 0.0, 0.0, 1.645921117834606E9, 0.0, 2022-02-27 11:18:37.834
194.0, -2005.7337886969792, -5413.748969286557, -1965.902980077622, -10661.245663314541, -930.0560867853269, 201.76919719805684, -5753.1378570959405, -1856.8041153912684, -2489.0902625429944, -6758.541674440107, -4332.863310916819, -3384.1882210002213, -4562.013395072627, -3473.5057918436282, -10072.210141683834, -14454.38140086906, 0.012, -0.10400000000000001, 0.987, 192.0, 0.0, 48.0, 126.0, 96.0, 15.0, 112.0, 0.0, 0.0, 0.0, 1.645921117848288E9, 0.0, 2022-02-27 11:18:37.848
196.0, -2561.196990155815, -5834.29704121316, -2410.2780115935816, -11144.646840649468, -1471.057709581579, -230.96057545668788, -6156.184513114037, -2331.465760644169, -5078.6963199015045, -7805.922067871341, -4454.277986798047, -3629.8115408195904, -4589.19311633028, -3663.6744336693805, -10557.779438230926, -15753.889471756158, 0.012, -0.10400000000000001, 0.987, 192.0, 0.0, 0.0, 0.0, 0.0, 0.0, 0.0, 0.0, 0.0, 0.0, 1.645921117856321E9, 0.0, 2022-02-27 11:18:37.856
198.0, -2383.366511269392, -5687.088452230508, -2216.5554423994354, -10929.824224689512, -1268.841477494416, -32.968823071577916, -5866.3717945065255, -1976.7659278829012, -2069.2350946945066, -6920.994153141279, -4560.962863083228, -3422.7002766967153, -4816.823281863128, -3685.243867068752, -10094.025444272214, -14493.474601921393, 0.012, -0.10400000000000001, 0.987, 192.0, 0.0, 0.0, 0.0, 0.0, 0.0, 0.0, 0.0, 0.0, 0.0, 1.645921117864314E9, 0.0, 2022-02-27 11:18:37.864
200.0, -2062.864847524744, -5454.563254661948, -2062.1495917021743, -10755.011231304554, -1005.8285004888178, 119.15714969124195, -5934.522263350757, -2064.8541527812663, -4160.486657677491, -7244.088619242742, -4278.146240490227, -3492.21420195272, -4452.623957708354, -3458.5301230585724, -10331.602136087673, -15151.532310430088, 0.012, -0.10400000000000001, 0.987, 192.0, 0.0, 0.0, 0.0, 0.0, 0.0, 0.0, 0.0, 0.0, 0.0, 1.645921117870804E9, 0.0, 2022-02-27 11:18:37.870
202.0, -2714.507605374766, -5949.833208302643, -2478.428480437813, -11219.189908407916, -1585.4539377038407, -295.3783029768828, -6077.77459356482, -2242.572872945413, -3684.0368728681656, -7637.434618167236, -4681.282303486145, -3608.2644591646745, -4878.357634348587, -3837.7721712317675, -10423.087826143244, -15331.955591673326, 0.012, -0.10400000000000001, 0.987, 192.0, 0.0, 0.0, 0.0, 0.0, 0.0, 0.0, 0.0, 0.0, 0.0, 1.645921117878874E9, 0.0, 2022-02-27 11:18:37.878
204.0, -2017.0884748802753, -5421.281507167996, -1984.4102244866162, -10672.466239031106, -942.5730636802988, 193.65551396078038, -5771.734508482756, -1851.2832345108075, -2493.8735358564304, -6773.830267647537, -4348.151904124249, -3397.4651572066737, -4593.395244287878, -3488.1014809729436, -10083.765993567229, -14459.567005582692, 0.012, -0.10300000000000001, 0.9884999999999999, 192.0, 0.0, 48.0, 126.0, 104.0, 15.0, 120.0, 0.0, 0.0, 0.0, 1.645921117887274E9, 0.0, 2022-02-27 11:18:37.887
206.0, -2555.005556941695, -5836.934547058886, -2409.9427354267523, -11144.132750526995, -1460.4182792208528, -216.63310726083606, -6145.254510075392, -2322.79328379551, -5095.683645687538, -7825.457492525279, -4469.298359072013, -3646.8435700945342, -4608.013285161649, -3668.8823901274673, -10566.80954299087, -15757.108122957723, 0.012, -0.10300000000000001, 0.9884999999999999, 192.0, 0.0, 0.0, 0.0, 0.0, 0.0, 0.0, 0.0, 0.0, 0.0, 1.645921117893864E9, 0.0, 2022-02-27 11:18:37.893
208.0, -2401.0243893890847, -5707.495594918203, -2226.5243204265025, -10943.101160895963, -1288.1757364482567, -55.54408497143805, -5884.5661144931455, -1984.4102244866162, -2100.7957578654, -6959.528560582228, -4577.9948923581715, -3439.6876024827484, -4835.777561161228, -3693.8045851951347, -10113.449110203876, -14519.134404556085, 0.012, -0.10300000000000001, 0.9884999999999999, 192.0, 0.0, 0.0, 0.0, 0.0, 0.0, 0.0, 0.0, 0.0, 0.0, 1.645921117900584E9, 0.0, 2022-02-27 11:18:37.900
210.0, -2076.298245942384, -5473.785754893513, -2049.252635151462, -10744.438856177194, -1007.4601778340552, 126.2650044280296, -5919.524242821246, -2038.8590739797444, -4111.782206509377, -7230.43170338055, -4280.739042847043, -3493.823527553502, -4456.848437410407, -3465.190942906254, -10328.718761052938, -15125.425472906289, 0.012, -0.10300000000000001, 0.9884999999999999, 192.0, 0.0, 0.0, 0.0, 0.0, 0.0, 0.0, 0.0, 0.0, 0.0, 1.645921117908491E9, 0.0, 2022-02-27 11:18:37.908
212.0, -2756.4394779729223, -5992.078005323173, -2471.320625701025, -11218.36289386307, -1581.4306237018852, -288.8962970848438, -6093.867849572641, -2244.2939572684713, -3771.856876833067, -7663.586159179946, -4684.992693065727, -3614.254726678697, -4866.958244676381, -3837.369839831572, -10431.045047169335, -15361.526949587698, 0.012, -0.10300000000000001, 0.9884999999999999, 192.0, 0.0, 0.0, 0.0, 0.0, 0.0, 0.0, 0.0, 0.0, 0.0, 1.645921117916616E9, 0.0, 2022-02-27 11:18:37.916
214.0, -2086.311827458361, -5490.8177841684565, -1979.1128610507085, -10667.437096528662, -942.081325302282, 209.25703159058472, -5780.295226609138, -1840.6661558945366, -2433.4791223381903, -6775.417241503864, -4372.850581747363, -3404.8859363658353, -4591.562401242542, -3495.343446176463, -10073.104211462047, -14430.129758135052, 0.015000000000000001, -0.10250000000000001, 0.98925, 192.0, 0.0, 72.0, 126.0, 104.0, 15.0, 120.0, 0.0, 0.0, 0.0, 1.645921117923788E9, 0.0, 2022-02-27 11:18:37.923
216.0, -2639.606909705032, -5921.826472500143, -2397.1798893427717, -11137.87426207951, -1444.2579679796659, -202.79737744300098, -6118.052437073283, -2311.6174115678564, -5111.061645872789, -7828.363219304469, -4478.596684765421, -3661.595721435037, -4585.013340117138, -3651.1351050299536, -10557.086534152812, -15733.415273835097, 0.015000000000000001, -0.10250000000000001, 0.98925, 192.0, 0.0, 0.0, 0.0, 0.0, 0.0, 0.0, 0.0, 0.0, 0.0, 1.645921117931046E9, 0.0, 2022-02-27 11:18:37.931
218.0, -2527.423504283846, -5832.777122590199, -2224.5797186588907, -10942.050628906563, -1275.6364078088293, -40.92604409766723, -5864.6060066945565, -1966.037090544354, -2138.771371694967, -6993.190287731921, -4607.588602016998, -3468.029614452078, -4817.829110363617, -3687.3225793030956, -10097.892296062982, -14504.359901471127, 0.015000000000000001, -0.10250000000000001, 0.98925, 192.0, 0.0, 0.0, 0.0, 0.0, 0.0, 0.0, 0.0, 0.0, 0.0, 1.645921117939166E9, 0.0, 2022-02-27 11:18:37.939
220.0, -2202.406788159226, -5596.742701142157, -2044.1117339267414, -10733.128873482809, -979.1181658647258, 158.63033039931423, -5923.547556823201, -2021.0223819044093, -4130.289450918371, -7227.011886478888, -4315.227784541582, -3519.438626699284, -4443.705611670686, -3458.4854195696616, -10312.111414922645, -15094.781231258063, 0.015000000000000001, -0.10250000000000001, 0.98925, 192.0, 0.0, 0.0, 0.0, 0.0, 0.0, 0.0, 0.0, 0.0, 0.0, 1.645921117947275E9, 0.0, 2022-02-27 11:18:37.947
222.0, -2904.989171622893, -6134.92800413704, -2480.5518961610674, -11231.013981224774, -1574.345120709553, -273.56300038850316, -6076.008805752851, -2223.1045035248403, -3832.13953162903, -7701.025331142585, -4724.354115051522, -3655.046660309632, -4855.96118640437, -3823.9587931583874, -10429.167500635089, -15347.244184880756, 0.015000000000000001, -0.10250000000000001, 0.98925, 192.0, 0.0, 0.0, 0.0, 0.0, 0.0, 0.0, 0.0, 0.0, 0.0, 1.645921117953719E9, 0.0, 2022-02-27 11:18:37.953
224.0, -2222.769227358011, -5621.463730509727, -1989.707587922524, -10682.993910669555, -945.7470113929525, 200.53985125301497, -5766.191275857839, -1859.1734003035308, -2492.5100794446566, -6826.803902006615, -4419.655134636776, -3454.640919523349, -4596.971523400727, -3504.887641058879, -10069.527932349198, -14424.653580743503, 0.0155, -0.10425000000000001, 0.988625, 192.0, 0.0, 64.0, 126.0, 88.0, 15.0, 112.0, 0.0, 0.0, 0.0, 1.645921117968944E9, 0.0, 2022-02-27 11:18:37.968
226.0, -2716.8545385425737, -5995.296656524737, -2393.2906858075485, -11129.470006164314, -1413.7925402870824, -190.1686418257525, -6133.989230869917, -2299.5251178175354, -5170.249065190443, -7851.184350393338, -4512.571336337488, -3691.3235415605955, -4581.258247048646, -3651.0009945632214, -10559.27700510943, -15734.219936635487, 0.0155, -0.10425000000000001, 0.988625, 192.0, 0.0, 0.0, 0.0, 0.0, 0.0, 0.0, 0.0, 0.0, 0.0, 1.64592111797747E9, 0.0, 2022-02-27 11:18:37.977
228.0, -2585.4262811453677, -5889.125870362029, -2237.2978612539605, -10965.207036162263, -1297.809338308494, -61.154372829720124, -5895.40671055397, -1970.261570246407, -2203.904355037732, -7001.751005858303, -4642.479675111732, -3495.5893153654715, -4828.736761657806, -3720.8725477305115, -10118.522956195231, -14536.009971619842, 0.0155, -0.10425000000000001, 0.988625, 192.0, 0.0, 0.0, 0.0, 0.0, 0.0, 0.0, 0.0, 0.0, 0.0, 1.6459211179834E9, 0.0, 2022-02-27 11:18:37.983
230.0, -2194.1366427107623, -5594.1275470408855, -2039.6190332912247, -10746.204643989164, -979.0064071424493, 135.56333012143733, -5880.87807665802, -2016.037942890876, -4094.705473745522, -7247.329622188762, -4324.637868957266, -3540.6280804429152, -4440.576367446944, -3478.445527368251, -10305.987036941891, -15080.900797951317, 0.0155, -0.10425000000000001, 0.988625, 192.0, 0.0, 0.0, 0.0, 0.0, 0.0, 0.0, 0.0, 0.0, 0.0, 1.645921117991455E9, 0.0, 2022-02-27 11:18:37.991
232.0, -2856.843514066162, -6085.77651807982, -2479.143736260383, -11231.371609136058, -1587.1079667935333, -294.79715762104485, -6100.953352564973, -2250.7089079271445, -3848.456305081404, -7719.331409851481, -4721.3366295500555, -3664.1661720473976, -4855.134171859524, -3847.852807981111, -10432.408503581108, -15370.601757836552, 0.0155, -0.10425000000000001, 0.988625, 192.0, 0.0, 0.0, 0.0, 0.0, 0.0, 0.0, 0.0, 0.0, 0.0, 1.645921117999506E9, 0.0, 2022-02-27 11:18:37.999
234.0, -2136.223272827062, -5535.767142268079, -1985.550163453837, -10681.9210269357, -944.1376857921704, 205.14431061080822, -5772.472116049781, -1854.3007200122738, -2451.204055691249, -6792.091642867523, -4402.712512339654, -3436.513654770095, -4593.350540798967, -3495.0081700096334, -10073.37243239551, -14420.56321150818, 0.012750000000000001, -0.10412500000000001, 0.9893125, 192.0, 0.0, 40.0, 126.0, 96.0, 15.0, 120.0, 0.0, 0.0, 0.0, 1.645921118006162E9, 0.0, 2022-02-27 11:18:38.006
236.0, -2638.1763980598926, -5921.737065522321, -2393.983589885663, -11143.149273770961, -1431.6962875957834, -197.63412447382504, -6131.038800601817, -2308.0411324550073, -5130.977050182468, -7824.3175535580585, -4486.88918195834, -3682.271085056196, -4559.062964804526, -3649.726945129269, -10552.37031607274, -15726.083901653756, 0.012750000000000001, -0.10412500000000001, 0.9893125, 192.0, 0.0, 0.0, 0.0, 0.0, 0.0, 0.0, 0.0, 0.0, 0.0, 1.645921118014022E9, 0.0, 2022-02-27 11:18:38.014
238.0, -2482.4964979286788, -5792.678093037378, -2232.7828088739884, -10962.033088449609, -1285.359416646888, -45.8881313667454, -5874.6419399549895, -1974.7319191374684, -2141.5876914963355, -7002.086282025133, -4634.991840719204, -3493.6447135978597, -4818.8349388641045, -3704.4216638114053, -10104.486060677298, -14520.028474334298, 0.012750000000000001, -0.10412500000000001, 0.9893125, 192.0, 0.0, 0.0, 0.0, 0.0, 0.0, 0.0, 0.0, 0.0, 0.0, 1.64592111802119E9, 0.0, 2022-02-27 11:18:38.021
240.0, -2107.7024469020903, -5514.845909457911, -2043.3070711263504, -10749.356239957362, -974.2231338290136, 144.86165581484508, -5869.456335241358, -2030.8571494647445, -4068.0174908658855, -7241.607575608204, -4327.655354458732, -3531.9779553387116, -4438.788227890519, -3470.667120297804, -10301.51668805083, -15091.60728354541, 0.012750000000000001, -0.10412500000000001, 0.9893125, 192.0, 0.0, 0.0, 0.0, 0.0, 0.0, 0.0, 0.0, 0.0, 0.0, 1.645921118029456E9, 0.0, 2022-02-27 11:18:38.029
242.0, -2772.219809558369, -6008.23831656436, -2480.1272130164166, -11231.393960880514, -1590.0583970616337, -289.5221459295924, -6089.330445448214, -2254.441649251181, -3840.879063711055, -7699.393653797348, -4703.49993747472, -3651.045698052132, -4852.854293925082, -3838.1968543764183, -10434.330753604265, -15377.217874195323, 0.012750000000000001, -0.10412500000000001, 0.9893125, 192.0, 0.0, 0.0, 0.0, 0.0, 0.0, 0.0, 0.0, 0.0, 0.0, 1.645921118035738E9, 0.0, 2022-02-27 11:18:38.035
244.0, -2071.2243999510288, -5468.823667624434, -1999.6988176940463, -10679.507038534528, -959.113354577226, 200.6069064863809, -5767.845304947532, -1847.46108620895, -2410.9038604383304, -6766.297729766099, -4391.290770922991, -3419.3698667728745, -4589.483689008199, -3495.8575362989354, -10064.878769502493, -14415.735234705835, 0.011375, -0.1060625, 0.98965625, 192.0, 0.0, 40.0, 126.0, 80.0, 15.0, 120.0, 0.0, 0.0, 0.0, 1.645921118043746E9, 0.0, 2022-02-27 11:18:38.043
246.0, -2536.0289258991393, -5824.529328886191, -2370.8495343744203, -11120.931639782386, -1428.097656738479, -183.10549057787546, -6131.2176145574595, -2301.246202140594, -5103.149128335611, -7794.656788665866, -4462.481077013144, -3653.1914655198416, -4562.169857283814, -3630.213872219786, -10550.671583494137, -15725.905087698113, 0.011375, -0.1060625, 0.98965625, 192.0, 0.0, 0.0, 0.0, 0.0, 0.0, 0.0, 0.0, 0.0, 0.0, 1.645921118051937E9, 0.0, 2022-02-27 11:18:38.051
