%OpenBCI Raw EEG Data
%Number of channels = 16
%Sample Rate = 125 Hz
%Board = OpenBCI_GUI$BoardCytonSerialDaisy
Sample Index, EXG Channel 0, EXG Channel 1, EXG Channel 2, EXG Channel 3, EXG Channel 4, EXG Channel 5, EXG Channel 6, EXG Channel 7, EXG Channel 8, EXG Channel 9, EXG Channel 10, EXG Channel 11, EXG Channel 12, EXG Channel 13, EXG Channel 14, EXG Channel 15, Accel Channel 0, Accel Channel 1, Accel Channel 2, Other, Other, Other, Other, Other, Other, Other, Analog Channel 0, Analog Channel 1, Analog Channel 2, Timestamp, Other, Timestamp (Formatted)
0.0, -1811.1395014690759, -3522.858443600946, -960.3427005222679, -4880.570457049663, -389.143870966896, 716.5522237482338, -2910.152424592069, -1745.3806692815626, -1099.4376062676438, -3645.234244493752, -1053.4824196675324, -252.26178792259552, -2670.2735030977137, -1972.2508755029294, -6971.240874676809, -6363.11696328127, 0.01, -0.1, 0.994, 192.0, 0.0, 40.0, 126.0, 112.0, 15.5, 8.0, 0.0, 0.0, 0.0, 1.645920234854309E9, 0.0, 2022-02-27 11:03:54.854
2.0, -3627.1516832294087, -6997.86180232308, -1890.8681739411563, -9783.760879488096, -797.8902218210962, 1440.5475784000848, -5838.745038359766, -3604.084682951532, -5262.8299907243245, -8244.128017917636, -3586.8514879764903, -2075.247713952984, -4956.968719597902, -4236.281423125437, -12098.663997490883, -14182.42772608134, 0.01, -0.1, 0.994, 192.0, 0.0, 0.0, 0.0, 0.0, 0.0, 0.0, 0.0, 0.0, 0.0, 1.645920234860648E9, 0.0, 2022-02-27 11:03:54.860
4.0, -3945.261710317339, -7181.548438256793, -2009.578288743292, -9949.901396024394, -1046.598082375298, 1223.4450845056874, -5828.2173667213165, -3553.860313160457, -3528.088751803488, -7918.977191326284, -3606.051636463599, -1743.8383989141464, -4980.862734420626, -4160.084326277295, -11598.320197858835, -13562.345631402211, 0.01, -0.1, 0.994, 192.0, 0.0, 0.0, 0.0, 0.0, 0.0, 0.0, 0.0, 0.0, 0.0, 1.645920234867833E9, 0.0, 2022-02-27 11:03:54.867
6.0, -3569.439479045806, -6981.679139337438, -1890.9128774300668, -9728.887346850319, -736.3111658467252, 1477.606770706984, -5833.760599346233, -3534.146074550876, -3793.046330576698, -7654.980737564652, -3559.6941184632924, -1910.1800811505416, -4933.968774553392, -4160.911340822142, -11761.912615527228, -13471.977528569405, 0.01, -0.1, 0.994, 192.0, 0.0, 0.0, 0.0, 0.0, 0.0, 0.0, 0.0, 0.0, 0.0, 1.645920234874753E9, 0.0, 2022-02-27 11:03:54.874
8.0, -3865.5330378452586, -7091.493259846361, -1966.7970498558343, -9901.778090212118, -984.7731572119186, 1304.3807511783543, -5836.129884258496, -3601.313066639074, -5100.533974234339, -8387.1791824316, -3612.734808055736, -1967.3781952116724, -4972.749051183349, -4220.568146773356, -12004.965484734235, -14224.069026001576, 0.012, -0.1, 0.99, 192.0, 0.0, 48.0, 126.0, 112.0, 15.0, 120.0, 0.0, 0.0, 0.0, 1.645920234882785E9, 0.0, 2022-02-27 11:03:54.882
10.0, -3774.829658845623, -7103.2055739409425, -1972.3402824807506, -9836.37688593589, -889.4429671100339, 1342.64693768584, -5829.714933599822, -3496.393978165863, -2752.572626182154, -7464.610930038802, -3580.5929995290044, -1713.5964886661159, -4959.807391143727, -4091.2409533549494, -11463.852103215708, -13091.506134451169, 0.012, -0.1, 0.99, 192.0, 0.0, 0.0, 0.0, 0.0, 0.0, 0.0, 0.0, 0.0, 0.0, 1.645920234890196E9, 0.0, 2022-02-27 11:03:54.890
12.0, -3628.5151396411825, -6989.658712107982, -1899.7641682343685, -9766.5053327686, -786.2449629598813, 1450.091773282501, -5849.876207098509, -3618.9932965032217, -5244.568615504339, -8219.652857739075, -3592.6629415348702, -2075.6276936087243, -4954.9570625969245, -4231.9675364455625, -12100.34037832503, -14160.925347915334, 0.012, -0.1, 0.99, 192.0, 0.0, 0.0, 0.0, 0.0, 0.0, 0.0, 0.0, 0.0, 0.0, 1.645920234897496E9, 0.0, 2022-02-27 11:03:54.897
14.0, -3957.465762789937, -7177.525124254838, -2021.1564923711412, -9939.105503452482, -1046.5533788863872, 1220.7181716821399, -5822.048285251652, -3551.6474904593815, -3594.9204677248563, -7935.159854311926, -3618.0992267250094, -1746.2300355708642, -4983.209667588433, -4165.918131580131, -11618.526174846433, -13582.35044268971, 0.012, -0.1, 0.99, 192.0, 0.0, 0.0, 0.0, 0.0, 0.0, 0.0, 0.0, 0.0, 0.0, 1.645920234905455E9, 0.0, 2022-02-27 11:03:54.905
16.0, -3569.3947755568956, -6975.554761356683, -1902.200508379997, -9720.818367101952, -734.6347850125773, 1466.6544159238836, -5855.844122868076, -3562.4210312868395, -3743.3136991636397, -7632.114902986873, -3562.3316243090185, -1891.426967552539, -4943.289451991254, -4156.2398262309825, -11747.674554309197, -13444.127254978092, 0.013000000000000001, -0.10300000000000001, 0.991, 192.0, 0.0, 56.0, 126.0, 88.0, 15.5, 0.0, 0.0, 0.0, 0.0, 1.645920234913438E9, 0.0, 2022-02-27 11:03:54.913
18.0, -3860.436840109449, -7091.4709081019055, -1971.066233046798, -9887.808249927552, -972.3679390392232, 1303.061998255491, -5848.624509409012, -3593.0429211906103, -5143.806951499814, -8384.429917863597, -3613.1594912003866, -1962.773735853879, -4978.851077419648, -4239.768295260465, -12016.320170917532, -14234.82021508458, 0.013000000000000001, -0.10300000000000001, 0.991, 192.0, 0.0, 0.0, 0.0, 0.0, 0.0, 0.0, 0.0, 0.0, 0.0, 1.645920234920011E9, 0.0, 2022-02-27 11:03:54.920
20.0, -3792.1522607984857, -7101.909172762535, -1977.5482389388371, -9835.639278368864, -901.1776329490701, 1337.1037050609239, -5815.834500293076, -3491.901277530346, -2758.249969273802, -7474.780973765966, -3580.5929995290044, -1692.1611657334765, -4969.351586026142, -4111.379875109181, -11458.822960713263, -13095.551800197578, 0.013000000000000001, -0.10300000000000001, 0.991, 192.0, 0.0, 0.0, 0.0, 0.0, 0.0, 0.0, 0.0, 0.0, 0.0, 1.645920234928032E9, 0.0, 2022-02-27 11:03:54.928
22.0, -3623.2624796941855, -6972.1349444550215, -1892.7233687309467, -9759.039850120527, -786.2449629598813, 1450.7623256161603, -5843.505959928747, -3618.121578469465, -5208.492899953473, -8195.691787682985, -3582.314083852063, -2056.002861976965, -4959.762687654816, -4225.731399742532, -12086.348186296009, -14141.456978494762, 0.013000000000000001, -0.10300000000000001, 0.991, 192.0, 0.0, 0.0, 0.0, 0.0, 0.0, 0.0, 0.0, 0.0, 0.0, 1.64592023494215E9, 0.0, 2022-02-27 11:03:54.942
24.0, -3964.5065622933585, -7167.779763672324, -2018.742503969968, -9945.20752968878, -1063.7642221169738, 1230.262366564556, -5827.256241709739, -3561.9963481421887, -3646.86592183899, -7947.520368995711, -3610.47728186575, -1742.0055558688111, -4988.551734513251, -4162.185390256094, -11623.018875481948, -13611.005379081415, 0.013000000000000001, -0.10300000000000001, 0.991, 192.0, 0.0, 0.0, 0.0, 0.0, 0.0, 0.0, 0.0, 0.0, 0.0, 1.645920234949637E9, 0.0, 2022-02-27 11:03:54.949
26.0, -3594.5851915580265, -6985.47893589484, -1911.2529648843963, -9736.241070776114, -744.2460351283593, 1467.5708374465512, -5854.882997856498, -3535.9565658517563, -3697.716140474813, -7632.0254960090515, -3571.1382116244095, -1887.7612814618685, -4954.532379452274, -4132.636384086178, -11727.826205232885, -13425.016513468805, 0.0145, -0.10350000000000001, 0.9915, 192.0, 0.0, 64.0, 126.0, 96.0, 15.5, 0.0, 0.0, 0.0, 0.0, 1.645920234957709E9, 0.0, 2022-02-27 11:03:54.957
28.0, -3857.24054065234, -7069.879122958079, -1969.1216312791862, -9892.122136607426, -991.4786805485107, 1298.6587045977956, -5886.510716260757, -3644.474285182272, -5189.5162689109175, -8404.099452984268, -3621.183767459842, -1978.3529017392282, -4987.188278101477, -4247.501998842001, -12027.00430476717, -14265.732677666269, 0.0145, -0.10350000000000001, 0.9915, 192.0, 0.0, 0.0, 0.0, 0.0, 0.0, 0.0, 0.0, 0.0, 0.0, 1.645920234965681E9, 0.0, 2022-02-27 11:03:54.965
30.0, -3807.105577839086, -7104.278457674797, -1981.1468697961416, -9846.412819196323, -928.2902989733576, 1321.4127804532982, -5826.093950998063, -3513.001324296156, -2758.808762885185, -7485.487459360059, -3585.4656798202614, -1696.855032069091, -4966.758783669327, -4116.252555400438, -11452.02803039885, -13120.004608631685, 0.0145, -0.10350000000000001, 0.9915, 192.0, 0.0, 0.0, 0.0, 0.0, 0.0, 0.0, 0.0, 0.0, 0.0, 1.645920234972315E9, 0.0, 2022-02-27 11:03:54.972
32.0, -3637.1652647453866, -6989.85987780808, -1899.2277263674412, -9768.114658369383, -790.0000560283728, 1462.1393635439115, -5839.572052904613, -3603.436482362328, -5185.716472353515, -8199.871563896128, -3594.8757642359456, -2072.40904240716, -4968.681033692484, -4237.913100470674, -12081.63196821594, -14136.137263314398, 0.0145, -0.10350000000000001, 0.9915, 192.0, 0.0, 0.0, 0.0, 0.0, 0.0, 0.0, 0.0, 0.0, 0.0, 1.645920234980337E9, 0.0, 2022-02-27 11:03:54.980
34.0, -3999.0847109657184, -7201.32973209974, -2033.1370273991856, -9964.005346775693, -1058.3774517032448, 1224.1379885838019, -5800.635314063467, -3533.4308187283063, -3727.958050722844, -7998.77291903173, -3635.9135670558894, -1774.7955649847468, -5000.398159074564, -4180.178544542617, -11635.804073310384, -13648.690420233062, 0.0145, -0.10350000000000001, 0.9915, 192.0, 0.0, 0.0, 0.0, 0.0, 0.0, 0.0, 0.0, 0.0, 0.0, 1.645920234988804E9, 0.0, 2022-02-27 11:03:54.988
36.0, -3626.6822965958477, -7021.53229970125, -1924.1275696906532, -9751.373201772358, -763.8932185045742, 1467.2802647686322, -5844.44473319587, -3526.0323913136, -3665.10494531452, -7639.669792612767, -3597.669732292859, -1914.6280782971476, -4961.88610337807, -4163.906474579153, -11713.65519924822, -13414.220620896891, 0.01425, -0.10475000000000001, 0.98975, 192.0, 0.0, 56.0, 126.0, 88.0, 15.0, 112.0, 0.0, 0.0, 0.0, 1.645920234995418E9, 0.0, 2022-02-27 11:03:54.995
38.0, -3878.452346140426, -7112.682713589992, -1980.4316139735718, -9903.566229768543, -977.5535437528544, 1302.8831842998486, -5830.3854859334815, -3627.4646076517834, -5240.344135802286, -8429.513386429953, -3643.021421792677, -2009.06419862082, -4996.285438094787, -4254.296929156414, -12034.38038043742, -14284.910474408922, 0.01425, -0.10475000000000001, 0.98975, 192.0, 0.0, 0.0, 0.0, 0.0, 0.0, 0.0, 0.0, 0.0, 0.0, 1.645920235001858E9, 0.0, 2022-02-27 11:03:55.001
40.0, -3835.4475898084156, -7141.136484281598, -1994.8931926361554, -9862.23785427068, -932.0677437863045, 1310.706294859206, -5823.523500385702, -3510.430873683795, -2771.3927950135226, -7518.098654520351, -3608.9126597538784, -1715.9657735783785, -4981.689748965472, -4117.727770534489, -11450.485760031434, -13132.521585526656, 0.01425, -0.10475000000000001, 0.98975, 192.0, 0.0, 0.0, 0.0, 0.0, 0.0, 0.0, 0.0, 0.0, 0.0, 1.645920235010027E9, 0.0, 2022-02-27 11:03:55.010
42.0, -3653.996128320233, -7006.690741382926, -1900.3453135902064, -9774.037870650038, -789.2624484613477, 1458.4736774532412, -5835.146407502461, -3586.5162118096605, -5152.814704515303, -8194.99888360487, -3608.1974039313086, -2091.542135660903, -4969.1727720705, -4235.2532428804925, -12073.786505912127, -14121.452167207262, 0.01425, -0.10475000000000001, 0.98975, 192.0, 0.0, 0.0, 0.0, 0.0, 0.0, 0.0, 0.0, 0.0, 0.0, 1.64592023501798E9, 0.0, 2022-02-27 11:03:55.017
44.0, -4008.584202359224, -7215.344275873217, -2029.2031203750516, -9970.666166623374, -1071.4308704651442, 1222.6627734497517, -5813.465215380814, -3547.870045646435, -3771.789821599701, -8026.645544367498, -3642.283814225652, -1795.1803559279867, -4997.738301484383, -4176.982245085507, -11651.405590940189, -13675.75838276844, 0.01425, -0.10475000000000001, 0.98975, 192.0, 0.0, 0.0, 0.0, 0.0, 0.0, 0.0, 0.0, 0.0, 0.0, 1.64592023502512E9, 0.0, 2022-02-27 11:03:55.025
46.0, -3625.631764606448, -7026.762607903792, -1919.299592888307, -9750.993222116616, -761.2110091699374, 1457.579607675029, -5848.244529753271, -3534.2578332731528, -3600.4637003497724, -7630.751446575099, -3590.0254356891437, -1905.2403456259187, -4960.679109177484, -4164.264102490438, -11705.586219499854, -13397.210943366403, 0.012125, -0.10337500000000001, 0.9878750000000001, 192.0, 0.0, 40.0, 126.0, 104.0, 15.0, 104.0, 0.0, 0.0, 0.0, 1.645920235032691E9, 0.0, 2022-02-27 11:03:55.032
48.0, -3863.43197386646, -7101.126861706599, -1973.4802214479712, -9894.402014541867, -978.3358548087901, 1317.1212455178793, -5831.7265906008, -3613.405360389395, -5248.2119498505535, -8427.613488151252, -3630.437389664339, -2008.0807218647865, -4985.8918769230695, -4236.884920225731, -12049.19958701129, -14291.414832045417, 0.012125, -0.10337500000000001, 0.9878750000000001, 192.0, 0.0, 0.0, 0.0, 0.0, 0.0, 0.0, 0.0, 0.0, 0.0, 1.645920235040597E9, 0.0, 2022-02-27 11:03:55.040
50.0, -3842.846017223122, -7137.4260947020175, -1996.167242070108, -9864.271863016113, -935.4205054546005, 1315.2436989836335, -5812.81701479161, -3493.890582786868, -2760.507495463788, -7521.63023014429, -3601.7377497837247, -1709.3720089640628, -4975.543019240263, -4111.715151276011, -11450.195187353514, -13132.722751226755, 0.012125, -0.10337500000000001, 0.9878750000000001, 192.0, 0.0, 0.0, 0.0, 0.0, 0.0, 0.0, 0.0, 0.0, 0.0, 1.645920235047669E9, 0.0, 2022-02-27 11:03:55.047
52.0, -3631.174997231364, -6986.037729506223, -1897.7748629778462, -9755.642384963321, -779.8747157901187, 1470.0742328255456, -5847.439866952881, -3596.1274619254427, -5104.423177769563, -8160.04075527677, -3593.825232246546, -2069.8832952837106, -4954.174751540989, -4232.861606223775, -12066.231616286233, -14101.31324545303, 0.012125, -0.10337500000000001, 0.9878750000000001, 192.0, 0.0, 0.0, 0.0, 0.0, 0.0, 0.0, 0.0, 0.0, 0.0, 1.645920235054222E9, 0.0, 2022-02-27 11:03:55.054
54.0, -3998.034178976319, -7193.9983599184, -2020.9776784154988, -9950.97427975825, -1062.3784139607446, 1236.967889901148, -5799.830651263077, -3543.019717099633, -3815.241612820818, -8028.679553112931, -3624.5812326170485, -1779.5788382981825, -4982.8967431660585, -4183.844230633286, -11663.78845736843, -13696.769022556427, 0.012125, -0.10337500000000001, 0.9878750000000001, 192.0, 0.0, 0.0, 0.0, 0.0, 0.0, 0.0, 0.0, 0.0, 0.0, 1.645920235070283E9, 0.0, 2022-02-27 11:03:55.070
56.0, -3630.884424553445, -7028.170767804476, -1906.715560759969, -9738.20802428818, -763.736756293387, 1483.3735207764532, -5828.999677777252, -3524.378362223907, -3531.597975682971, -7594.78748974651, -3580.3247785955405, -1879.8711156691452, -4948.855036360626, -4147.567349382323, -11681.423983743667, -13361.984594104839, 0.0110625, -0.1056875, 0.9879375, 192.0, 0.0, 40.0, 126.0, 80.0, 15.0, 112.0, 0.0, 0.0, 0.0, 1.645920235077287E9, 0.0, 2022-02-27 11:03:55.077
58.0, -3860.481543598359, -7094.30957964773, -1956.6940613620357, -9879.515752734633, -964.3213110353126, 1335.6731934157842, -5820.573070117602, -3605.7834155301352, -5264.2381506250085, -8412.816633321838, -3628.828064063557, -2010.9193934106106, -4972.145554083056, -4242.226987150549, -12043.365781708453, -14283.725831952792, 0.0110625, -0.1056875, 0.9879375, 192.0, 0.0, 0.0, 0.0, 0.0, 0.0, 0.0, 0.0, 0.0, 0.0, 1.645920235084842E9, 0.0, 2022-02-27 11:03:55.084
60.0, -3849.3503748596163, -7137.917833080034, -1981.5715529407923, -9851.933700076783, -936.4486856995447, 1327.4477514562311, -5802.088177453063, -3474.9810069776786, -2750.3374517366233, -7505.492270647558, -3595.3004473805963, -1694.5080989012838, -4957.728678909383, -4110.821081497798, -11435.510091246379, -13117.612971974966, 0.0110625, -0.1056875, 0.9879375, 192.0, 0.0, 0.0, 0.0, 0.0, 0.0, 0.0, 0.0, 0.0, 0.0, 1.645920235092844E9, 0.0, 2022-02-27 11:03:55.092
62.0, -3619.4179796478725, -6987.736462084826, -1891.7622437193686, -9738.275079521547, -769.3693958961244, 1486.0333783666347, -5823.791721319166, -3570.534714524116, -5047.627395108628, -8129.575327584187, -3581.5764762850376, -2055.2429026654845, -4938.483826933364, -4212.990905403007, -12051.345354478999, -14062.577672311983, 0.0110625, -0.1056875, 0.9879375, 192.0, 0.0, 0.0, 0.0, 0.0, 0.0, 0.0, 0.0, 0.0, 0.0, 1.645920235100896E9, 0.0, 2022-02-27 11:03:55.100
64.0, -3984.801946258777, -7183.046005135299, -2014.0709893788087, -9932.86936674945, -1053.080088267337, 1254.3351953429217, -5805.507994354724, -3537.543539708083, -3853.7760202617674, -8038.201396250892, -3615.506424368194, -1769.2523323598305, -4971.430298260486, -4159.637291388189, -11667.87882660375, -13713.823403575827, 0.0110625, -0.1056875, 0.9879375, 192.0, 0.0, 0.0, 0.0, 0.0, 0.0, 0.0, 0.0, 0.0, 0.0, 1.645920235107549E9, 0.0, 2022-02-27 11:03:55.107
66.0, -3634.9077385554006, -7022.426369479463, -1917.3102876317846, -9731.390742229312, -759.4005178690575, 1471.6165031929618, -5824.305811441638, -3485.374568149396, -3453.031593922567, -7562.869198664332, -3565.796144699591, -1860.6262636931258, -4934.751085609328, -4132.412866641625, -11662.000317812004, -13327.339390199113, 0.01253125, -0.10584375, 0.9879687500000001, 192.0, 0.0, 56.0, 126.0, 88.0, 15.0, 112.0, 0.0, 0.0, 0.0, 1.645920235115614E9, 0.0, 2022-02-27 11:03:55.115
68.0, -3849.2386161373397, -7093.035530213778, -1955.9117503060997, -9861.209674025737, -949.1668282946144, 1343.3174900194992, -5813.666381080911, -3574.669787248348, -5285.740528791014, -8412.861336810749, -3619.6862005813364, -2015.5685562573144, -4967.272873791799, -4241.399972605703, -12050.831264356526, -14288.643215732958, 0.01253125, -0.10584375, 0.9879687500000001, 192.0, 0.0, 0.0, 0.0, 0.0, 0.0, 0.0, 0.0, 0.0, 0.0, 1.645920235122584E9, 0.0, 2022-02-27 11:03:55.122
70.0, -3854.8936074845324, -7144.846873861179, -1983.4714512194935, -9845.339935462467, -930.3466594632458, 1320.7198763751837, -5786.710177267812, -3466.5320475735725, -2743.7213353778525, -7516.15405275274, -3586.7173775097585, -1690.4847848993284, -4957.728678909383, -4101.321590104293, -11433.096102845206, -13122.284486566126, 0.01253125, -0.10584375, 0.9879687500000001, 192.0, 0.0, 0.0, 0.0, 0.0, 0.0, 0.0, 0.0, 0.0, 0.0, 1.645920235130567E9, 0.0, 2022-02-27 11:03:55.130
72.0, -3619.462683136783, -6978.974578258345, -1881.6592552255697, -9725.221660759647, -754.7737067668089, 1488.7155877012715, -5826.675096353901, -3561.7504789531804, -4996.017217161324, -8104.496670305332, -3574.0662901480546, -2069.9056470281657, -4941.523664179285, -4189.0521870913735, -12034.268621715144, -14039.130692378367, 0.01253125, -0.10584375, 0.9879687500000001, 192.0, 0.0, 0.0, 0.0, 0.0, 0.0, 0.0, 0.0, 0.0, 0.0, 1.645920235137127E9, 0.0, 2022-02-27 11:03:55.137
74.0, -3990.5910480727016, -7181.056699878776, -2002.6045444732363, -9913.4904043067, -1048.7662015874628, 1246.8920644393045, -5794.399177360437, -3526.8370541139907, -3906.615544154113, -8039.87777708504, -3605.3140288965737, -1791.335855881674, -4972.927865138992, -4167.5721606698235, -11680.172286054169, -13734.007028818969, 0.01253125, -0.10584375, 0.9879687500000001, 192.0, 0.0, 0.0, 0.0, 0.0, 0.0, 0.0, 0.0, 0.0, 0.0, 1.645920235145198E9, 0.0, 2022-02-27 11:03:55.145
76.0, -3630.951479786811, -7021.778168890259, -1897.908973444578, -9705.842698316896, -749.4763433309012, 1476.1762590618443, -5821.243622451261, -3495.544611876561, -3396.5040321950955, -7537.231747774094, -3557.861275417957, -1851.9537868444668, -4934.080533275668, -4128.970697995508, -11642.241375713513, -13300.293779408192, 0.014265625, -0.105921875, 0.987984375, 192.0, 0.0, 64.0, 126.0, 88.0, 15.0, 112.0, 0.0, 0.0, 0.0, 1.645920235153263E9, 0.0, 2022-02-27 11:03:55.153
78.0, -3841.2813951112507, -7079.289207373764, -1937.3374506637397, -9832.308868445023, -926.5915663947543, 1369.0443478875575, -5819.790759061666, -3557.570702740038, -5291.015540482466, -8399.360883159743, -3607.057464964088, -2011.098207366253, -4961.0590888332235, -4225.753751486987, -12057.402677226386, -14277.355584783028, 0.014265625, -0.105921875, 0.987984375, 192.0, 0.0, 0.0, 0.0, 0.0, 0.0, 0.0, 0.0, 0.0, 0.0, 1.645920235159783E9, 0.0, 2022-02-27 11:03:55.159
80.0, -3866.672976812479, -7143.773990127324, -1974.9330848375662, -9836.533348147077, -922.9705837929945, 1324.45261769922, -5765.453668290815, -3476.92560874529, -2755.232483772336, -7524.066570289919, -3584.5269065531384, -1695.402168679496, -4958.689803920961, -4102.126252904684, -11430.16802432156, -13129.057065136083, 0.014265625, -0.105921875, 0.987984375, 192.0, 0.0, 0.0, 0.0, 0.0, 0.0, 0.0, 0.0, 0.0, 0.0, 1.645920235167801E9, 0.0, 2022-02-27 11:03:55.167
82.0, -3617.339267413529, -6978.460488135874, -1871.5115632428603, -9717.085625777916, -750.1692474090156, 1501.5231372741625, -5817.779102060688, -3534.9730890957226, -4942.5741961686845, -8065.381117508545, -3567.964263911756, -2053.320652642328, -4944.071763047191, -4190.527402225423, -12029.060665257057, -14013.336779276942, 0.014265625, -0.105921875, 0.987984375, 192.0, 0.0, 0.0, 0.0, 0.0, 0.0, 0.0, 0.0, 0.0, 0.0, 1.645920235177434E9, 0.0, 2022-02-27 11:03:55.177
84.0, -3993.1167951961515, -7190.265618594363, -1994.4461577470493, -9920.374741598933, -1042.4630096510662, 1250.423640063243, -5787.134860412462, -3510.967315550723, -3964.104230893163, -8061.380155251045, -3606.543374841616, -1801.0365129752772, -4981.086251865179, -4166.320462980326, -11693.404518771711, -13756.425828507643, 0.014265625, -0.105921875, 0.987984375, 192.0, 0.0, 0.0, 0.0, 0.0, 0.0, 0.0, 0.0, 0.0, 0.0, 1.645920235189507E9, 0.0, 2022-02-27 11:03:55.189
86.0, -3641.300337469618, -7038.765494676291, -1899.7418164899132, -9716.169204255248, -750.705689275943, 1468.442555480308, -5815.34276191506, -3493.443547897762, -3343.619804813839, -7534.840111117377, -3559.7388219522027, -1845.8741123526231, -4944.585853169662, -4125.260308415926, -11632.317201175358, -13282.859418733051, 0.01, -0.11, 0.986, 192.0, 0.0, 40.0, 126.0, 72.0, 15.0, 104.0, 0.0, 0.0, 0.0, 1.645920235197523E9, 0.0, 2022-02-27 11:03:55.197
88.0, -3835.738162486334, -7094.555448836738, -1935.1916831960302, -9838.120322003404, -917.5838133792655, 1360.5283332500856, -5811.118282213007, -3590.763043256169, -5308.516956390972, -8406.155813474157, -3600.7989765166017, -2024.7998267173562, -4973.732527939383, -4225.9772689315405, -12066.276319775143, -14300.243771105263, 0.01, -0.11, 0.986, 192.0, 0.0, 0.0, 0.0, 0.0, 0.0, 0.0, 0.0, 0.0, 0.0, 1.645920235205453E9, 0.0, 2022-02-27 11:03:55.205
90.0, -3889.359997434616, -7170.5960834736925, -1982.2644570189068, -9849.765580864618, -934.9064153321285, 1325.2796322440663, -5787.693654023845, -3447.510713042106, -2765.648396688509, -7550.061649091441, -3584.3927960864066, -1698.173784991954, -4973.240789561366, -4091.9115056886085, -11438.147597092104, -13143.585699032034, 0.01, -0.11, 0.986, 192.0, 0.0, 0.0, 0.0, 0.0, 0.0, 0.0, 0.0, 0.0, 0.0, 1.645920235212763E9, 0.0, 2022-02-27 11:03:55.212
92.0, -3610.7455027992137, -6980.718014325859, -1868.6728916970364, -9711.542393153, -728.8456831986528, 1508.1392536329333, -5828.127959743495, -3552.4968567486835, -4896.417843868476, -8057.937986604928, -3562.2645690756526, -2050.1467049296743, -4941.009574056813, -4177.3175212523365, -12020.969333764237, -13989.465116198673, 0.01, -0.11, 0.986, 192.0, 0.0, 0.0, 0.0, 0.0, 0.0, 0.0, 0.0, 0.0, 0.0, 1.645920235220124E9, 0.0, 2022-02-27 11:03:55.220
94.0, -3995.8884115086094, -7192.031406406332, -1988.545297210848, -9918.787767742608, -1027.3532303992786, 1256.0786314104357, -5788.565372057602, -3532.872025116924, -4025.1021415116957, -8083.888361917539, -3600.4413486053168, -1803.852832776646, -4980.125126853601, -4158.385593698692, -11709.184850357158, -13791.830991724848, 0.01, -0.11, 0.986, 192.0, 0.0, 0.0, 0.0, 0.0, 0.0, 0.0, 0.0, 0.0, 0.0, 1.645920235228062E9, 0.0, 2022-02-27 11:03:55.228
96.0, -3662.3556807465175, -7049.53903550375, -1900.1888513790193, -9722.740617125108, -747.9564247079402, 1471.0130060926683, -5801.350569886037, -3434.1443698578323, -3299.3409990478754, -7525.407674957237, -3554.8214381720354, -1839.8391413496902, -4946.9104345930145, -4103.333247105271, -11612.267686398947, -13262.273462089714, 0.016, -0.11, 0.99, 192.0, 0.0, 64.0, 126.0, 72.0, 15.0, 120.0, 0.0, 0.0, 0.0, 1.645920235236027E9, 0.0, 2022-02-27 11:03:55.236
98.0, -3837.1463223870187, -7092.387329624574, -1930.4978168604157, -9831.615964366909, -915.795673822841, 1377.5380107805743, -5825.468102153314, -3548.6970601912813, -5346.626680687271, -8412.28019145491, -3607.3927411309173, -2036.0204024339203, -4983.477888521897, -4220.255222350982, -12070.67961343284, -14293.582951257582, 0.016, -0.11, 0.99, 192.0, 0.0, 0.0, 0.0, 0.0, 0.0, 0.0, 0.0, 0.0, 0.0, 1.645920235242461E9, 0.0, 2022-02-27 11:03:55.242
100.0, -3891.9304480469764, -7163.220007803441, -1980.1857447845632, -9846.61398489642, -949.5915114392652, 1316.4730449286753, -5822.115340485017, -3455.065602668, -2781.7416526963298, -7546.977108356608, -3585.219810631253, -1692.9211250449569, -4986.875353679104, -4092.738520233455, -11452.117437376672, -13155.119199170971, 0.016, -0.11, 0.99, 192.0, 0.0, 0.0, 0.0, 0.0, 0.0, 0.0, 0.0, 0.0, 0.0, 1.645920235249826E9, 0.0, 2022-02-27 11:03:55.249
102.0, -3630.3926861754285, -6993.078529009644, -1867.4658974964498, -9708.815480329453, -733.3160320897141, 1499.444425039819, -5818.516709627714, -3556.1401910948985, -4853.368384047554, -8036.703829372386, -3572.300502336085, -2043.1059054262528, -4959.181542298978, -4184.268913777937, -12010.32990340351, -13969.259139211075, 0.016, -0.11, 0.99, 192.0, 0.0, 0.0, 0.0, 0.0, 0.0, 0.0, 0.0, 0.0, 0.0, 1.64592023525786E9, 0.0, 2022-02-27 11:03:55.257
104.0, -4002.7280453119333, -7194.445394807505, -1991.003989100932, -9911.836375217006, -1037.500922381988, 1259.5655035454636, -5797.796642517644, -3518.6786673878037, -4089.765738220899, -8106.55303079522, -3610.119653954465, -1801.8635275201236, -4986.003635645347, -4144.81808481432, -11724.384036586767, -13818.675436815673, 0.016, -0.11, 0.99, 192.0, 0.0, 0.0, 0.0, 0.0, 0.0, 0.0, 0.0, 0.0, 0.0, 1.645920235265781E9, 0.0, 2022-02-27 11:03:55.265
106.0, -3669.9999773502327, -7049.986070392856, -1893.9303629315334, -9719.879593834828, -745.5871397956777, 1456.7302413857271, -5801.439976863859, -3458.73128875867, -3246.657937366717, -7511.236668972572, -3565.3044063215743, -1820.1472544845647, -4948.45270496043, -4089.743386476444, -11604.712796773052, -13248.90711890544, 0.016, -0.11, 0.994, 192.0, 0.0, 64.0, 126.0, 72.0, 15.5, 8.0, 0.0, 0.0, 0.0, 1.645920235272398E9, 0.0, 2022-02-27 11:03:55.272
108.0, -3825.724580970357, -7077.54577130625, -1907.944906705011, -9824.75397881913, -900.1718044485814, 1368.3737955538984, -5804.256296665228, -3571.026452902133, -5346.090238820343, -8405.552316373864, -3596.708607281281, -2027.9514226855545, -4968.770440670305, -4209.369922801247, -12071.77484891115, -14310.88320146599, 0.016, -0.11, 0.994, 192.0, 0.0, 0.0, 0.0, 0.0, 0.0, 0.0, 0.0, 0.0, 0.0, 1.64592023528048E9, 0.0, 2022-02-27 11:03:55.280
110.0, -3913.1199017906074, -7175.4687637649495, -1964.070137032287, -9851.754886121142, -947.3563369937345, 1307.9793820356588, -5793.505107582225, -3454.3056433565193, -2798.7066267379078, -7567.697175466678, -3576.3685198269513, -1685.9250290304458, -4969.284530792776, -4075.7511944474218, -11434.079579601239, -13177.18037094836, 0.016, -0.11, 0.994, 192.0, 0.0, 0.0, 0.0, 0.0, 0.0, 0.0, 0.0, 0.0, 0.0, 1.645920235288404E9, 0.0, 2022-02-27 11:03:55.288
112.0, -3628.8504158080123, -6990.999816775301, -1853.4960572118828, -9704.00985527156, -729.739752976865, 1490.6601894688833, -5829.513767899724, -3573.529848281127, -4814.09636903958, -8017.369570418546, -3563.851542931979, -2040.937786214088, -4944.988184569858, -4166.722794380521, -11997.030615452602, -13950.841301779903, 0.016, -0.11, 0.994, 192.0, 0.0, 0.0, 0.0, 0.0, 0.0, 0.0, 0.0, 0.0, 0.0, 1.645920235295523E9, 0.0, 2022-02-27 11:03:55.295
114.0, -4013.1439582281064, -7192.813717462268, -1982.9126576081107, -9915.166785140847, -1041.7924573174068, 1241.907625425771, -5788.252447635227, -3524.378362223907, -4151.277738961904, -8130.894080507051, -3608.2421074202193, -1824.2823272087965, -4979.186353586478, -4166.521628680423, -11744.99234497456, -13855.041725044457, 0.016, -0.11, 0.994, 192.0, 0.0, 0.0, 0.0, 0.0, 0.0, 0.0, 0.0, 0.0, 0.0, 1.645920235301929E9, 0.0, 2022-02-27 11:03:55.301
116.0, -3673.956236118822, -7053.852922183624, -1891.4716710414496, -9724.551108425989, -763.1109074486384, 1447.6330813924171, -5823.478796896791, -3469.348367374941, -3205.1060444243008, -7508.353293937838, -3557.8389236735015, -1831.8148650902351, -4940.495483934341, -4105.970752950997, -11603.34934036128, -13241.888671146473, 0.014, -0.108, 0.99, 192.0, 0.0, 56.0, 126.0, 80.0, 15.0, 120.0, 0.0, 0.0, 0.0, 1.64592023531955E9, 0.0, 2022-02-27 11:03:55.319
118.0, -3817.2532698217956, -7075.981149194378, -1910.1353776616309, -9821.825900295486, -897.1990224360255, 1375.2134293572224, -5809.352494401038, -3556.251949817175, -5362.63052971727, -8400.500822126964, -3594.4957845802055, -2043.3294228708057, -4956.678146919983, -4217.3494955717915, -12093.634854988439, -14312.02314043321, 0.014, -0.108, 0.99, 192.0, 0.0, 0.0, 0.0, 0.0, 0.0, 0.0, 0.0, 0.0, 0.0, 1.645920235325662E9, 0.0, 2022-02-27 11:03:55.325
120.0, -3919.8701286161104, -7175.826391676234, -1973.100241792231, -9861.612005425932, -954.888874875173, 1291.6402568388291, -5784.229133633272, -3461.413498093307, -2820.3654671151003, -7583.54456228549, -3585.5550867980824, -1694.1281192455435, -4960.500295221841, -4087.2399910974495, -11448.384696052635, -13187.350414675524, 0.014, -0.108, 0.99, 192.0, 0.0, 0.0, 0.0, 0.0, 0.0, 0.0, 0.0, 0.0, 0.0, 1.645920235332535E9, 0.0, 2022-02-27 11:03:55.332
122.0, -3625.5200058841715, -6992.251514464798, -1856.7594119023577, -9703.696930849186, -726.6775639864879, 1486.1674888333666, -5815.834500293076, -3530.927423349312, -4750.483304319776, -8007.087767969105, -3570.020624401644, -2046.0786874388086, -4935.399286198532, -4179.642102675689, -11991.353272360955, -13919.302990353464, 0.014, -0.108, 0.99, 192.0, 0.0, 0.0, 0.0, 0.0, 0.0, 0.0, 0.0, 0.0, 0.0, 1.645920235340641E9, 0.0, 2022-02-27 11:03:55.340
124.0, -4010.8193768047545, -7191.740833728413, -1979.0905093062534, -9916.396131085889, -1037.791495059907, 1248.680203995729, -5806.267953666205, -3516.868176086924, -4209.504033267979, -8156.531531397288, -3614.2323749342413, -1841.5602256727489, -4971.162077327022, -4159.01144254344, -11762.203188205147, -13871.157332796733, 0.014, -0.108, 0.99, 192.0, 0.0, 0.0, 0.0, 0.0, 0.0, 0.0, 0.0, 0.0, 0.0, 1.645920235347875E9, 0.0, 2022-02-27 11:03:55.347
126.0, -3684.640369968459, -7057.630366996571, -1896.0761303992429, -9726.987448571617, -773.6162273426328, 1434.579662630518, -5807.3184856556045, -3473.30462614353, -3160.4696107470527, -7496.238648443062, -3567.249008089186, -1825.4222661760173, -4937.679164132973, -4110.508157075424, -11588.820706465329, -13218.441691212856, 0.016, -0.108, 0.99, 192.0, 0.0, 64.0, 126.0, 80.0, 15.0, 120.0, 0.0, 0.0, 0.0, 1.645920235355205E9, 0.0, 2022-02-27 11:03:55.355
128.0, -3809.005476117787, -7054.098791372632, -1900.0770926567427, -9817.579068848976, -889.5100223433999, 1373.4029380563425, -5808.994866489753, -3581.420014073851, -5380.7577944705245, -8393.683540068096, -3600.977790472244, -2047.6880130395907, -4958.086306820668, -4217.103626382784, -12096.473526534262, -14320.114471926032, 0.016, -0.108, 0.99, 192.0, 0.0, 0.0, 0.0, 0.0, 0.0, 0.0, 0.0, 0.0, 0.0, 1.645920235363231E9, 0.0, 2022-02-27 11:03:55.363
130.0, -3916.3162012477164, -7174.395880031095, -1960.5609131528038, -9858.974499580205, -956.0288138423937, 1283.5712770904634, -5773.544999783636, -3477.484402356673, -2840.593795847153, -7593.334626356916, -3585.219810631253, -1692.0047035222894, -4950.911396850514, -4091.5315260328684, -11445.367210551169, -13211.84792659854, 0.016, -0.108, 0.99, 192.0, 0.0, 0.0, 0.0, 0.0, 0.0, 0.0, 0.0, 0.0, 0.0, 1.645920235370367E9, 0.0, 2022-02-27 11:03:55.370
132.0, -3615.2605551791858, -6990.150450485999, -1847.3493274866735, -9697.72901507962, -717.5357005042673, 1496.158718604889, -5802.669322808901, -3531.799141383069, -4697.956704849805, -7977.851686221563, -3562.9127696648566, -2031.0583151648423, -4918.456663901408, -4175.775250884921, -11970.074411639502, -13898.717033710127, 0.016, -0.108, 0.99, 192.0, 0.0, 0.0, 0.0, 0.0, 0.0, 0.0, 0.0, 0.0, 0.0, 1.645920235376906E9, 0.0, 2022-02-27 11:03:55.376
134.0, -3997.7883097873105, -7176.943978899, -1966.3723667111835, -9913.736273495708, -1033.2540909354796, 1251.4741720526424, -5778.931770197364, -3533.9672605952337, -4252.553493088901, -8166.165133257525, -3607.6162585754705, -1838.8556645936567, -4953.12421955159, -4159.279663476904, -11766.293557440467, -13896.660673220238, 0.016, -0.108, 0.99, 192.0, 0.0, 0.0, 0.0, 0.0, 0.0, 0.0, 0.0, 0.0, 0.0, 1.645920235384899E9, 0.0, 2022-02-27 11:03:55.384
136.0, -3691.122375860498, -7062.5253990322835, -1890.1082146296758, -9736.330477753936, -771.8727912751187, 1442.9392150568028, -5803.541040842658, -3467.761393518614, -3113.441540413087, -7484.660444815212, -3555.246121316686, -1818.3367631836848, -4923.798730826227, -4091.330360332771, -11572.928616157606, -13203.823650339085, 0.018000000000000002, -0.106, 0.988, 192.0, 0.0, 72.0, 126.0, 88.0, 15.0, 112.0, 0.0, 0.0, 0.0, 1.645920235392856E9, 0.0, 2022-02-27 11:03:55.392
138.0, -3804.2892580377174, -7065.632291511571, -1892.7904239643126, -9805.978513476672, -884.4138246075898, 1388.7138830082279, -5798.802471018133, -3580.078909406532, -5386.949227684645, -8397.103356969757, -3594.5851915580265, -2056.159324188152, -4946.485751448364, -4218.467082794557, -12100.67565449186, -14311.441995077372, 0.018000000000000002, -0.106, 0.988, 192.0, 0.0, 0.0, 0.0, 0.0, 0.0, 0.0, 0.0, 0.0, 0.0, 1.645920235401588E9, 0.0, 2022-02-27 11:03:55.401
140.0, -3933.9964311118642, -7174.909970153567, -1963.0196050428874, -9856.80638036804, -972.211476828036, 1291.550849861008, -5774.28260735066, -3463.5592655610167, -2871.3050927287454, -7616.692199312712, -3581.062386162566, -1694.3739884345518, -4952.207798028922, -4092.2020783665275, -11452.899748432606, -13213.859583599518, 0.018000000000000002, -0.106, 0.988, 192.0, 0.0, 0.0, 0.0, 0.0, 0.0, 0.0, 0.0, 0.0, 0.0, 1.645920235407568E9, 0.0, 2022-02-27 11:03:55.407
142.0, -3615.4617208792833, -6985.657749850482, -1840.5991006611707, -9691.984616754606, -721.9613459064182, 1508.8768611999585, -5800.590610574557, -3534.7272199067143, -4646.7265065582405, -7954.76233419923, -3559.917635907845, -2032.1982541320629, -4925.028076771268, -4165.962835069041, -11958.518559756109, -13859.109742535324, 0.018000000000000002, -0.106, 0.988, 192.0, 0.0, 0.0, 0.0, 0.0, 0.0, 0.0, 0.0, 0.0, 0.0, 1.645920235415622E9, 0.0, 2022-02-27 11:03:55.415
144.0, -3994.5249550968356, -7169.366737528651, -1951.039070014843, -9903.946209424283, -1020.8488727627841, 1264.9969774481033, -5787.313674368104, -3533.184949539298, -4315.0266188414835, -8175.66462465103, -3602.3859503729286, -1855.1277345571202, -4958.466286476408, -4161.224265244516, -11782.744441359573, -13914.1844408732, 0.018000000000000002, -0.106, 0.988, 192.0, 0.0, 0.0, 0.0, 0.0, 0.0, 0.0, 0.0, 0.0, 0.0, 1.645920235423512E9, 0.0, 2022-02-27 11:03:55.423
146.0, -3691.435300282872, -7046.141570346543, -1874.6408074666033, -9731.770721885052, -777.3489686666691, 1450.9187878273474, -5781.457517320814, -3466.800268507036, -3063.910074700126, -7462.934549204654, -3552.094525348488, -1814.1122834816317, -4918.747236579327, -4084.3119125738044, -11558.444685750566, -13180.17550470537, 0.018000000000000002, -0.1, 0.986, 192.0, 0.0, 72.0, 126.0, 112.0, 15.0, 104.0, 0.0, 0.0, 0.0, 1.645920235437103E9, 0.0, 2022-02-27 11:03:55.437
148.0, -3776.9083710799664, -7034.988049863345, -1871.489211498405, -9792.32159761448, -874.6461122806206, 1401.6331913033953, -5812.012351991219, -3585.644493775904, -5371.034785632466, -8378.350243371755, -3581.3306070960293, -2056.8522282662666, -4930.280736718266, -4181.497297465479, -12082.548389738608, -14298.612093760026, 0.018000000000000002, -0.1, 0.986, 192.0, 0.0, 0.0, 0.0, 0.0, 0.0, 0.0, 0.0, 0.0, 0.0, 1.645920235445124E9, 0.0, 2022-02-27 11:03:55.445
150.0, -3925.0557333297415, -7156.6262431891255, -1949.7873723253456, -9844.691734873264, -974.6925204625751, 1281.4031578782985, -5782.977435943775, -3467.8955039853463, -2867.99703454936, -7597.31323686996, -3566.2655313331525, -1679.174802204943, -4936.919204821492, -4091.2186016104943, -11451.893919932118, -13219.112243546515, 0.018000000000000002, -0.1, 0.986, 192.0, 0.0, 0.0, 0.0, 0.0, 0.0, 0.0, 0.0, 0.0, 0.0, 1.645920235453074E9, 0.0, 2022-02-27 11:03:55.453
152.0, -3621.76491281568, -6984.674273094449, -1836.262862236841, -9682.373366638823, -727.5939855091555, 1488.8496981680034, -5767.66649099189, -3532.894376861379, -4587.539087240588, -7928.051999575138, -3559.2917870630968, -2033.2264343770069, -4914.232184199355, -4175.685843907099, -11937.97730660168, -13829.225460198577, 0.018000000000000002, -0.1, 0.986, 192.0, 0.0, 0.0, 0.0, 0.0, 0.0, 0.0, 0.0, 0.0, 0.0, 1.645920235459901E9, 0.0, 2022-02-27 11:03:55.459
154.0, -3996.6260190756348, -7162.147124069586, -1945.1382094786418, -9892.770337196629, -1022.368791385745, 1246.6014917613854, -5758.859903676499, -3544.0702490890326, -4368.737860767586, -8198.753976673363, -3601.961267228278, -1865.2083713064637, -4950.464361961408, -4185.453556234069, -11784.934912316194, -13936.826758006426, 0.016, -0.10300000000000001, 0.987, 192.0, 0.0, 56.0, 126.0, 88.0, 15.0, 112.0, 0.0, 0.0, 0.0, 1.645920235467809E9, 0.0, 2022-02-27 11:03:55.467
156.0, -3711.7753877372015, -7055.372840806585, -1878.9993976353883, -9724.97579157064, -778.6230181006215, 1431.4951218956855, -5776.160153884906, -3453.2774631115753, -3024.3251352697775, -7461.772258492978, -3546.283071790108, -1802.9364112539783, -4916.5120621337965, -4093.923162689586, -11530.057970292328, -13153.956908459295, 0.016, -0.10300000000000001, 0.987, 192.0, 0.0, 0.0, 0.0, 0.0, 0.0, 0.0, 0.0, 0.0, 0.0, 1.645920235475809E9, 0.0, 2022-02-27 11:03:55.475
158.0, -3791.526411953737, -7052.131837860566, -1871.265694053852, -9785.101984155415, -860.9444929295174, 1389.2503248751552, -5781.055185920619, -3576.569685527049, -5388.2679806075075, -8381.2783218954, -3581.9341041963226, -2069.3692051612384, -4934.2146437424, -4208.945239656597, -12084.403584528398, -14288.151477354942, 0.016, -0.10300000000000001, 0.987, 192.0, 0.0, 0.0, 0.0, 0.0, 0.0, 0.0, 0.0, 0.0, 0.0, 1.645920235482427E9, 0.0, 2022-02-27 11:03:55.482
160.0, -3951.8331231871994, -7183.291874324307, -1949.966186280988, -9860.986156581183, -975.8995146631617, 1269.355567616888, -5769.745203226234, -3471.583541820472, -2917.707314217963, -7650.063353784484, -3583.655188519381, -1703.9405350614234, -4941.568367668196, -4089.050482398329, -11453.302079832803, -13233.32795302009, 0.016, -0.10300000000000001, 0.987, 192.0, 0.0, 0.0, 0.0, 0.0, 0.0, 0.0, 0.0, 0.0, 0.0, 1.645920235489441E9, 0.0, 2022-02-27 11:03:55.489
162.0, -3615.796997046113, -6984.718976583359, -1828.752676099858, -9682.462773616646, -713.7582556913204, 1490.77194819116, -5805.329180399082, -3527.641716914382, -4529.558662123521, -7909.678865632876, -3551.2898625480966, -2029.583100030792, -4911.102939975613, -4158.720869865521, -11931.003562331625, -13798.648273783718, 0.016, -0.10300000000000001, 0.987, 192.0, 0.0, 0.0, 0.0, 0.0, 0.0, 0.0, 0.0, 0.0, 0.0, 1.645920235497375E9, 0.0, 2022-02-27 11:03:55.497
164.0, -3993.899106252087, -7164.069374092744, -1945.4064304121055, -9897.643017487886, -1014.433922104111, 1253.1058493978799, -5755.350679797016, -3535.88951061839, -4432.038001065016, -8216.367151304144, -3603.6599998068814, -1882.4862697704161, -4954.9570625969245, -4166.879256591708, -11811.086453328902, -13951.62361283584, 0.012, -0.10550000000000001, 0.9884999999999999, 192.0, 0.0, 32.0, 126.0, 80.0, 15.0, 120.0, 0.0, 0.0, 0.0, 1.645920235505495E9, 0.0, 2022-02-27 11:03:55.505
166.0, -3713.719989504813, -7067.06280315671, -1875.9819121339217, -9723.612335158865, -788.9271722945181, 1406.6176303169289, -5774.863752706498, -3470.0412714530557, -2991.043387775825, -7459.872360214277, -3551.736897437203, -1801.0588647197326, -4920.244803457833, -4091.28565684386, -11526.258173734925, -13140.45645480829, 0.012, -0.10550000000000001, 0.9884999999999999, 192.0, 0.0, 0.0, 0.0, 0.0, 0.0, 0.0, 0.0, 0.0, 0.0, 1.645920235512072E9, 0.0, 2022-02-27 11:03:55.512
168.0, -3774.2932169786955, -7046.566253491194, -1864.2472462948856, -9772.070917137971, -852.6296439921432, 1385.9199149513145, -5779.33410159756, -3588.550220555094, -5389.229105619086, -8368.738993255973, -3578.894266950401, -2067.1116789712523, -4931.5324344077635, -4208.654666978678, -12091.891418920924, -14287.235055832274, 0.012, -0.10550000000000001, 0.9884999999999999, 192.0, 0.0, 0.0, 0.0, 0.0, 0.0, 0.0, 0.0, 0.0, 0.0, 1.645920235520101E9, 0.0, 2022-02-27 11:03:55.520
170.0, -3947.6086434851463, -7177.770993443846, -1950.7037938480132, -9858.080429801992, -972.8820291616952, 1254.6928232542066, -5774.103793395018, -3489.196716451254, -2936.214558626957, -7651.337403218437, -3572.2334471027193, -1701.6383053825266, -4934.281698975766, -4071.817287423288, -11455.470199044967, -13252.081066618093, 0.012, -0.10550000000000001, 0.9884999999999999, 192.0, 0.0, 0.0, 0.0, 0.0, 0.0, 0.0, 0.0, 0.0, 0.0, 1.645920235528084E9, 0.0, 2022-02-27 11:03:55.528
172.0, -3616.266383679674, -6981.85795329308, -1835.3464407141735, -9673.38796536779, -711.9701161348959, 1477.5620672180735, -5807.00556123323, -3537.9011676193677, -4467.666681726776, -7867.9928622237285, -3545.8807403899123, -2019.457759792538, -4906.029093984258, -4163.481791434502, -11916.854908091416, -13773.860189182782, 0.012, -0.10550000000000001, 0.9884999999999999, 192.0, 0.0, 0.0, 0.0, 0.0, 0.0, 0.0, 0.0, 0.0, 0.0, 1.645920235535309E9, 0.0, 2022-02-27 11:03:55.535
174.0, -3983.55024856928, -7157.140333311598, -1946.2781484458624, -9885.394261526379, -1020.3124308958568, 1238.4431050351984, -5783.245656877239, -3564.6562057323704, -4484.519897046077, -8207.828784922218, -3598.4296916043395, -1881.1898685920082, -4950.59847242814, -4175.104698551261, -11820.205965066669, -13985.262988241077, 0.011, -0.10875000000000001, 0.98925, 192.0, 0.0, 40.0, 126.0, 64.0, 15.0, 120.0, 0.0, 0.0, 0.0, 1.645920235542655E9, 0.0, 2022-02-27 11:03:55.542
176.0, -3713.1388441489753, -7062.972433921389, -1886.107252372176, -9729.088512550416, -792.2352304739036, 1401.0743976920126, -5787.29132262365, -3470.9129894868124, -2955.504114091887, -7441.409819294193, -3546.953624123767, -1774.2591231178194, -4912.533451620752, -4098.751139491933, -11522.480728921977, -13138.131873384938, 0.011, -0.10875000000000001, 0.98925, 192.0, 0.0, 0.0, 0.0, 0.0, 0.0, 0.0, 0.0, 0.0, 0.0, 1.645920235550873E9, 0.0, 2022-02-27 11:03:55.550
178.0, -3754.757792324757, -7029.087189327144, -1866.9294556295224, -9773.16615261628, -845.5888444887215, 1391.5302028095964, -5834.945241802364, -3598.563802071071, -5381.450698548639, -8351.572853514297, -3566.958435411267, -2060.652024823669, -4918.858995301604, -4209.861661179264, -12102.44144230383, -14289.693747722358, 0.011, -0.10875000000000001, 0.98925, 192.0, 0.0, 0.0, 0.0, 0.0, 0.0, 0.0, 0.0, 0.0, 0.0, 1.645920235564289E9, 0.0, 2022-02-27 11:03:55.564
180.0, -3951.6990127204676, -7173.635920719615, -1960.8514858307226, -9870.016261341127, -993.6691515051308, 1239.2701195800448, -5773.008557916708, -3505.0217515256113, -2971.6197218441635, -7663.921435346775, -3565.1702958548426, -1696.922087302457, -4935.108713520613, -4091.084491143762, -11477.531370822355, -13285.832200745608, 0.011, -0.10875000000000001, 0.98925, 192.0, 0.0, 0.0, 0.0, 0.0, 0.0, 0.0, 0.0, 0.0, 0.0, 1.645920235572355E9, 0.0, 2022-02-27 11:03:55.572
182.0, -3608.733845798236, -6978.035804991223, -1841.2696529948298, -9682.328663149914, -721.1343313615718, 1472.4882212267187, -5814.113415970018, -3556.184894583809, -4409.507442654067, -7856.1911411513265, -3539.4881414756946, -2014.4956725234597, -4908.487785874341, -4155.211645986038, -11903.421509673777, -13762.01376462147, 0.011, -0.10875000000000001, 0.98925, 192.0, 0.0, 0.0, 0.0, 0.0, 0.0, 0.0, 0.0, 0.0, 0.0, 1.645920235580379E9, 0.0, 2022-02-27 11:03:55.580
184.0, -3976.9341322105092, -7157.475609478428, -1949.1838752250524, -9889.61874122843, -1021.6535355631752, 1235.0456398779918, -5791.448747092337, -3582.448194318795, -4530.98917376866, -8230.314639844257, -3589.891325222412, -1882.0168831368546, -4949.167960783, -4164.577026912812, -11836.165110607757, -14010.699273431215, 0.0125, -0.10637500000000001, 0.990625, 192.0, 0.0, 56.0, 126.0, 96.0, 15.5, 0.0, 0.0, 0.0, 0.0, 1.645920235587487E9, 0.0, 2022-02-27 11:03:55.587
186.0, -3728.0698094451204, -7075.198838138443, -1898.5124705448713, -9736.419884731757, -808.4849486929118, 1385.5175835511188, -5788.364206357504, -3484.2122774377203, -2908.5207472468314, -7434.324316301861, -3540.382211253907, -1774.9967306848444, -4914.433349899453, -4076.9134851590975, -11506.387472914157, -13127.939477913318, 0.0125, -0.10637500000000001, 0.990625, 192.0, 0.0, 0.0, 0.0, 0.0, 0.0, 0.0, 0.0, 0.0, 0.0, 1.645920235595014E9, 0.0, 2022-02-27 11:03:55.595
188.0, -3751.0026992562653, -7027.701381170915, -1870.03634810881, -9767.287643824535, -852.7190509699644, 1386.6351707738843, -5820.662477095423, -3620.0438284926213, -5378.746137469547, -8342.69921096554, -3567.964263911756, -2073.5713331188363, -4930.683068118461, -4208.006466389474, -12097.904038179404, -14284.642253475458, 0.0125, -0.10637500000000001, 0.990625, 192.0, 0.0, 0.0, 0.0, 0.0, 0.0, 0.0, 0.0, 0.0, 0.0, 1.645920235603112E9, 0.0, 2022-02-27 11:03:55.603
190.0, -3944.837027172688, -7172.853609663679, -1956.872875317678, -9860.874397858906, -993.3338753383011, 1243.9863376601145, -5804.658628065423, -3522.5231674341167, -2999.40294020211, -7675.052604085518, -3559.3588422964626, -1698.7325786033368, -4935.779265854271, -4069.6715199555783, -11477.620777800177, -13302.260732920258, 0.0125, -0.10637500000000001, 0.990625, 192.0, 0.0, 0.0, 0.0, 0.0, 0.0, 0.0, 0.0, 0.0, 0.0, 1.645920235611028E9, 0.0, 2022-02-27 11:03:55.611
192.0, -3583.5434297971046, -6967.217560674854, -1835.5699581587266, -9660.468657072623, -733.3607355786247, 1482.6582649538834, -5835.5487389026575, -3539.711658920248, -4335.411409784724, -7827.826777437542, -3529.0051733261557, -1997.5306984818815, -4902.385759638043, -4138.671355089111, -11885.897742020816, -13722.3394182133, 0.0125, -0.10637500000000001, 0.990625, 192.0, 0.0, 0.0, 0.0, 0.0, 0.0, 0.0, 0.0, 0.0, 0.0, 1.645920235617308E9, 0.0, 2022-02-27 11:03:55.617
194.0, -3932.9011956335544, -7118.740036337381, -1936.5774913522591, -9860.33795599198, -1031.9353380126165, 1247.7637824730614, -5827.859738810032, -3598.988485215722, -4550.56930191151, -8221.86568044015, -3569.1042028789766, -1876.652464467581, -4938.349716466631, -4171.193143271583, -11851.945442193204, -14027.597192239427, 0.01125, -0.1071875, 0.9903124999999999, 192.0, 0.0, 40.0, 126.0, 80.0, 15.0, 120.0, 0.0, 0.0, 0.0, 1.645920235625351E9, 0.0, 2022-02-27 11:03:55.625
196.0, -3692.508184016727, -7051.282471571264, -1886.911915172567, -9723.92525958124, -817.8950331085961, 1378.3426735809653, -5791.806375003622, -3508.128644004899, -2856.731755343885, -7397.734510628523, -3514.40948419684, -1748.1075821051102, -4902.408111382498, -4083.0602148843072, -11497.849106532229, -13120.049312120595, 0.01125, -0.1071875, 0.9903124999999999, 192.0, 0.0, 0.0, 0.0, 0.0, 0.0, 0.0, 0.0, 0.0, 0.0, 1.645920235631943E9, 0.0, 2022-02-27 11:03:55.631
198.0, -3723.107722176042, -7012.233974007842, -1864.0907840836985, -9750.88146339434, -853.993100403917, 1393.0054179436468, -5830.050209766652, -3603.3917788734175, -5361.110611094309, -8320.45922523251, -3556.698984706281, -2063.7365655585013, -4925.944498293937, -4231.006411433985, -12097.34524456802, -14274.516913237205, 0.01125, -0.1071875, 0.9903124999999999, 192.0, 0.0, 0.0, 0.0, 0.0, 0.0, 0.0, 0.0, 0.0, 0.0, 1.645920235640051E9, 0.0, 2022-02-27 11:03:55.640
200.0, -3925.323954263205, -7160.828371146724, -1954.9953287834323, -9850.458484942734, -1022.6370123192087, 1251.943558686204, -5861.052079326163, -3527.7534756366585, -3022.7381614134506, -7690.2517903151265, -3551.51337999265, -1687.5120028867725, -4924.6704488599835, -4094.705473745522, -11485.577998826266, -13316.655256349475, 0.01125, -0.1071875, 0.9903124999999999, 192.0, 0.0, 0.0, 0.0, 0.0, 0.0, 0.0, 0.0, 0.0, 0.0, 1.645920235648003E9, 0.0, 2022-02-27 11:03:55.648
202.0, -3573.1945721142974, -6969.028051975733, -1839.9732518164221, -9663.664956529732, -747.5540933077447, 1487.061558611579, -5819.813110806122, -3564.6115022434597, -4267.037423495939, -7796.44492822229, -3517.4269696983065, -1969.5239626793818, -4886.873648986059, -4137.307898677337, -11882.522628608063, -13696.634912089696, 0.01125, -0.1071875, 0.9903124999999999, 192.0, 0.0, 0.0, 0.0, 0.0, 0.0, 0.0, 0.0, 0.0, 0.0, 1.645920235655085E9, 0.0, 2022-02-27 11:03:55.655
204.0, -3935.046963101264, -7136.599080157171, -1944.6017676117144, -9871.357366008446, -1043.7370590850187, 1238.7560294575728, -5797.796642517644, -3600.933086983334, -4623.234823135713, -8258.813114024773, -3577.6872727498144, -1892.3210373307513, -4935.198120498433, -4186.8840678792085, -11861.44493358671, -14052.698201262738, 0.010624999999999999, -0.10859375, 0.99015625, 192.0, 0.0, 40.0, 126.0, 72.0, 15.0, 120.0, 0.0, 0.0, 0.0, 1.645920235662607E9, 0.0, 2022-02-27 11:03:55.662
206.0, -3704.242849855763, -7061.228997853876, -1901.261735112874, -9732.150701540793, -843.3089665542801, 1376.4651270467195, -5804.479814109781, -3483.7875942930696, -2843.7453918153515, -7417.336990515828, -3533.9672605952337, -1754.6119397416044, -4908.040750985236, -4084.200153851528, -11497.111498965205, -13107.599390458989, 0.010624999999999999, -0.10859375, 0.99015625, 192.0, 0.0, 0.0, 0.0, 0.0, 0.0, 0.0, 0.0, 0.0, 0.0, 1.645920235670626E9, 0.0, 2022-02-27 11:03:55.670
208.0, -3700.0854253870757, -7006.3554652160965, -1866.0130341068548, -9743.348925512902, -858.0834696392382, 1422.1967962022777, -5854.123038545017, -3622.8825000384454, -5353.667480190692, -8303.181326768557, -3561.2587405751638, -2066.9552167600655, -4919.551899379719, -4195.757710427965, -12106.956494683802, -14266.11265732201, 0.010624999999999999, -0.10859375, 0.99015625, 192.0, 0.0, 0.0, 0.0, 0.0, 0.0, 0.0, 0.0, 0.0, 0.0, 1.645920235684849E9, 0.0, 2022-02-27 11:03:55.684
210.0, -3938.1762073250065, -7163.443525247994, -1965.0312620438651, -9863.221331026714, -1035.243396192002, 1240.0524306359805, -5798.377787873482, -3516.018809797622, -3081.7467667754613, -7696.5326305070685, -3574.602732014982, -1703.560555405683, -4938.260309488811, -4116.498424589447, -11498.989045499451, -13336.436550192422, 0.010624999999999999, -0.10859375, 0.99015625, 192.0, 0.0, 0.0, 0.0, 0.0, 0.0, 0.0, 0.0, 0.0, 0.0, 1.645920235692315E9, 0.0, 2022-02-27 11:03:55.692
212.0, -3575.8767814489347, -6963.149543183988, -1836.2405104923857, -9665.721317019621, -735.3500408351471, 1481.2054015642884, -5820.774235817699, -3555.1343625944096, -4220.6352020067225, -7767.25354996366, -3540.6504321873704, -1997.3965880151497, -4898.742425291828, -4163.034756545396, -11866.138799922324, -13669.589301298774, 0.010624999999999999, -0.10859375, 0.99015625, 192.0, 0.0, 0.0, 0.0, 0.0, 0.0, 0.0, 0.0, 0.0, 0.0, 1.645920235701623E9, 0.0, 2022-02-27 11:03:55.701
214.0, -3948.413306285537, -7150.188940785997, -1938.1421134641307, -9868.13871480688, -1014.9927157154937, 1254.134029642824, -5806.044436221652, -3584.437499575317, -4679.561219163086, -8279.644939857119, -3597.2003456592975, -1920.037200455332, -4929.3643151955985, -4202.977323887029, -11886.30007342101, -14074.558207340027, 0.0113125, -0.107296875, 0.989078125, 192.0, 0.0, 48.0, 126.0, 88.0, 15.0, 112.0, 0.0, 0.0, 0.0, 1.64592023570824E9, 0.0, 2022-02-27 11:03:55.708
216.0, -3733.590690325581, -7077.992806195356, -1897.8866217001228, -9733.469454463657, -849.2768823238472, 1372.352406066943, -5799.00363671823, -3491.163669963321, -2830.0661242087035, -7435.576013991358, -3554.0391271160993, -1749.3592797946073, -4905.202079439411, -4102.327418604782, -11489.288388405846, -13103.821945646043, 0.0113125, -0.107296875, 0.989078125, 192.0, 0.0, 0.0, 0.0, 0.0, 0.0, 0.0, 0.0, 0.0, 0.0, 1.645920235714792E9, 0.0, 2022-02-27 11:03:55.714
218.0, -3710.434283069883, -7016.681971154449, -1852.6466909225812, -9731.92718409624, -843.4877805099226, 1401.1861564142891, -5819.746055572755, -3616.2887354241298, -5364.0833931068655, -8309.663332660595, -3578.4248803168393, -2071.8949522846883, -4918.456663901408, -4222.512748540968, -12105.570686527573, -14256.948442095334, 0.0113125, -0.107296875, 0.989078125, 192.0, 0.0, 0.0, 0.0, 0.0, 0.0, 0.0, 0.0, 0.0, 0.0, 1.645920235722932E9, 0.0, 2022-02-27 11:03:55.722
220.0, -3958.158666868051, -7180.073223122743, -1952.938968293544, -9851.956051821238, -1020.468893107044, 1247.4955615395977, -5785.056148178119, -3491.6330565968824, -3132.5299301779187, -7731.96014546873, -3583.275208863641, -1702.3982646940071, -4929.610184384606, -4101.410997082115, -11504.576981613278, -13356.933099857939, 0.0113125, -0.107296875, 0.989078125, 192.0, 0.0, 0.0, 0.0, 0.0, 0.0, 0.0, 0.0, 0.0, 0.0, 1.645920235730861E9, 0.0, 2022-02-27 11:03:55.730
222.0, -3588.1702408993533, -6986.708281839881, -1825.2211004759195, -9651.215034868126, -714.7417324473539, 1489.7437679462157, -5802.602267575535, -3528.356972736952, -4173.2048002725605, -7759.542198126579, -3547.17714156832, -1972.8096691143119, -4900.105881703602, -4141.599433612756, -11842.244785099601, -13629.825547912784, 0.0113125, -0.107296875, 0.989078125, 192.0, 0.0, 0.0, 0.0, 0.0, 0.0, 0.0, 0.0, 0.0, 0.0, 1.64592023573696E9, 0.0, 2022-02-27 11:03:55.736
224.0, -3951.006108642353, -7147.573786684727, -1914.2704503858627, -9850.972575065205, -999.3464945967788, 1272.909494985282, -5773.187371872351, -3570.378252312929, -4734.79237971215, -8285.12111724867, -3600.575459072049, -1912.6611247850806, -4931.823007085683, -4179.865620120242, -11884.623692586863, -14078.0227277306, 0.01165625, -0.1096484375, 0.9885390625, 192.0, 0.0, 48.0, 126.0, 64.0, 15.0, 112.0, 0.0, 0.0, 0.0, 1.645920235744526E9, 0.0, 2022-02-27 11:03:55.744
226.0, -3747.5158271212376, -7084.988902209867, -1873.299702799285, -9721.06423629096, -813.9387743400067, 1390.2785051200992, -5773.030909661164, -3464.900370228335, -2804.2945628517346, -7417.314638771372, -3555.670804461337, -1744.6430617145375, -4905.067968972679, -4059.8591041396985, -11465.863760216685, -13079.190323256295, 0.01165625, -0.1096484375, 0.9885390625, 192.0, 0.0, 0.0, 0.0, 0.0, 0.0, 0.0, 0.0, 0.0, 0.0, 1.645920235752693E9, 0.0, 2022-02-27 11:03:55.752
228.0, -3711.596573781559, -7015.542032187228, -1828.0150685328329, -9718.136157767316, -799.8348235887079, 1433.9091102968587, -5797.617828562001, -3588.1255374104426, -5346.805494642913, -8289.63616962864, -3580.861220462468, -2065.7929260483893, -4917.7414080788385, -4203.223193076038, -12087.577532241052, -14234.574345895571, 0.01165625, -0.1096484375, 0.9885390625, 192.0, 0.0, 0.0, 0.0, 0.0, 0.0, 0.0, 0.0, 0.0, 0.0, 1.645920235760644E9, 0.0, 2022-02-27 11:03:55.760
230.0, -3970.3403675961936, -7185.080013880732, -1934.163502951086, -9845.608156395932, -997.9383346960944, 1259.744317501106, -5777.411851574404, -3484.1452222043545, -3176.652273732695, -7745.862930519931, -3590.0030839446886, -1701.2359739823312, -4931.152454752023, -4100.226354625983, -11496.396243142635, -13367.438419751934, 0.01165625, -0.1096484375, 0.9885390625, 192.0, 0.0, 0.0, 0.0, 0.0, 0.0, 0.0, 0.0, 0.0, 0.0, 1.645920235767225E9, 0.0, 2022-02-27 11:03:55.767
232.0, -3594.026397946644, -6983.422575404951, -1808.9713822569113, -9638.094560872862, -694.3122380152033, 1498.43859653933, -5809.978343245786, -3538.3034990195633, -4114.24089839946, -7741.370229884414, -3549.7475921806804, -1953.0283752713651, -4894.585000823141, -4142.046468501862, -11816.38381676481, -13604.12104178918, 0.01165625, -0.1096484375, 0.9885390625, 192.0, 0.0, 0.0, 0.0, 0.0, 0.0, 0.0, 0.0, 0.0, 0.0, 1.645920235775372E9, 0.0, 2022-02-27 11:03:55.775
234.0, -3944.814675428233, -7140.868263348135, -1910.0906741727204, -9840.199034237747, -975.4971832629661, 1284.5324021020415, -5802.110529197518, -3578.603694272482, -4775.696072065362, -8290.172611495569, -3600.7542730276914, -1902.9828194359327, -4933.432332686464, -4189.20864930256, -11892.312692679488, -14109.672797879315, 0.008, -0.116, 0.984, 192.0, 0.0, 32.0, 126.0, 48.0, 15.0, 96.0, 0.0, 0.0, 0.0, 1.645920235783188E9, 0.0, 2022-02-27 11:03:55.783
236.0, -3760.569245883137, -7102.780890796291, -1878.5523627462821, -9726.607468915876, -822.0971610661937, 1382.1424701383676, -5778.931770197364, -3465.928550473279, -2783.865068419584, -7412.08433056883, -3560.8787609194233, -1723.945346348923, -4910.007704497302, -4072.644301968134, -11455.604309511698, -13081.134925023905, 0.008, -0.116, 0.984, 192.0, 0.0, 0.0, 0.0, 0.0, 0.0, 0.0, 0.0, 0.0, 0.0, 1.645920235790233E9, 0.0, 2022-02-27 11:03:55.790
238.0, -3702.3876550659725, -7019.274773511264, -1824.9975830313663, -9712.63762863131, -800.4830241779118, 1437.5300928986185, -5807.363189144515, -3589.6454560334037, -5334.221462514575, -8273.475858387454, -3587.276171121141, -2054.2817776539064, -4910.655905086506, -4196.942352884096, -12084.381232783942, -14226.751235336214, 0.008, -0.116, 0.984, 192.0, 0.0, 0.0, 0.0, 0.0, 0.0, 0.0, 0.0, 0.0, 0.0, 1.64592023579678E9, 0.0, 2022-02-27 11:03:55.796
240.0, -3967.099364650174, -7185.147069114098, -1931.0789622162538, -9850.816112854018, -991.1657561261364, 1252.2788348530335, -5786.441956334348, -3510.430873683795, -3206.4247973471643, -7756.122381224916, -3594.9428194693114, -1691.8929448000129, -4927.531472150263, -4094.3925493231477, -11504.129946724172, -13399.133193389558, 0.008, -0.116, 0.984, 192.0, 0.0, 0.0, 0.0, 0.0, 0.0, 0.0, 0.0, 0.0, 0.0, 1.645920235812801E9, 0.0, 2022-02-27 11:03:55.812
242.0, -3598.5861538155264, -6991.938590042423, -1812.1900334584755, -9646.811741210431, -706.6056974656221, 1493.767081948171, -5797.439014606359, -3526.769998880625, -4044.168179532073, -7715.308095849526, -3561.4152027863506, -1942.5007036329155, -4896.35078863511, -4121.192290925061, -11799.642360167785, -13576.15900947559, 0.008, -0.116, 0.984, 192.0, 0.0, 0.0, 0.0, 0.0, 0.0, 0.0, 0.0, 0.0, 0.0, 1.645920235819927E9, 0.0, 2022-02-27 11:03:55.819
244.0, -3938.869111403121, -7140.354173225663, -1903.1616333915752, -9835.885147557872, -980.5710292543208, 1295.0824254849465, -5790.129994169473, -3578.5589907835715, -4823.215880777345, -8306.422329714576, -3617.182805202342, -1916.7738457648572, -4933.208815241911, -4152.641195373678, -11903.756785840606, -14111.326826969007, 0.012, -0.116, 0.988, 192.0, 0.0, 48.0, 126.0, 48.0, 15.0, 112.0, 0.0, 0.0, 0.0, 1.645920235827515E9, 0.0, 2022-02-27 11:03:55.827
246.0, -3764.525504651726, -7104.88195477509, -1879.7370052024135, -9723.165300269759, -823.4382657335121, 1382.6342085163842, -5777.6130172745015, -3464.3639283614075, -2746.9623383238722, -7406.429339221638, -3570.691176735303, -1714.1999857664093, -4900.955247992903, -4058.4956477279247, -11448.183530352537, -13065.175779482815, 0.012, -0.116, 0.988, 192.0, 0.0, 0.0, 0.0, 0.0, 0.0, 0.0, 0.0, 0.0, 0.0, 1.645920235835492E9, 0.0, 2022-02-27 11:03:55.835
248.0, -3688.9319049038777, -7008.724750128359, -1815.654553849048, -9703.138137237804, -777.1925064554819, 1447.2307499922217, -5800.43414836337, -3600.240182905219, -5300.8056045538915, -8247.324317374745, -3583.1410983969095, -2053.7006322980683, -4899.68119855895, -4183.285437021904, -12079.441497259319, -14205.584133337037, 0.012, -0.116, 0.988, 192.0, 0.0, 0.0, 0.0, 0.0, 0.0, 0.0, 0.0, 0.0, 0.0, 1.645920235842784E9, 0.0, 2022-02-27 11:03:55.842
250.0, -3969.5357047958023, -7186.152897614586, -1926.0274679693543, -9855.957014078738, -996.6419335176867, 1262.292416369011, -5776.294264351638, -3527.8875861033903, -3241.047649508435, -7782.273922237626, -3586.829136232035, -1693.211697722876, -4911.214698697889, -4079.059252626807, -11513.160051484116, -13414.801766252729, 0.012, -0.116, 0.988, 192.0, 0.0, 0.0, 0.0, 0.0, 0.0, 0.0, 0.0, 0.0, 0.0, 1.645920235850101E9, 0.0, 2022-02-27 11:03:55.850
252.0, -3593.7805287576352, -6995.917200555468, -1802.332914153685, -9647.303479588447, -704.9740201203848, 1498.0362651391347, -5781.52457255418, -3520.176234266309, -3981.7844607573106, -7697.717272963199, -3558.3306620515186, -1941.8972065326222, -4889.667617042973, -4108.965886708008, -11787.95239781766, -13544.73245677143, 0.012, -0.116, 0.988, 192.0, 0.0, 0.0, 0.0, 0.0, 0.0, 0.0, 0.0, 0.0, 0.0, 1.64592023585803E9, 0.0, 2022-02-27 11:03:55.858
254.0, -3928.296736275761, -7132.486359177395, -1884.810851193768, -9832.80060682304, -971.9432558945723, 1299.0386842535358, -5775.042566662141, -3594.47343283575, -4860.185666106423, -8303.717768635484, -3612.310124911085, -1932.9788604949547, -4926.235070971856, -4162.475962934013, -11911.870469077883, -14124.469652708729, 0.014, -0.11, 0.992, 192.0, 0.0, 56.0, 126.0, 72.0, 15.5, 0.0, 0.0, 0.0, 0.0, 1.645920235865146E9, 0.0, 2022-02-27 11:03:55.865
0.0, -3768.280597720218, -7103.563201852227, -1863.1967143054862, -9723.053541547482, -829.0709053362496, 1393.251287132655, -5776.406023073915, -3467.4931725851507, -2720.766093822252, -7402.60719091978, -3567.0031389001774, -1708.2991252302081, -4891.120480432568, -4041.5977289197126, -11430.615059210666, -13052.301174676559, 0.014, -0.11, 0.992, 192.0, 0.0, 0.0, 0.0, 0.0, 0.0, 0.0, 0.0, 0.0, 0.0, 1.645920235872375E9, 0.0, 2022-02-27 11:03:55.872
2.0, -3678.448936754339, -7001.281619224742, -1809.3737136571067, -9697.863125546352, -772.185715697493, 1468.1743345468444, -5780.362281842504, -3568.9030371788785, -5274.005862951978, -8237.690715514507, -3579.8106884730687, -2051.4654578525374, -4887.231276897344, -4166.96866356953, -12066.745706408705, -14175.006946922178, 0.014, -0.11, 0.992, 192.0, 0.0, 0.0, 0.0, 0.0, 0.0, 0.0, 0.0, 0.0, 0.0, 1.645920235879713E9, 0.0, 2022-02-27 11:03:55.879
4.0, -3957.421059301026, -7171.557208485271, -1914.359857363684, -9856.225235012202, -984.4825845339996, 1274.4070618637875, -5757.831723431555, -3512.5542894070495, -3281.2807895279875, -7786.029015306118, -3591.768871756658, -1704.8122530951803, -4909.6947800749285, -4060.417897751081, -11510.880173549673, -13418.243934898846, 0.014, -0.11, 0.992, 192.0, 0.0, 0.0, 0.0, 0.0, 0.0, 0.0, 0.0, 0.0, 0.0, 1.645920235887726E9, 0.0, 2022-02-27 11:03:55.887
6.0, -3578.894266950401, -6989.211677218876, -1790.911172737023, -9640.240328340571, -683.4269384654688, 1517.862262470992, -5804.144537942951, -3533.7437431506805, -3901.0946632736523, -7660.211045767194, -3542.729144421714, -1921.1547876780974, -4859.425706794943, -4090.5033457879244, -11763.879569039294, -13503.046453362282, 0.014, -0.11, 0.992, 192.0, 0.0, 0.0, 0.0, 0.0, 0.0, 0.0, 0.0, 0.0, 0.0, 1.645920235895741E9, 0.0, 2022-02-27 11:03:55.895
8.0, -3918.0596373152302, -7130.5641091542375, -1879.1111563576649, -9837.18154873628, -956.8781801316953, 1319.1999577522229, -5753.450781518314, -3564.5891504990045, -4898.116576447079, -8317.709960664506, -3605.112863196476, -1932.1741976945636, -4912.376989409565, -4165.068765290829, -11914.843251090439, -14126.347199242975, 0.012, -0.106, 0.992, 192.0, 0.0, 48.0, 126.0, 88.0, 15.5, 0.0, 0.0, 0.0, 0.0, 1.645920235903115E9, 0.0, 2022-02-27 11:03:55.903
10.0, -3764.2572837182624, -7093.504916847339, -1856.4017839910728, -9737.984506843628, -818.990268586906, 1396.671104034317, -5777.747127741233, -3449.544721787539, -2708.5396896051993, -7414.811243392378, -3566.533752266616, -1718.9385555909344, -4892.059253699691, -4041.709487641989, -11418.16513754906, -13035.112683190428, 0.012, -0.106, 0.992, 192.0, 0.0, 0.0, 0.0, 0.0, 0.0, 0.0, 0.0, 0.0, 0.0, 1.645920235910336E9, 0.0, 2022-02-27 11:03:55.910
12.0, -3664.5237999586825, -7000.566363402172, -1793.302809393741, -9704.613352371854, -753.0973259326609, 1474.8798578834364, -5796.723758783789, -3571.048804646588, -5247.22847309452, -8223.743226974395, -3575.832077960024, -2058.707423056057, -4885.219619896367, -4170.522590937923, -12055.458075458775, -14163.89812992789, 0.012, -0.106, 0.992, 192.0, 0.0, 0.0, 0.0, 0.0, 0.0, 0.0, 0.0, 0.0, 0.0, 1.645920235918301E9, 0.0, 2022-02-27 11:03:55.918
14.0, -3967.971082683931, -7182.576618501737, -1910.7612265063797, -9855.644089656364, -992.5292125379101, 1272.5071635850863, -5780.004653931219, -3493.130623475388, -3346.6596420597607, -7813.789881919609, -3596.9768282147443, -1710.1543200199987, -4918.099035990123, -4081.294427072338, -11519.060912020315, -13443.724923577896, 0.012, -0.106, 0.992, 192.0, 0.0, 0.0, 0.0, 0.0, 0.0, 0.0, 0.0, 0.0, 0.0, 1.64592023593195E9, 0.0, 2022-02-27 11:03:55.931
16.0, -3584.8174792310574, -6973.297235166698, -1785.658512790026, -9643.324869075403, -675.2014965059158, 1529.9769079657685, -5777.389499829948, -3493.9352862757787, -3857.329947630161, -7649.616318895379, -3550.060516603055, -1904.3686275921618, -4865.4383260534205, -4082.635531739656, -11738.532690826976, -13476.984319327394, 0.012, -0.106, 0.992, 192.0, 0.0, 0.0, 0.0, 0.0, 0.0, 0.0, 0.0, 0.0, 0.0, 1.645920235939967E9, 0.0, 2022-02-27 11:03:55.939
18.0, -3894.947933548443, -7094.734262792381, -1860.55920845976, -9826.676228842287, -945.0541073148379, 1335.963766093703, -5777.858886463509, -3552.698022448781, -4932.78413209726, -8321.554460710819, -3598.250877648697, -1922.741761534424, -4900.01647472578, -4145.890968548175, -11919.224193003678, -14142.887490139901, 0.016, -0.106, 0.992, 192.0, 0.0, 64.0, 126.0, 88.0, 15.5, 0.0, 0.0, 0.0, 0.0, 1.645920235948011E9, 0.0, 2022-02-27 11:03:55.948
20.0, -3774.181458256419, -7087.5370010777715, -1856.3123770132515, -9743.326573768447, -828.1097803246714, 1408.249307662166, -5774.9755114287755, -3442.8391984509467, -2683.4833840708, -7409.066845067364, -3558.1071446069654, -1688.5401831317167, -4883.565590806674, -4022.5093391548803, -11412.219573523947, -13043.695753061265, 0.016, -0.106, 0.992, 192.0, 0.0, 0.0, 0.0, 0.0, 0.0, 0.0, 0.0, 0.0, 0.0, 1.645920235954773E9, 0.0, 2022-02-27 11:03:55.954
22.0, -3669.4188319943946, -6995.2019447328985, -1796.1638326840202, -9696.879648790318, -749.319881119714, 1498.6174104949725, -5796.701407039333, -3573.0381099031106, -5231.090513597788, -8221.083369384214, -3578.022548916644, -2046.0786874388086, -4888.147698420013, -4142.381744668692, -12052.90997659087, -14150.978821632723, 0.016, -0.106, 0.992, 192.0, 0.0, 0.0, 0.0, 0.0, 0.0, 0.0, 0.0, 0.0, 0.0, 1.645920235962588E9, 0.0, 2022-02-27 11:03:55.962
24.0, -3968.8204489732325, -7171.512504996361, -1909.6883427725247, -9854.682964644786, -992.0151224154381, 1292.7578440615946, -5786.866639478999, -3493.7564723201363, -3386.28928497902, -7840.07553339905, -3595.5463165696046, -1697.5702878916609, -4906.140852706534, -4076.131174103162, -11532.94134532706, -13471.686955891486, 0.016, -0.106, 0.992, 192.0, 0.0, 0.0, 0.0, 0.0, 0.0, 0.0, 0.0, 0.0, 0.0, 1.645920235970677E9, 0.0, 2022-02-27 11:03:55.970
26.0, -3597.669732292859, -6979.533371869728, -1797.884917007079, -9652.28791860198, -681.3705779755805, 1520.7903409946373, -5772.539171283147, -3489.889620529368, -3802.299952781195, -7635.758237333088, -3555.313176550052, -1897.5289937888379, -4871.070965656158, -4083.574305006779, -11733.905879724727, -13451.033944014782, 0.016, -0.106, 0.992, 192.0, 0.0, 0.0, 0.0, 0.0, 0.0, 0.0, 0.0, 0.0, 0.0, 1.645920235977843E9, 0.0, 2022-02-27 11:03:55.977
28.0, -3902.7263406188895, -7112.6603618455365, -1873.5455719882932, -9834.700505101742, -933.9005868316397, 1334.935585848759, -5767.890008436443, -3568.2548365896746, -4989.535211269285, -8339.391152786155, -3610.633744076937, -1937.426857641561, -4909.940649263936, -4166.700442636066, -11941.866510136904, -14164.434571794818, 0.014, -0.10200000000000001, 0.99, 192.0, 0.0, 56.0, 126.0, 104.0, 15.0, 120.0, 0.0, 0.0, 0.0, 1.645920235984431E9, 0.0, 2022-02-27 11:03:55.984
30.0, -3797.270810278751, -7106.468928631417, -1870.1481068310866, -9758.034021620038, -836.7375536844199, 1397.833394745993, -5770.974549171276, -3444.7614484741034, -2698.839032511596, -7425.271859797462, -3574.4909732927053, -1692.6752558559485, -4887.5665530641745, -4039.027278307352, -11414.477099713935, -13047.652011829856, 0.014, -0.10200000000000001, 0.99, 192.0, 0.0, 0.0, 0.0, 0.0, 0.0, 0.0, 0.0, 0.0, 0.0, 1.645920235992312E9, 0.0, 2022-02-27 11:03:55.992
32.0, -3660.478134212272, -6981.500325381795, -1797.2590681623303, -9699.427747658223, -743.4190205835129, 1499.958515162291, -5801.305866397127, -3561.571664997538, -5216.5171762129285, -8194.753014415863, -3589.243124633208, -2054.6617573096464, -4888.862954242582, -4151.34479419527, -12057.156808037378, -14134.483234224706, 0.014, -0.10200000000000001, 0.99, 192.0, 0.0, 0.0, 0.0, 0.0, 0.0, 0.0, 0.0, 0.0, 0.0, 1.645920236000257E9, 0.0, 2022-02-27 11:03:56.000
34.0, -3977.8729054776322, -7186.287008081318, -1908.9507352054998, -9866.507037461644, -988.1706223691252, 1293.517803373075, -5768.784078214655, -3476.0315389670777, -3450.863474710402, -7856.057030684595, -3605.917525996867, -1721.9113376034902, -4899.815309025683, -4068.218656565983, -11542.530243698387, -13490.060089833749, 0.014, -0.10200000000000001, 0.99, 192.0, 0.0, 0.0, 0.0, 0.0, 0.0, 0.0, 0.0, 0.0, 0.0, 1.645920236008285E9, 0.0, 2022-02-27 11:03:56.008
36.0, -3592.9311624683337, -6999.649941879505, -1788.6536465470372, -9647.035258654983, -682.711682642899, 1540.5492830931287, -5790.666436036401, -3491.7224635747034, -3746.9570335098547, -7620.000257492096, -3557.8389236735015, -1888.23066809543, -4861.593826007107, -4077.09229911474, -11710.928286424672, -13418.735673276864, 0.014, -0.10200000000000001, 0.99, 192.0, 0.0, 0.0, 0.0, 0.0, 0.0, 0.0, 0.0, 0.0, 0.0, 1.645920236014875E9, 0.0, 2022-02-27 11:03:56.014
38.0, -3890.298770701739, -7112.369789167618, -1859.262807281352, -9818.406083393822, -934.5934909097542, 1365.4904205191638, -5795.248543649739, -3543.600862455471, -5006.567240544229, -8336.396019029144, -3602.8776887509453, -1930.3413546492286, -4898.362445636088, -4140.280680689893, -11946.64978345034, -14162.914653171856, 0.014, -0.1, 0.988, 192.0, 0.0, 56.0, 126.0, 112.0, 15.0, 112.0, 0.0, 0.0, 0.0, 1.645920236022933E9, 0.0, 2022-02-27 11:03:56.022
40.0, -3801.6517521919914, -7116.907193292045, -1868.5387812303045, -9749.897986638307, -853.9707486594616, 1414.5524995985627, -5771.0416044046415, -3437.743000715137, -2678.610703779543, -7412.9560486025875, -3570.1994383572865, -1671.9998922347895, -4886.940704219425, -4008.2712779368494, -11405.536401931811, -13036.029104713096, 0.014, -0.1, 0.988, 192.0, 0.0, 0.0, 0.0, 0.0, 0.0, 0.0, 0.0, 0.0, 0.0, 1.645920236030943E9, 0.0, 2022-02-27 11:03:56.030
42.0, -3659.6734714118807, -6997.5488779007055, -1798.4437106184616, -9685.435555629201, -751.0633171872279, 1513.1683961353776, -5793.4604040933145, -3561.6610719753594, -5180.776736828892, -8182.012520076338, -3583.655188519381, -2039.6190332912247, -4880.72691926085, -4131.921128263608, -12046.2938602321, -14105.873001321914, 0.014, -0.1, 0.988, 192.0, 0.0, 0.0, 0.0, 0.0, 0.0, 0.0, 0.0, 0.0, 0.0, 1.645920236037497E9, 0.0, 2022-02-27 11:03:56.037
44.0, -3983.907876480565, -7187.739871470913, -1912.9964009519103, -9858.61687166892, -991.7692532264297, 1291.9531812612036, -5770.348700326526, -3506.9216498043124, -3498.9197252893123, -7885.740147321242, -3606.14104344142, -1710.0202095532668, -4911.058236486702, -4080.7132817164998, -11554.376668259702, -13513.797642445285, 0.014, -0.1, 0.988, 192.0, 0.0, 0.0, 0.0, 0.0, 0.0, 0.0, 0.0, 0.0, 0.0, 1.645920236044566E9, 0.0, 2022-02-27 11:03:56.044
46.0, -3598.630857304437, -6986.752985328792, -1790.3300273811851, -9648.666936000222, -693.418168236991, 1545.1313907064666, -5796.3437791280485, -3501.154899734843, -3686.4285095248833, -7599.615466548857, -3560.9681678972447, -1870.7739556758352, -4867.7852592212275, -4067.7492699324216, -11696.533762995454, -13396.071004399182, 0.014, -0.098, 0.987, 192.0, 0.0, 56.0, 126.5, 0.0, 15.0, 104.0, 0.0, 0.0, 0.0, 1.645920236059903E9, 0.0, 2022-02-27 11:03:56.059
48.0, -3887.683616600468, -7104.5019751193495, -1856.781763646813, -9819.009580494116, -929.7878658518632, 1367.3679670534095, -5785.413776089404, -3593.9369909688226, -5053.23768296691, -8336.798350429339, -3610.8125580325795, -1935.0352209848431, -4900.217640425878, -4144.05812550284, -11954.674059709796, -14189.356766862486, 0.014, -0.098, 0.987, 192.0, 0.0, 0.0, 0.0, 0.0, 0.0, 0.0, 0.0, 0.0, 0.0, 1.645920236067187E9, 0.0, 2022-02-27 11:03:56.067
50.0, -3811.1512435854966, -7115.119053735621, -1874.5066969998716, -9762.057335621994, -851.4450015360119, 1409.3445431404762, -5782.753918499222, -3451.466971810695, -2671.3910903204787, -7421.069731839863, -3577.508458794172, -1670.077642211633, -4890.718149032373, -4015.356780929182, -11402.675378641532, -13050.021296742118, 0.014, -0.098, 0.987, 192.0, 0.0, 0.0, 0.0, 0.0, 0.0, 0.0, 0.0, 0.0, 0.0, 1.64592023607517E9, 0.0, 2022-02-27 11:03:56.075
52.0, -3659.3828987339616, -6995.067834266167, -1802.914059509523, -9689.458869631157, -747.2411688853704, 1527.406457353408, -5799.428319862881, -3539.286975775597, -5149.171370169088, -8160.3089762102345, -3585.9127147093673, -2041.2060071475516, -4893.7356345338385, -4136.503235876946, -12047.187930010312, -14094.317149438519, 0.014, -0.098, 0.987, 192.0, 0.0, 0.0, 0.0, 0.0, 0.0, 0.0, 0.0, 0.0, 0.0, 1.645920236083131E9, 0.0, 2022-02-27 11:03:56.083
54.0, -4000.783443544322, -7190.4891360389165, -1927.457979614494, -9874.397203254366, -1013.0034104589714, 1296.0435504965246, -5758.904607165409, -3497.6903793442702, -3563.2927493205966, -7904.247391730237, -3619.3285726700515, -1715.921070089468, -4923.619916870584, -4072.1749153345727, -11579.947063916572, -13543.145482915103, 0.014, -0.098, 0.987, 192.0, 0.0, 0.0, 0.0, 0.0, 0.0, 0.0, 0.0, 0.0, 0.0, 1.645920236089671E9, 0.0, 2022-02-27 11:03:56.089
56.0, -3619.082703481043, -7004.746139615315, -1812.0559229917435, -9663.128514662805, -692.322932758681, 1537.956480736313, -5790.487622080758, -3504.6864753587815, -3642.1944072478304, -7589.423071077236, -3570.7582319686694, -1868.0917463411984, -4883.207962895389, -4061.6919471850333, -11690.051757103414, -13379.217789079881, 0.013000000000000001, -0.1, 0.9875, 192.0, 0.0, 48.0, 126.0, 104.0, 15.0, 112.0, 0.0, 0.0, 0.0, 1.645920236097816E9, 0.0, 2022-02-27 11:03:56.097
58.0, -3894.2773812147834, -7105.530155364294, -1877.2559615678742, -9825.51393813061, -927.2397669839581, 1383.2824091055882, -5793.683921537867, -3576.793202971602, -5098.790538166826, -8351.662260492118, -3615.8193487905683, -1947.1498664796195, -4915.327419677666, -4154.496390163468, -11976.89169369837, -14204.421842625361, 0.013000000000000001, -0.1, 0.9875, 192.0, 0.0, 0.0, 0.0, 0.0, 0.0, 0.0, 0.0, 0.0, 0.0, 1.645920236106216E9, 0.0, 2022-02-27 11:03:56.106
60.0, -3833.815912463178, -7126.026705029811, -1890.845822196701, -9776.138934628838, -856.0941643827158, 1407.936383239792, -5773.47794455027, -3450.7293642436703, -2681.9858171922942, -7439.867548926777, -3586.404453087384, -1672.0892992126107, -4897.9601142358915, -4029.3266212137487, -11409.962047333962, -13050.960070009241, 0.013000000000000001, -0.1, 0.9875, 192.0, 0.0, 0.0, 0.0, 0.0, 0.0, 0.0, 0.0, 0.0, 0.0, 1.645920236114278E9, 0.0, 2022-02-27 11:03:56.114
62.0, -3655.3595847320066, -6992.162107486976, -1805.015123488322, -9689.749442309076, -723.0342296402729, 1533.217910911788, -5788.09598542404, -3557.637757973404, -5119.9576401660015, -8146.473246392399, -3589.7348630112247, -2046.0116322054425, -4888.639436798029, -4139.34190742277, -12044.081037531023, -14078.894445764357, 0.013000000000000001, -0.1, 0.9875, 192.0, 0.0, 0.0, 0.0, 0.0, 0.0, 0.0, 0.0, 0.0, 0.0, 1.645920236120493E9, 0.0, 2022-02-27 11:03:56.120
64.0, -4001.8563272781766, -7197.909915198078, -1926.519206347371, -9875.559493966042, -999.3017911078682, 1302.8831842998486, -5762.190313600339, -3502.607763124438, -3612.8242150335573, -7933.662287433421, -3620.0661802370764, -1727.3428115061297, -4919.328381935165, -4076.645264225634, -11595.86150596875, -13572.82859955175, 0.013000000000000001, -0.1, 0.9875, 192.0, 0.0, 0.0, 0.0, 0.0, 0.0, 0.0, 0.0, 0.0, 0.0, 1.645920236127516E9, 0.0, 2022-02-27 11:03:56.127
66.0, -3628.537491385638, -7017.665447910482, -1820.9295655405006, -9671.711584533643, -699.0731595841837, 1533.083800445056, -5805.932677499375, -3501.378417179396, -3585.8009559870907, -7583.276341352027, -3575.4297465598283, -1863.8672666391453, -4892.662750799984, -4068.7103949439997, -11688.800059413918, -13354.49675971231, 0.0145, -0.10200000000000001, 0.98675, 192.0, 0.0, 64.0, 126.0, 96.0, 15.0, 104.0, 0.0, 0.0, 0.0, 1.645920236135559E9, 0.0, 2022-02-27 11:03:56.135
68.0, -3892.623352125091, -7110.358132166641, -1877.5912377347038, -9832.532385889577, -933.6100141537207, 1372.12888862239, -5816.348590415549, -3597.7814910151355, -5139.0907334197445, -8361.675842008095, -3623.5307006276494, -1962.460811431505, -4929.990164040347, -4142.649965602156, -12008.966446991737, -14219.889249788434, 0.0145, -0.10200000000000001, 0.98675, 192.0, 0.0, 0.0, 0.0, 0.0, 0.0, 0.0, 0.0, 0.0, 0.0, 1.645920236142126E9, 0.0, 2022-02-27 11:03:56.142
70.0, -3842.6895550119348, -7143.975155827422, -1891.002284407888, -9786.711309756198, -875.7413477589307, 1383.1482986388564, -5790.174697658384, -3489.152012962343, -2679.2142008798364, -7448.875301942266, -3584.7727757421467, -1673.7433283023036, -4915.707399333406, -4038.200263762506, -11422.814300395763, -13066.785105083598, 0.0145, -0.10200000000000001, 0.98675, 192.0, 0.0, 0.0, 0.0, 0.0, 0.0, 0.0, 0.0, 0.0, 0.0, 1.645920236150071E9, 0.0, 2022-02-27 11:03:56.150
72.0, -3646.508293927705, -6994.5537441436945, -1796.655571062037, -9694.219791200137, -733.5842530231778, 1530.513349832696, -5808.659590322923, -3568.388947056407, -5093.694340431016, -8135.252670675835, -3579.743633239703, -2045.3634316162386, -4900.441157870431, -4143.141703980173, -12047.545557921596, -14068.031497959078, 0.0145, -0.10200000000000001, 0.98675, 192.0, 0.0, 0.0, 0.0, 0.0, 0.0, 0.0, 0.0, 0.0, 0.0, 1.645920236158435E9, 0.0, 2022-02-27 11:03:56.158
74.0, -3995.1284521971293, -7180.967292900956, -1920.7077527889912, -9883.404956269856, -1008.1307301677144, 1295.2388876961336, -5777.456555063314, -3521.517338933628, -3670.4470122393386, -7948.459142262834, -3609.8961365099117, -1741.0891343461437, -4928.112617506101, -4077.5169822593907, -11610.457195098066, -13601.125908032169, 0.0145, -0.10200000000000001, 0.98675, 192.0, 0.0, 0.0, 0.0, 0.0, 0.0, 0.0, 0.0, 0.0, 0.0, 1.645920236166175E9, 0.0, 2022-02-27 11:03:56.166
76.0, -3615.439369134828, -6999.828755835147, -1804.8363095326795, -9662.837941984886, -694.7592729043095, 1533.8214080120813, -5806.871450766498, -3510.766149850625, -3516.21997549772, -7544.49606472207, -3554.4638102607505, -1841.64963265057, -4886.225448396855, -4057.355708760704, -11671.41040222769, -13330.468634422856, 0.01425, -0.10400000000000001, 0.985375, 192.0, 0.0, 56.0, 126.0, 88.0, 15.0, 96.0, 0.0, 0.0, 0.0, 1.645920236180275E9, 0.0, 2022-02-27 11:03:56.180
78.0, -3852.6360812945463, -7071.555503792228, -1855.0830310682097, -9807.900763499829, -911.6606010986092, 1386.7469294961609, -5806.022084477197, -3599.659037549381, -5151.138323681155, -8348.533016268375, -3591.0983194229984, -1935.4375523850385, -4910.141814964034, -4138.760762066932, -12008.228839424712, -14221.409168411396, 0.01425, -0.10400000000000001, 0.985375, 192.0, 0.0, 0.0, 0.0, 0.0, 0.0, 0.0, 0.0, 0.0, 0.0, 1.645920236187709E9, 0.0, 2022-02-27 11:03:56.187
80.0, -3822.5729850021585, -7109.1958414549645, -1878.6641214685585, -9778.441164307735, -877.440080337534, 1386.0763771625016, -5792.566334315102, -3478.803155279536, -2663.6350349944873, -7440.381639049249, -3561.638720230904, -1643.724935498826, -4893.266247900277, -4004.8961645240984, -11410.386730478613, -13054.066962488529, 0.01425, -0.10400000000000001, 0.985375, 192.0, 0.0, 0.0, 0.0, 0.0, 0.0, 0.0, 0.0, 0.0, 0.0, 1.64592023619495E9, 0.0, 2022-02-27 11:03:56.194
82.0, -3607.504499853194, -6943.703525507871, -1784.49622207835, -9678.037128214495, -729.449180298946, 1539.5211028481845, -5831.883052811987, -3582.403490829884, -5023.554566330263, -8085.385928796045, -3555.335528294507, -2007.8125009313228, -4880.9951401943135, -4113.615049554712, -12034.827415326527, -14033.274535331075, 0.01425, -0.10400000000000001, 0.985375, 192.0, 0.0, 0.0, 0.0, 0.0, 0.0, 0.0, 0.0, 0.0, 0.0, 1.645920236202303E9, 0.0, 2022-02-27 11:03:56.202
84.0, -3980.0186729453417, -7169.031461361821, -1913.7116567744802, -9877.302930033557, -1003.5262708099212, 1292.0202364945694, -5788.1853924018615, -3548.182970068809, -3694.6763032288914, -7931.650630432443, -3586.1138804094653, -1709.953154319901, -4909.851242286115, -4055.7016796710113, -11627.288058672913, -13621.98008560897, 0.01425, -0.10400000000000001, 0.985375, 192.0, 0.0, 0.0, 0.0, 0.0, 0.0, 0.0, 0.0, 0.0, 0.0, 1.645920236210339E9, 0.0, 2022-02-27 11:03:56.210
86.0, -3608.4879766092276, -6991.513906897772, -1808.2561264343415, -9666.593035053378, -690.288924013248, 1532.122675433478, -5827.971497532309, -3513.8730423299126, -3443.6885647402487, -7528.939250581176, -3537.5882431969935, -1814.8722427931123, -4879.139945404523, -4021.7493798433998, -11660.21217825558, -13307.692206822898, 0.013125000000000001, -0.10600000000000001, 0.9856875, 192.0, 0.0, 48.0, 126.0, 80.0, 15.0, 104.0, 0.0, 0.0, 0.0, 1.64592023621841E9, 0.0, 2022-02-27 11:03:56.218
88.0, -3837.660412509491, -7060.983128664867, -1852.6019874336705, -9810.046530967538, -897.4225398805786, 1396.6040488009512, -5816.348590415549, -3615.662886579381, -5161.509533108418, -8345.850806933739, -3583.364615841462, -1943.551235622315, -4908.577192852163, -4129.4177328846135, -12018.935325018803, -14234.686104617847, 0.013125000000000001, -0.10600000000000001, 0.9856875, 192.0, 0.0, 0.0, 0.0, 0.0, 0.0, 0.0, 0.0, 0.0, 0.0, 1.645920236224987E9, 0.0, 2022-02-27 11:03:56.224
90.0, -3827.602127504603, -7106.513632120327, -1881.905124414578, -9790.354644102412, -884.3691211186792, 1375.8169264575156, -5800.948238485842, -3481.5300681030835, -2650.805133677141, -7433.720819201568, -3559.8058771855685, -1643.7696389877367, -4898.854184014104, -3999.844670277199, -11407.436300210513, -13065.734573094198, 0.013125000000000001, -0.10600000000000001, 0.9856875, 192.0, 0.0, 0.0, 0.0, 0.0, 0.0, 0.0, 0.0, 0.0, 0.0, 1.645920236232021E9, 0.0, 2022-02-27 11:03:56.232
92.0, -3601.693046294814, -6957.829828003625, -1791.984056470878, -9681.479296860613, -736.8476077136527, 1532.5250068336734, -5831.234852222783, -3577.8437349610017, -4985.869525178615, -8075.729975191352, -3557.011909128655, -2016.6414399911691, -4899.032997969746, -4113.257421643427, -12032.23461296971, -14022.322180547975, 0.013125000000000001, -0.10600000000000001, 0.9856875, 192.0, 0.0, 0.0, 0.0, 0.0, 0.0, 0.0, 0.0, 0.0, 0.0, 1.645920236239927E9, 0.0, 2022-02-27 11:03:56.239
94.0, -3956.3481755671714, -7156.6262431891255, -1916.9526597204997, -9879.96278762374, -1034.1258089692365, 1275.904628742293, -5828.843215566065, -3564.142115609898, -3750.1309812225086, -7970.8332384625965, -3585.935066453823, -1708.1650147634764, -4925.206890726911, -4071.258493811905, -11644.54360539241, -13664.202530885046, 0.013125000000000001, -0.10600000000000001, 0.9856875, 192.0, 0.0, 0.0, 0.0, 0.0, 0.0, 0.0, 0.0, 0.0, 0.0, 1.645920236247325E9, 0.0, 2022-02-27 11:03:56.247
96.0, -3595.792185758613, -6988.965808029868, -1812.301792180752, -9675.891360746786, -733.0478111562504, 1512.4531403128076, -5832.061866767629, -3532.2685280166306, -3386.713968123671, -7513.784767840478, -3541.5445019655826, -1806.1103589666318, -4894.0262072117575, -4041.508321941891, -11652.299660718401, -13298.572695085133, 0.013562500000000002, -0.10600000000000001, 0.98684375, 192.0, 0.0, 56.0, 126.0, 88.0, 15.0, 112.0, 0.0, 0.0, 0.0, 1.645920236254685E9, 0.0, 2022-02-27 11:03:56.254
98.0, -3818.013229133276, -7054.210550094909, -1850.4338682215057, -9813.645161824843, -929.5196449183995, 1377.739176480672, -5829.245546966261, -3612.8465667780124, -5183.011911274423, -8352.533978525875, -3584.8398309755125, -1951.6872706040467, -4920.423617413476, -4138.157264966639, -12030.267659457644, -14250.734657136758, 0.013562500000000002, -0.10600000000000001, 0.98684375, 192.0, 0.0, 0.0, 0.0, 0.0, 0.0, 0.0, 0.0, 0.0, 0.0, 1.645920236262666E9, 0.0, 2022-02-27 11:03:56.262
100.0, -3830.0831711391415, -7119.142367737576, -1890.8681739411563, -9801.731682030164, -919.8860430581622, 1361.0424233725576, -5837.403933692448, -3509.5815073944937, -2658.5611890031328, -7466.980214951064, -3570.1100313794655, -1640.3051185971642, -4923.619916870584, -4013.7474553284, -11421.674361428542, -13080.643186645888, 0.013562500000000002, -0.10600000000000001, 0.98684375, 192.0, 0.0, 0.0, 0.0, 0.0, 0.0, 0.0, 0.0, 0.0, 0.0, 1.645920236270642E9, 0.0, 2022-02-27 11:03:56.270
102.0, -3592.3947206014063, -6959.707374537871, -1795.8285565171907, -9688.609503341855, -749.8116194977307, 1516.699971759316, -5847.8198466086205, -3610.432578376839, -4942.060106046213, -8069.985576866338, -3560.0070428856666, -2012.4393120335715, -4907.2584399293, -4115.090264688762, -12029.418293168343, -14014.320256032976, 0.013562500000000002, -0.10600000000000001, 0.98684375, 192.0, 0.0, 0.0, 0.0, 0.0, 0.0, 0.0, 0.0, 0.0, 0.0, 1.645920236277327E9, 0.0, 2022-02-27 11:03:56.277
104.0, -3957.219893600928, -7149.428981474517, -1911.8341102402344, -9881.013319613137, -1031.4883031235104, 1271.3672246178658, -5836.7780848477, -3585.5550867980824, -3810.033656362731, -8000.136375443504, -3589.556049055582, -1738.2281110558642, -4932.225338485878, -4084.155450362617, -11658.468742188066, -13699.987673757993, 0.013562500000000002, -0.10600000000000001, 0.98684375, 192.0, 0.0, 0.0, 0.0, 0.0, 0.0, 0.0, 0.0, 0.0, 0.0, 1.645920236285295E9, 0.0, 2022-02-27 11:03:56.285
106.0, -3601.8048050170905, -6987.378834173541, -1812.368847414118, -9672.002157211562, -734.835950712675, 1502.6854279858385, -5838.29800347066, -3512.710751618237, -3325.581947038406, -7503.681779346679, -3534.2354815286976, -1804.7021990659475, -4882.984445450837, -4048.1691417895727, -11631.847814541796, -13279.4843053203, 0.010781250000000001, -0.10600000000000001, 0.987421875, 192.0, 0.0, 32.0, 126.0, 88.0, 15.0, 112.0, 0.0, 0.0, 0.0, 1.645920236292357E9, 0.0, 2022-02-27 11:03:56.292
108.0, -3812.8723279085552, -7043.749933689825, -1847.8857693536008, -9801.083481440959, -915.0580662558158, 1391.127871409401, -5834.63231737999, -3639.1769217463643, -5201.876783594702, -8361.049993163348, -3586.5162118096605, -1967.2440847449404, -4921.630611614062, -4141.644137101667, -12032.122854247435, -14250.175863525375, 0.010781250000000001, -0.10600000000000001, 0.987421875, 192.0, 0.0, 0.0, 0.0, 0.0, 0.0, 0.0, 0.0, 0.0, 0.0, 1.645920236306911E9, 0.0, 2022-02-27 11:03:56.306
110.0, -3853.396040606027, -7129.692391120481, -1884.162650604564, -9807.833708266462, -912.0182290098941, 1357.577902981985, -5805.239773421261, -3503.4571294137395, -2669.312378086135, -7480.167744179696, -3566.9360836668116, -1643.4790663098177, -4914.142777221534, -4011.959315771975, -11411.705483401476, -13095.998835086684, 0.010781250000000001, -0.10600000000000001, 0.987421875, 192.0, 0.0, 0.0, 0.0, 0.0, 0.0, 0.0, 0.0, 0.0, 0.0, 1.645920236314956E9, 0.0, 2022-02-27 11:03:56.314
112.0, -3606.0069329746884, -6963.976557728834, -1788.6312948025818, -9685.212038184649, -728.7562762208315, 1531.2509573997208, -5852.267843755227, -3581.5988280294932, -4885.666654785473, -8051.277166757246, -3559.224731829731, -2009.5559369988368, -4902.050483471213, -4119.962944980019, -12010.084034214502, -13985.598264407905, 0.010781250000000001, -0.10600000000000001, 0.987421875, 192.0, 0.0, 0.0, 0.0, 0.0, 0.0, 0.0, 0.0, 0.0, 0.0, 1.645920236322895E9, 0.0, 2022-02-27 11:03:56.322
114.0, -3987.6853212935116, -7172.652443963581, -1918.1820056655415, -9893.485593019199, -1020.9159279961501, 1280.5090881000863, -5805.843270521555, -3562.6892522203034, -3866.4941628568367, -8028.858367068574, -3593.1323281684317, -1743.950157636423, -4942.954175824425, -4079.953322405019, -11672.259768516991, -13716.371502443732, 0.010781250000000001, -0.10600000000000001, 0.987421875, 192.0, 0.0, 0.0, 0.0, 0.0, 0.0, 0.0, 0.0, 0.0, 0.0, 1.645920236330071E9, 0.0, 2022-02-27 11:03:56.330
116.0, -3634.9971455332216, -7013.262154252787, -1823.5000161528608, -9687.558971352455, -731.416133811013, 1511.2237943677658, -5828.172663232406, -3535.7106966627475, -3285.1252895743, -7507.861555559821, -3548.182970068809, -1800.1871466859754, -4896.954285735404, -4036.8591590951874, -11616.022779467437, -13260.708839977842, 0.01, -0.11, 0.99, 192.0, 0.0, 40.0, 126.0, 72.0, 15.0, 120.0, 0.0, 0.0, 0.0, 1.6459202363376E9, 0.0, 2022-02-27 11:03:56.337
118.0, -3834.1958921189184, -7056.557483262716, -1857.072336324732, -9802.156365174815, -895.2544206684138, 1401.0743976920126, -5833.626488879501, -3610.5890405880264, -5238.8242171793245, -8369.566007800819, -3597.5132700816716, -1973.9943115704432, -4924.73750409335, -4130.937651507575, -12039.945964806791, -14257.618994428993, 0.01, -0.11, 0.99, 192.0, 0.0, 0.0, 0.0, 0.0, 0.0, 0.0, 0.0, 0.0, 0.0, 1.645920236345587E9, 0.0, 2022-02-27 11:03:56.345
120.0, -3875.9265990169765, -7127.636030630592, -1898.7583397338797, -9802.89397274184, -899.0542172258159, 1360.193057083256, -5821.780064318188, -3504.7088271032367, -2685.740910260786, -7489.801346039933, -3577.3072930940743, -1640.953319186368, -4911.728788820361, -4008.1148157256625, -11411.057282812273, -13103.486669479213, 0.01, -0.11, 0.99, 192.0, 0.0, 0.0, 0.0, 0.0, 0.0, 0.0, 0.0, 0.0, 0.0, 1.645920236352724E9, 0.0, 2022-02-27 11:03:56.352
122.0, -3637.1876164898417, -6981.5226771262505, -1804.3892746435733, -9679.825267770919, -712.8418341686529, 1545.4219633843857, -5824.618735864012, -3578.6483977613925, -4853.837770681116, -8037.329678217135, -3574.245104103697, -2001.7775299283899, -4902.810442782694, -4103.780281994376, -11999.221086409223, -13956.317479171454, 0.01, -0.11, 0.99, 192.0, 0.0, 0.0, 0.0, 0.0, 0.0, 0.0, 0.0, 0.0, 0.0, 1.645920236359123E9, 0.0, 2022-02-27 11:03:56.359
124.0, -4007.0866354807185, -7177.212199832464, -1926.1839301805414, -9886.176572582313, -1009.4941865794882, 1293.4730998841644, -5805.329180399082, -3558.08479286251, -3944.9711376394202, -8057.602710438098, -3615.3276104125516, -1759.4846200328614, -4938.59558565564, -4063.100107085718, -11689.448260003122, -13741.114883555758, 0.01, -0.11, 0.99, 192.0, 0.0, 0.0, 0.0, 0.0, 0.0, 0.0, 0.0, 0.0, 0.0, 1.645920236367268E9, 0.0, 2022-02-27 11:03:56.367
126.0, -3657.527703944171, -7015.519680442772, -1827.4115714325396, -9682.753346294565, -708.9526306334294, 1505.2111751092882, -5816.639163093468, -3515.5270714196054, -3245.1827222326665, -7494.919895520198, -3562.9351214093117, -1795.850908261646, -4894.003855467303, -4028.9242898135535, -11599.661302526154, -13234.222022798303, 0.012, -0.106, 0.99, 192.0, 0.0, 48.0, 126.0, 88.0, 15.0, 120.0, 0.0, 0.0, 0.0, 1.645920236375216E9, 0.0, 2022-02-27 11:03:56.375
128.0, -3833.9500229299097, -7061.139590876054, -1851.4844002109053, -9792.70157727022, -868.2311616219475, 1419.514586867641, -5818.069674738607, -3617.3616191579845, -5258.761973233459, -8372.874065980204, -3603.928220740345, -1975.4471749600382, -4916.042675500235, -4133.776323053399, -12040.124778762434, -14256.590814184048, 0.012, -0.106, 0.99, 192.0, 0.0, 0.0, 0.0, 0.0, 0.0, 0.0, 0.0, 0.0, 0.0, 1.645920236382412E9, 0.0, 2022-02-27 11:03:56.382
130.0, -3894.232677725873, -7145.562129683749, -1907.0508369267986, -9809.063054211505, -901.7364265604529, 1356.616777970407, -5800.501203596736, -3496.483385143684, -2704.5834308366098, -7515.349389952349, -3581.37531058494, -1633.5772435161166, -4916.534413878252, -3994.7708242858444, -11409.40325372258, -13107.040596847606, 0.012, -0.106, 0.99, 192.0, 0.0, 0.0, 0.0, 0.0, 0.0, 0.0, 0.0, 0.0, 0.0, 1.645920236389782E9, 0.0, 2022-02-27 11:03:56.389
132.0, -3627.330497185051, -6971.710261310371, -1805.3503996551515, -9675.265511902036, -700.5260229737786, 1541.3986493824304, -5833.224157479305, -3587.253819376686, -4804.2839532237, -8014.128567472526, -3571.540543024605, -1995.6531519476357, -4896.954285735404, -4096.314799346304, -11991.375624105409, -13926.544955556985, 0.012, -0.106, 0.99, 192.0, 0.0, 0.0, 0.0, 0.0, 0.0, 0.0, 0.0, 0.0, 0.0, 1.64592023639788E9, 0.0, 2022-02-27 11:03:56.397
134.0, -4003.510356367869, -7169.009109617366, -1921.0206772113654, -9886.668310960331, -997.6254102737201, 1298.97162902017, -5808.570183345102, -3576.3014645935855, -3998.883545265621, -8071.125515833559, -3610.432578376839, -1762.7479747233363, -4931.353620452121, -4060.5296564733576, -11704.043949132438, -13759.890348898214, 0.012, -0.106, 0.99, 192.0, 0.0, 0.0, 0.0, 0.0, 0.0, 0.0, 0.0, 0.0, 0.0, 1.645920236405808E9, 0.0, 2022-02-27 11:03:56.405
136.0, -3669.1729628053863, -7032.149378317521, -1834.9888128028886, -9700.277113947524, -722.09545637315, 1512.8107682240927, -5835.302869713649, -3516.6223068979157, -3203.317904867876, -7487.454412872125, -3561.3034440640745, -1792.3416843821628, -4898.518907847275, -4013.099254739196, -11598.81193623685, -13214.932467333374, 0.012, -0.10400000000000001, 0.992, 192.0, 0.0, 48.0, 126.0, 96.0, 15.5, 0.0, 0.0, 0.0, 0.0, 1.645920236412599E9, 0.0, 2022-02-27 11:03:56.412
138.0, -3832.0054211622983, -7067.532189790272, -1858.2793305253185, -9804.950333231727, -875.3390163587352, 1405.9247262388142, -5819.34372417256, -3637.3887821899393, -5278.632674054226, -8379.154906172145, -3611.147834199409, -1997.9777333709876, -4925.855091316115, -4131.809369541332, -12058.252043515688, -14263.877482876478, 0.012, -0.10400000000000001, 0.992, 192.0, 0.0, 0.0, 0.0, 0.0, 0.0, 0.0, 0.0, 0.0, 0.0, 1.64592023642752E9, 0.0, 2022-02-27 11:03:56.427
140.0, -3914.885689602577, -7171.3560427851735, -1919.456055099494, -9832.062999256015, -919.6401738691538, 1352.6828709462727, -5820.997753262252, -3512.2637167291305, -2744.0789632891374, -7540.472750720114, -3600.217831160764, -1656.2642641382533, -4926.480940160864, -4003.2868389233163, -11423.97659110744, -13127.492443024212, 0.012, -0.10400000000000001, 0.992, 192.0, 0.0, 0.0, 0.0, 0.0, 0.0, 0.0, 0.0, 0.0, 0.0, 1.645920236435525E9, 0.0, 2022-02-27 11:03:56.435
142.0, -3626.727000084758, -6989.278732452242, -1807.8984985230566, -9685.189686440193, -705.1528340760273, 1538.2470534142321, -5849.563282676135, -3595.278095636141, -4763.648481803952, -7993.989645718294, -3583.4316710748285, -2002.2692683064067, -4914.5674603661855, -4093.4537760560247, -11987.70993801474, -13907.009530903046, 0.012, -0.10400000000000001, 0.992, 192.0, 0.0, 0.0, 0.0, 0.0, 0.0, 0.0, 0.0, 0.0, 0.0, 1.645920236442225E9, 0.0, 2022-02-27 11:03:56.442
144.0, -4005.164385457562, -7187.426947048539, -1931.973031994466, -9902.783918712606, -1005.2920586218904, 1290.6120765938851, -5826.138654486973, -3593.400549101895, -4066.877551898665, -8106.418920328489, -3623.9330320278445, -1779.1765068979869, -4951.179617783978, -4054.1817610480502, -11725.74749299854, -13796.21193363809, 0.012, -0.10400000000000001, 0.992, 192.0, 0.0, 0.0, 0.0, 0.0, 0.0, 0.0, 0.0, 0.0, 0.0, 1.645920236450199E9, 0.0, 2022-02-27 11:03:56.450
146.0, -3673.6433116964477, -7048.5555587477165, -1846.0529263082656, -9708.72607335163, -740.0439071707615, 1495.8904976714252, -5845.092933785073, -3523.1043127899547, -3167.1974858281, -7487.5661715944025, -3577.888438449912, -1787.1560796685314, -4916.3332481781545, -4042.9611853314864, -11588.284264598402, -13199.152135747927, 0.014, -0.108, 0.992, 192.0, 0.0, 56.0, 126.0, 80.0, 15.5, 0.0, 0.0, 0.0, 0.0, 1.645920236458098E9, 0.0, 2022-02-27 11:03:56.458
148.0, -3819.04140937822, -7077.9704544509, -1863.621397450137, -9807.252562910624, -881.6422082951318, 1417.1676536998336, -5841.650765138957, -3631.57732863156, -5303.9795522665445, -8385.815726019828, -3620.155587214898, -2003.9456491405547, -4939.2661379893, -4149.579006383301, -12066.365726752965, -14261.128218308475, 0.014, -0.108, 0.992, 192.0, 0.0, 0.0, 0.0, 0.0, 0.0, 0.0, 0.0, 0.0, 0.0, 1.645920236464634E9, 0.0, 2022-02-27 11:03:56.464
150.0, -3908.4930906883587, -7168.070336350243, -1919.5454620773153, -9838.85792957043, -933.632365898176, 1339.7859143955607, -5796.3437791280485, -3525.8982808468677, -2757.3335477511346, -7563.427992275714, -3606.275153908152, -1651.6151012915495, -4938.707344377916, -4018.754246086389, -11422.926059118041, -13137.416617562369, 0.014, -0.108, 0.992, 192.0, 0.0, 0.0, 0.0, 0.0, 0.0, 0.0, 0.0, 0.0, 0.0, 1.645920236472766E9, 0.0, 2022-02-27 11:03:56.472
152.0, -3614.85822377899, -6987.535296384728, -1813.5087863813385, -9690.487049876101, -717.0663138707059, 1531.4074196109082, -5834.4982069132575, -3593.5570113130825, -4724.421170284888, -7986.680625281409, -3590.114842666965, -1998.447120004549, -4920.311858691199, -4108.563555307813, -11969.470914539208, -13888.904617894248, 0.014, -0.108, 0.992, 192.0, 0.0, 0.0, 0.0, 0.0, 0.0, 0.0, 0.0, 0.0, 0.0, 1.645920236479761E9, 0.0, 2022-02-27 11:03:56.479
154.0, -3998.1235859541403, -7179.916760911556, -1935.3481454072173, -9894.804345942062, -999.1900323855916, 1301.0279895100582, -5813.4205118919035, -3583.677540263837, -4134.335116664782, -8121.416940858, -3632.493750154227, -1779.8694109761013, -4963.294263278754, -4082.166145106095, -11733.503548324532, -13820.329465905364, 0.014, -0.108, 0.992, 192.0, 0.0, 0.0, 0.0, 0.0, 0.0, 0.0, 0.0, 0.0, 0.0, 1.645920236487994E9, 0.0, 2022-02-27 11:03:56.487
156.0, -3670.983454106266, -7043.325250545175, -1845.9188158415338, -9712.838794331408, -748.5599218082335, 1493.3200470590648, -5833.492378412769, -3538.07998157501, -3115.699066603073, -7473.283406887461, -3583.722243752747, -1775.9355039519673, -4926.726809349872, -4010.640562849112, -11571.453401023557, -13180.08609772755, 0.014, -0.10400000000000001, 0.99, 192.0, 0.0, 56.0, 126.0, 96.0, 15.0, 120.0, 0.0, 0.0, 0.0, 1.645920236494439E9, 0.0, 2022-02-27 11:03:56.494
158.0, -3809.0948830956086, -7070.817896225202, -1867.4658974964498, -9807.632542566365, -878.3565018602017, 1422.3979619023755, -5832.620660379012, -3620.2896976816296, -5321.950354808611, -8384.116993441225, -3623.374238416462, -2008.415998031616, -4948.922091593992, -4131.2952794188595, -12068.10916282048, -14271.186503313364, 0.014, -0.10400000000000001, 0.99, 192.0, 0.0, 0.0, 0.0, 0.0, 0.0, 0.0, 0.0, 0.0, 0.0, 1.645920236502383E9, 0.0, 2022-02-27 11:03:56.502
160.0, -3922.7311519063896, -7178.665063222059, -1935.392848896128, -9850.614947153921, -948.697441661053, 1351.3417662789543, -5829.58082313309, -3493.9576380202343, -2783.4403852749333, -7581.957588429164, -3615.886404023934, -1648.4411535788959, -4960.366184755109, -4001.0516644777854, -11432.000867366894, -13144.658582765887, 0.014, -0.10400000000000001, 0.99, 192.0, 0.0, 0.0, 0.0, 0.0, 0.0, 0.0, 0.0, 0.0, 0.0, 1.645920236510418E9, 0.0, 2022-02-27 11:03:56.510
162.0, -3604.218793418264, -6974.504229367284, -1815.3416294266738, -9685.256741673558, -717.0216103817953, 1555.860228045014, -5847.126942530506, -3581.9117524518674, -4678.3095214735895, -7969.983872173295, -3588.930200210834, -1990.2663815339067, -4923.351695937121, -4072.9125229015976, -11967.526312771597, -13858.997983813046, 0.014, -0.10400000000000001, 0.99, 192.0, 0.0, 0.0, 0.0, 0.0, 0.0, 0.0, 0.0, 0.0, 0.0, 1.64592023651754E9, 0.0, 2022-02-27 11:03:56.517
164.0, -3988.4676323494477, -7173.591217230704, -1938.9244245200664, -9898.268866332635, -1022.0335152189155, 1310.4380739257424, -5825.669267853412, -3572.948702925289, -4188.672207435633, -8138.806598044229, -3630.795017575624, -1788.8548122471348, -4961.908455122525, -4041.485970197436, -11750.557929343931, -13842.390637682753, 0.014, -0.10400000000000001, 0.99, 192.0, 0.0, 0.0, 0.0, 0.0, 0.0, 0.0, 0.0, 0.0, 0.0, 1.645920236525065E9, 0.0, 2022-02-27 11:03:56.525
166.0, -3671.6763581843807, -7041.91709064449, -1860.6262636931258, -9708.904887307273, -748.5822735526889, 1492.314218558576, -5805.128014698985, -3509.156824249843, -3070.6826532700843, -7454.597348522824, -3581.9788076852333, -1769.1629253820092, -4924.804559326716, -4003.3091906677714, -11560.232825306992, -13152.504045069702, 0.01, -0.106, 0.988, 192.0, 0.0, 40.0, 126.0, 88.0, 15.0, 112.0, 0.0, 0.0, 0.0, 1.645920236533051E9, 0.0, 2022-02-27 11:03:56.533
168.0, -3797.717845167857, -7056.11044837361, -1867.912932385556, -9788.566504545988, -868.6111412776878, 1427.4941596381855, -5817.399122404948, -3637.478189167761, -5353.5780732128715, -8374.908074725638, -3619.887366281434, -2000.1458525831524, -4946.642213659551, -4130.334154407282, -12078.68153794784, -14271.879407391478, 0.01, -0.106, 0.988, 192.0, 0.0, 0.0, 0.0, 0.0, 0.0, 0.0, 0.0, 0.0, 0.0, 1.645920236540052E9, 0.0, 2022-02-27 11:03:56.540
170.0, -3927.1791490529954, -7171.80307767428, -1940.846674543223, -9852.224272754702, -957.5263807208993, 1328.7665043790942, -5837.783913348188, -3533.8107983840464, -2785.474394020366, -7576.883742437809, -3610.2537644211966, -1639.8580837080578, -4959.3603562546205, -4003.063321478763, -11435.353629035191, -13154.582757304044, 0.01, -0.106, 0.988, 192.0, 0.0, 0.0, 0.0, 0.0, 0.0, 0.0, 0.0, 0.0, 0.0, 1.64592023655476E9, 0.0, 2022-02-27 11:03:56.554
172.0, -3601.827156761546, -6972.38081364403, -1819.879033551101, -9685.659073073753, -706.9186218879964, 1538.984660981257, -5843.461256439836, -3594.1605084133757, -4639.3951343768995, -7951.789552186675, -3591.143022911909, -1994.8261374027895, -4932.135931508056, -4085.965941663497, -11964.620585992407, -13838.076751002878, 0.01, -0.106, 0.988, 192.0, 0.0, 0.0, 0.0, 0.0, 0.0, 0.0, 0.0, 0.0, 0.0, 1.645920236562772E9, 0.0, 2022-02-27 11:03:56.562
174.0, -4002.2139551894616, -7182.196638845997, -1949.5415031363373, -9902.158069867859, -1020.7371140405077, 1280.2855706555333, -5799.093043696052, -3595.9039444808895, -4253.514618100478, -8163.035889033782, -3633.544282143627, -1800.3883123860733, -4964.970644112903, -4088.961075420508, -11769.109877241835, -13866.977556583592, 0.01, -0.106, 0.988, 192.0, 0.0, 0.0, 0.0, 0.0, 0.0, 0.0, 0.0, 0.0, 0.0, 1.645920236569759E9, 0.0, 2022-02-27 11:03:56.569
176.0, -3684.4392042683608, -7055.73046871787, -1868.6058364636704, -9718.91846882325, -751.6444625430659, 1475.0139683501684, -5816.43799739337, -3518.633963898893, -3028.2813940383667, -7454.373831078271, -3587.991426943711, -1765.8325154581685, -4933.432332686464, -4019.93888854252, -11550.554519957843, -13126.844242435009, 0.014, -0.112, 0.988, 192.0, 0.0, 56.0, 126.0, 64.0, 15.0, 112.0, 0.0, 0.0, 0.0, 1.645920236577244E9, 0.0, 2022-02-27 11:03:56.577
178.0, -3794.5662491996586, -7060.960776920411, -1873.7243859439357, -9791.60634179191, -858.9104841840845, 1432.4338951628083, -5833.58178539059, -3633.0301920211546, -5388.335035840873, -8391.828345278305, -3626.436427406839, -2018.8319109477893, -4949.324422994187, -4134.648041087155, -12092.718433465772, -14276.729735938281, 0.014, -0.112, 0.988, 192.0, 0.0, 0.0, 0.0, 0.0, 0.0, 0.0, 0.0, 0.0, 0.0, 1.645920236585363E9, 0.0, 2022-02-27 11:03:56.585
180.0, -3939.5396637367803, -7183.291874324307, -1952.7601543379014, -9855.912310589829, -960.3650522667233, 1318.8199780964826, -5812.973477002797, -3525.1606732798427, -2809.2342983763574, -7595.50274556908, -3618.9932965032217, -1647.9494152008792, -4957.236940531367, -4016.2955541963047, -11437.231175569437, -13156.12502767146, 0.014, -0.112, 0.988, 192.0, 0.0, 0.0, 0.0, 0.0, 0.0, 0.0, 0.0, 0.0, 0.0, 1.645920236593172E9, 0.0, 2022-02-27 11:03:56.593
182.0, -3605.1352149409313, -6979.086336980622, -1826.8974813100674, -9677.120706691827, -690.7583106468095, 1542.5609400941064, -5838.275651726205, -3596.306275881085, -4596.300971067068, -7930.063656576116, -3592.2606101346746, -1994.9155443806108, -4923.217585470389, -4083.216677095494, -11946.761542172617, -13806.58314306535, 0.014, -0.112, 0.988, 192.0, 0.0, 0.0, 0.0, 0.0, 0.0, 0.0, 0.0, 0.0, 0.0, 1.64592023659985E9, 0.0, 2022-02-27 11:03:56.599
184.0, -4000.805795288777, -7180.22968533393, -1950.9496630370218, -9894.513773264143, -1007.370770856234, 1292.5343266170414, -5816.996791004753, -3598.317932882063, -4329.555252737433, -8187.376938745611, -3640.7862473471464, -1818.068542250221, -4949.682050905472, -4087.2846945863603, -11781.67155762572, -13893.307911551943, 0.012, -0.111, 0.988, 192.0, 0.0, 40.0, 126.0, 72.0, 15.0, 112.0, 0.0, 0.0, 0.0, 1.645920236606904E9, 0.0, 2022-02-27 11:03:56.606
186.0, -3702.9911521662657, -7067.06280315671, -1870.9080661425671, -9715.945686810695, -754.930168977996, 1475.1704305613555, -5824.171700974906, -3521.897318589368, -2986.505983651398, -7443.6002902508135, -3595.5463165696046, -1767.754765481325, -4921.697666847428, -4001.766920300355, -11532.583717415777, -13103.196096801294, 0.012, -0.111, 0.988, 192.0, 0.0, 0.0, 0.0, 0.0, 0.0, 0.0, 0.0, 0.0, 0.0, 1.645920236615003E9, 0.0, 2022-02-27 11:03:56.615
188.0, -3792.6663509209575, -7054.478771028373, -1870.4163277645503, -9781.83862946494, -844.6500712215986, 1432.6574126073615, -5838.834445337588, -3642.1720555033753, -5411.35733262984, -8391.224848178012, -3632.5831571320487, -2035.4392570780824, -4934.035829786758, -4117.191328667561, -12092.405509043398, -14281.423602273895, 0.012, -0.111, 0.988, 192.0, 0.0, 0.0, 0.0, 0.0, 0.0, 0.0, 0.0, 0.0, 0.0, 1.645920236622867E9, 0.0, 2022-02-27 11:03:56.622
190.0, -3949.262672574839, -7180.140278356109, -1945.9205205345775, -9851.531368676588, -950.6643951731199, 1301.9444110327258, -5806.446767621847, -3532.536748950094, -2843.5218743707987, -7614.457024867181, -3626.212909962286, -1657.2030374053763, -4940.78605661226, -4017.9495832859975, -11434.101931345695, -13174.431106380356, 0.012, -0.111, 0.988, 192.0, 0.0, 0.0, 0.0, 0.0, 0.0, 0.0, 0.0, 0.0, 0.0, 1.645920236629471E9, 0.0, 2022-02-27 11:03:56.629
192.0, -3598.049711948599, -6968.536313597717, -1806.4679868779167, -9666.146000164272, -676.3637872175917, 1548.0594692301117, -5834.855834824542, -3603.23531666223, -4538.924043050295, -7900.492298661745, -3584.8845344644233, -1981.4597942185158, -4892.707454288895, -4073.2477990684274, -11924.678018650773, -13780.29749158591, 0.012, -0.111, 0.988, 192.0, 0.0, 0.0, 0.0, 0.0, 0.0, 0.0, 0.0, 0.0, 0.0, 1.645920236637574E9, 0.0, 2022-02-27 11:03:56.637
194.0, -4002.9962662453972, -7176.385185287618, -1939.3044041758067, -9892.166840096335, -1006.4096458446558, 1294.9259632737594, -5829.334953944082, -3593.512307824172, -4389.703797066664, -8203.939581386994, -3635.6453461224255, -1816.2133474604307, -4932.717076863894, -4075.482973513958, -11790.053461796459, -13919.32534209792, 0.013000000000000001, -0.1095, 0.989, 192.0, 0.0, 56.0, 126.0, 80.0, 15.0, 120.0, 0.0, 0.0, 0.0, 1.645920236645493E9, 0.0, 2022-02-27 11:03:56.645
196.0, -3716.3574953505395, -7060.938425175957, -1867.4211940075393, -9717.107977522372, -757.187695167982, 1477.9867503627243, -5831.950108045353, -3526.121798291421, -2944.797628497795, -7434.257261068495, -3593.3334938685293, -1755.5060095198166, -4907.951344007414, -3992.2003736734837, -11517.18336548607, -13086.901675093375, 0.013000000000000001, -0.1095, 0.989, 192.0, 0.0, 0.0, 0.0, 0.0, 0.0, 0.0, 0.0, 0.0, 0.0, 1.645920236652107E9, 0.0, 2022-02-27 11:03:56.652
198.0, -3783.4127287164606, -7045.359259290607, -1857.787592147302, -9770.21572234818, -830.1437890701043, 1440.2123022332553, -5854.011279822741, -3674.6491401969365, -5421.281507167996, -8375.08688868128, -3627.732828585247, -2033.6287657772025, -4927.866748317093, -4117.1466251786505, -12096.607637000996, -14283.390555785962, 0.013000000000000001, -0.1095, 0.989, 192.0, 0.0, 0.0, 0.0, 0.0, 0.0, 0.0, 0.0, 0.0, 0.0, 1.645920236660256E9, 0.0, 2022-02-27 11:03:56.660
200.0, -3960.7961727137777, -7190.533839527827, -1943.260662944396, -9856.448752456756, -959.2921685328685, 1300.290381943033, -5824.305811441638, -3565.9079034218676, -2852.5296273862873, -7622.056617981985, -3614.7911685456243, -1667.5295433437282, -4927.4867686613525, -3993.7426440409, -11440.561585493278, -13196.268760713192, 0.013000000000000001, -0.1095, 0.989, 192.0, 0.0, 0.0, 0.0, 0.0, 0.0, 0.0, 0.0, 0.0, 0.0, 1.645920236675102E9, 0.0, 2022-02-27 11:03:56.675
202.0, -3624.4471221503168, -7000.856936080091, -1826.1822254874976, -9678.975901481617, -693.3734647480804, 1533.284966145154, -5853.296024000171, -3561.6610719753594, -4493.594705294932, -7896.267818959692, -3596.4850898367276, -2010.8970416661552, -4907.660771329495, -4075.125345602673, -11916.966666813692, -13751.150816816189, 0.013000000000000001, -0.1095, 0.989, 192.0, 0.0, 0.0, 0.0, 0.0, 0.0, 0.0, 0.0, 0.0, 0.0, 1.64592023668183E9, 0.0, 2022-02-27 11:03:56.681
204.0, -4012.495757638903, -7184.8564964361785, -1945.6970030900245, -9898.894715177383, -1017.4961110944881, 1290.7685388050722, -5846.456390196847, -3597.6473805484034, -4442.6327279368315, -8230.895785200093, -3638.372258945973, -1842.9683855734331, -4949.056202060724, -4088.089357386751, -11815.757967920063, -13950.729543057627, 0.013500000000000002, -0.10775, 0.9904999999999999, 192.0, 0.0, 56.0, 126.0, 88.0, 15.5, 0.0, 0.0, 0.0, 0.0, 1.645920236689839E9, 0.0, 2022-02-27 11:03:56.689
206.0, -3729.790893768179, -7083.44663184245, -1874.0149586218547, -9734.519986453055, -766.5530760947557, 1449.6223866489395, -5836.286346469682, -3524.467769201728, -2897.7248546749183, -7436.403028536204, -3591.791223501113, -1777.4554225749282, -4918.523719134774, -3980.5327630678134, -11508.89086829315, -13081.581959913012, 0.013500000000000002, -0.10775, 0.9904999999999999, 192.0, 0.0, 0.0, 0.0, 0.0, 0.0, 0.0, 0.0, 0.0, 0.0, 1.645920236697736E9, 0.0, 2022-02-27 11:03:56.697
208.0, -3790.878211364533, -7062.011308909811, -1861.0285950933214, -9781.615112020387, -815.928079596529, 1427.0694764935347, -5816.5944596045565, -3639.5121979131936, -5415.470053609616, -8398.824441292816, -3627.2634419516853, -2063.937731258599, -4925.877443060571, -4144.661622603134, -12097.501706779207, -14291.548942512149, 0.013500000000000002, -0.10775, 0.9904999999999999, 192.0, 0.0, 0.0, 0.0, 0.0, 0.0, 0.0, 0.0, 0.0, 0.0, 1.645920236704929E9, 0.0, 2022-02-27 11:03:56.704
210.0, -3985.9865887149085, -7212.7961770053125, -1952.4472299155273, -9873.10080207596, -965.8188779138181, 1295.9988470076141, -5800.635314063467, -3532.559100694549, -2893.8356511396946, -7666.08955455894, -3622.86014829399, -1679.4430231384067, -4941.2777949902775, -4024.386885689126, -11444.651954728599, -13213.457252199323, 0.013500000000000002, -0.10775, 0.9904999999999999, 192.0, 0.0, 0.0, 0.0, 0.0, 0.0, 0.0, 0.0, 0.0, 0.0, 1.645920236712419E9, 0.0, 2022-02-27 11:03:56.712
212.0, -3618.6580203363924, -6993.905543554491, -1817.554452127749, -9673.119744434327, -684.6562844105107, 1529.9098527324024, -5839.616756393523, -3597.1779939148423, -4434.4966929551, -7883.326158920069, -3590.5842293005267, -2001.0175706169096, -4903.793919538727, -4065.4023367646146, -11910.171736499278, -13739.48320621052, 0.013500000000000002, -0.10775, 0.9904999999999999, 192.0, 0.0, 0.0, 0.0, 0.0, 0.0, 0.0, 0.0, 0.0, 0.0, 1.645920236720463E9, 0.0, 2022-02-27 11:03:56.720
214.0, -4018.486025152925, -7190.3773773166395, -1943.7300495779575, -9894.647883730875, -1006.566108055843, 1280.3302741444438, -5801.819956519599, -3596.5968485590042, -4503.138900177348, -8253.001660466392, -3643.8484363375233, -1866.6388829516034, -4946.485751448364, -4086.122403874684, -11826.978543636626, -13981.463191683673, 0.013750000000000002, -0.105875, 0.99125, 192.0, 0.0, 56.0, 126.0, 96.0, 15.5, 0.0, 0.0, 0.0, 0.0, 1.645920236727401E9, 0.0, 2022-02-27 11:03:56.727
216.0, -3739.4244956284165, -7082.418451597507, -1878.0159208793548, -9732.553032940988, -767.8271255287082, 1446.2919767250987, -5797.304904139627, -3507.6369056268823, -2862.386746691078, -7424.4671969970705, -3590.4501188337945, -1761.4068700560179, -4915.886213289048, -3990.9486759839865, -11499.413728644102, -13069.02027952913, 0.013750000000000002, -0.105875, 0.99125, 192.0, 0.0, 0.0, 0.0, 0.0, 0.0, 0.0, 0.0, 0.0, 0.0, 1.645920236734603E9, 0.0, 2022-02-27 11:03:56.734
218.0, -3769.688757620902, -7042.006497622311, -1851.1491240440757, -9765.164228101281, -816.9786115859284, 1440.1675987443446, -5838.230948237294, -3634.6395176219366, -5421.281507167996, -8379.713699783528, -3609.672619065359, -2061.7249085575236, -4921.4965011473305, -4119.314744390815, -12102.888477192937, -14286.45274477634, 0.013750000000000002, -0.105875, 0.99125, 192.0, 0.0, 0.0, 0.0, 0.0, 0.0, 0.0, 0.0, 0.0, 0.0, 1.645920236742043E9, 0.0, 2022-02-27 11:03:56.742
220.0, -3980.6892252790008, -7195.294761096807, -1951.776677581868, -9871.603235197454, -953.5701219523099, 1284.4653468686756, -5817.577936360591, -3532.0003070831667, -2916.3215060617335, -7660.233397511649, -3608.8456045205126, -1669.8988282559906, -4933.789960597749, -4020.587089131724, -11450.731629220441, -13235.540775721167, 0.013750000000000002, -0.105875, 0.99125, 192.0, 0.0, 0.0, 0.0, 0.0, 0.0, 0.0, 0.0, 0.0, 0.0, 1.645920236750207E9, 0.0, 2022-02-27 11:03:56.750
222.0, -3612.33247665554, -6985.993026017311, -1817.3309346831961, -9680.24995091557, -675.2685517392816, 1536.056582457612, -5821.7577125737325, -3585.3986245868955, -4362.680538020199, -7845.238786368226, -3579.430708817328, -2001.1740328280966, -4901.894021260026, -4066.832848409754, -11895.129012480857, -13707.587266872797, 0.013750000000000002, -0.105875, 0.99125, 192.0, 0.0, 0.0, 0.0, 0.0, 0.0, 0.0, 0.0, 0.0, 0.0, 1.645920236757234E9, 0.0, 2022-02-27 11:03:56.757
224.0, -4008.740664570411, -7176.921627154545, -1936.3092704187954, -9902.985084412705, -1008.4436545900887, 1272.6412740518183, -5817.689695082867, -3614.925279012356, -4558.906502593339, -8264.021070482859, -3633.0972472545204, -1885.5261070163378, -4940.674297889984, -4092.023264410885, -11826.665619214251, -14005.178392550755, 0.013875000000000002, -0.1039375, 0.991625, 192.0, 0.0, 56.0, 126.0, 104.0, 15.5, 0.0, 0.0, 0.0, 0.0, 1.645920236764705E9, 0.0, 2022-02-27 11:03:56.764
226.0, -3733.9483182368663, -7076.763460250314, -1867.197676562986, -9741.560785956477, -774.1526692095601, 1435.317270197543, -5835.884015069487, -3533.475522217217, -2803.5793070291647, -7406.362283988272, -3584.9962931867, -1758.791715954747, -4906.967867251381, -3977.291760121794, -11478.760716767398, -13047.674363574311, 0.013875000000000002, -0.1039375, 0.991625, 192.0, 0.0, 0.0, 0.0, 0.0, 0.0, 0.0, 0.0, 0.0, 0.0, 1.645920236772754E9, 0.0, 2022-02-27 11:03:56.772
228.0, -3754.534274880204, -7038.363163276096, -1837.492208181883, -9768.181713602748, -811.5918411721995, 1438.3347556990095, -5834.3193929576155, -3652.0962300415317, -5418.465187366627, -8372.203513646546, -3604.6434765629147, -2060.6296730792133, -4909.784187052749, -4136.033849243385, -12099.11103237999, -14291.504239023237, 0.013875000000000002, -0.1039375, 0.991625, 192.0, 0.0, 0.0, 0.0, 0.0, 0.0, 0.0, 0.0, 0.0, 0.0, 1.645920236780811E9, 0.0, 2022-02-27 11:03:56.780
230.0, -3989.7416817834, -7198.334598342729, -1950.0779450032646, -9884.522543492621, -991.4563288040554, 1268.0815181829355, -5821.19891896235, -3546.9983276126777, -2937.4662563164543, -7688.508354247613, -3612.533642355638, -1683.0863574846219, -4928.827873328671, -4030.1759875030507, -11439.376943037147, -13253.66804047442, 0.013875000000000002, -0.1039375, 0.991625, 192.0, 0.0, 0.0, 0.0, 0.0, 0.0, 0.0, 0.0, 0.0, 0.0, 1.64592023678802E9, 0.0, 2022-02-27 11:03:56.788
232.0, -3608.018589975666, -6979.4663166363625, -1814.492263137372, -9670.4822385886, -675.5144209282901, 1529.574576565573, -5847.305756486149, -3579.6318745174262, -4307.941115849151, -7817.299105799092, -3581.442365818306, -1991.942762368055, -4896.998989224314, -4064.8882466421423, -11871.167942424769, -13681.636891560185, 0.013875000000000002, -0.1039375, 0.991625, 192.0, 0.0, 0.0, 0.0, 0.0, 0.0, 0.0, 0.0, 0.0, 0.0, 1.645920236802359E9, 0.0, 2022-02-27 11:03:56.802
234.0, -3993.094443451696, -7162.080068836221, -1939.4608663869938, -9894.804345942062, -999.5923637857871, 1294.2777626845555, -5829.871395811009, -3606.3869126304285, -4622.67602952433, -8288.384471939144, -3637.0088025341993, -1874.4843452554162, -4935.242823987344, -4089.7880899653546, -11846.469264801653, -14032.268706830588, 0.012937500000000001, -0.10496875, 0.9938125, 192.0, 0.0, 48.0, 126.0, 88.0, 15.5, 16.0, 0.0, 0.0, 0.0, 1.645920236810433E9, 0.0, 2022-02-27 11:03:56.810
236.0, -3726.616946055525, -7062.391288565552, -1872.1821155765197, -9738.744466155109, -784.7473960813757, 1440.5699301445402, -5840.533177916191, -3518.9692400657227, -2757.3111960066794, -7398.4050629621825, -3575.3179878375518, -1737.401096511018, -4900.374102637065, -3975.9953589433862, -11458.912367691084, -13030.7764447661, 0.012937500000000001, -0.10496875, 0.9938125, 192.0, 0.0, 0.0, 0.0, 0.0, 0.0, 0.0, 0.0, 0.0, 0.0, 1.645920236816985E9, 0.0, 2022-02-27 11:03:56.816
238.0, -3730.573204824115, -7012.859822852591, -1838.0957052821764, -9756.536454741532, -810.2283847604257, 1450.0470697935905, -5831.5030731562465, -3637.8805205679564, -5419.828643778401, -8349.60590000223, -3593.5793630575376, -2058.2156846780404, -4900.35175089261, -4095.264267356905, -12095.713567222783, -14286.788020943168, 0.012937500000000001, -0.10496875, 0.9938125, 192.0, 0.0, 0.0, 0.0, 0.0, 0.0, 0.0, 0.0, 0.0, 0.0, 1.645920236826351E9, 0.0, 2022-02-27 11:03:56.826
240.0, -3984.556077069769, -7197.574639031249, -1956.0235090283763, -9885.930703393306, -994.3844073277006, 1274.1611926747792, -5808.458424622825, -3539.1081618199546, -2967.0823177197362, -7699.661874730811, -3602.47535735075, -1672.7151480573593, -4922.7258470923725, -4017.3684379301594, -11442.193262838515, -13263.592215012577, 0.012937500000000001, -0.10496875, 0.9938125, 192.0, 0.0, 0.0, 0.0, 0.0, 0.0, 0.0, 0.0, 0.0, 0.0, 1.645920236833127E9, 0.0, 2022-02-27 11:03:56.833
242.0, -3571.920522680345, -6952.487761078806, -1815.0287050042994, -9667.82238099842, -679.6271419080665, 1531.340364377542, -5853.251320511261, -3591.56770605656, -4236.46023708108, -7790.052329308073, -3567.472525533739, -1976.3635964827058, -4887.857125742094, -4051.544255202324, -11856.862825973372, -13652.55727202383, 0.012937500000000001, -0.10496875, 0.9938125, 192.0, 0.0, 0.0, 0.0, 0.0, 0.0, 0.0, 0.0, 0.0, 0.0, 1.645920236840256E9, 0.0, 2022-02-27 11:03:56.840
244.0, -3966.6970332499786, -7144.578652927716, -1941.0254884988653, -9892.747985452173, -1012.3999133586781, 1276.329311886944, -5843.39420120647, -3613.04773247811, -4658.304710186089, -8297.056948787804, -3617.2945639246186, -1879.9605226469664, -4933.745257108839, -4098.549973791834, -11867.68107028974, -14067.651518303337, 0.01246875, -0.108484375, 0.99490625, 192.0, 0.0, 48.0, 126.0, 64.0, 15.5, 16.0, 0.0, 0.0, 0.0, 1.645920236847528E9, 0.0, 2022-02-27 11:03:56.847
246.0, -3712.244774370763, -7049.650794226026, -1883.3803395486284, -9741.046695834006, -796.8396898316968, 1416.9217845108253, -5842.433076194892, -3539.376382753418, -2693.5193173312327, -7381.060109264864, -3565.2820545771187, -1722.6489451705154, -4903.972733494369, -3983.974931713931, -11463.248606115414, -13022.372188850903, 0.01246875, -0.108484375, 0.99490625, 192.0, 0.0, 0.0, 0.0, 0.0, 0.0, 0.0, 0.0, 0.0, 0.0, 1.645920236854625E9, 0.0, 2022-02-27 11:03:56.854
248.0, -3702.7676347217125, -6987.848220807103, -1848.332804242707, -9753.764838429075, -802.2041085009705, 1436.703078353772, -5846.121114030017, -3654.5772736760705, -5411.871422752312, -8330.897489893137, -3588.192592643809, -2058.997995733976, -4909.381855652554, -4116.990162967463, -12121.552183813117, -14297.673320492902, 0.01246875, -0.108484375, 0.99490625, 192.0, 0.0, 0.0, 0.0, 0.0, 0.0, 0.0, 0.0, 0.0, 0.0, 1.645920236862639E9, 0.0, 2022-02-27 11:03:56.862
250.0, -3966.607626272157, -7169.590254973204, -1963.3325294652618, -9890.848087173474, -998.0500934183709, 1253.038794164514, -5834.274689468705, -3563.024528387133, -2985.813079573283, -7701.897049176342, -3602.2294881617413, -1669.7870695337142, -4929.967812295891, -4037.350897473204, -11471.228178885958, -13301.456070119868, 0.01246875, -0.108484375, 0.99490625, 192.0, 0.0, 0.0, 0.0, 0.0, 0.0, 0.0, 0.0, 0.0, 0.0, 1.645920236869341E9, 0.0, 2022-02-27 11:03:56.869
