%OpenBCI Raw EEG Data
%Number of channels = 16
%Sample Rate = 125 Hz
%Board = OpenBCI_GUI$BoardCytonSerialDaisy
Sample Index, EXG Channel 0, EXG Channel 1, EXG Channel 2, EXG Channel 3, EXG Channel 4, EXG Channel 5, EXG Channel 6, EXG Channel 7, EXG Channel 8, EXG Channel 9, EXG Channel 10, EXG Channel 11, EXG Channel 12, EXG Channel 13, EXG Channel 14, EXG Channel 15, Accel Channel 0, Accel Channel 1, Accel Channel 2, Other, Other, Other, Other, Other, Other, Other, Analog Channel 0, Analog Channel 1, Analog Channel 2, Timestamp, Other, Timestamp (Formatted)
10.0, -2044.067030437831, -5286.52283984695, -2057.992167233487, -10729.709056581147, -867.5159057993777, 413.50727242318067, -5342.715125407592, -1687.824927309147, -2105.6237346677467, -6777.652415949395, -4448.287719284024, -3368.8772760483357, -4716.821577170083, -3441.2969280835305, -9922.744026511196, -14137.165443559343, 0.0, 0.0, 0.0, 192.0, 0.0, 0.0, 0.0, 0.0, 0.0, 0.0, 0.0, 0.0, 0.0, 1.645921075235941E9, 0.0, 2022-02-27 11:17:55.235
12.0, -2316.1101122033733, -5510.442615800216, -2325.3190309189595, -11029.37889449345, -1150.5336940924758, 153.69059487469136, -5678.281864915117, -2138.413743783682, -5182.475469407495, -7725.43343608778, -4344.665031989221, -3567.6289877449262, -4480.116603388382, -3405.4670817216734, -10380.48540121143, -15499.68308206595, 0.0, 0.0, 0.0, 192.0, 0.0, 0.0, 0.0, 0.0, 0.0, 0.0, 0.0, 0.0, 0.0, 1.645921075235944E9, 0.0, 2022-02-27 11:17:55.235
0.0, -1299.4410156537315, -2855.0106710208265, -1266.2710268820558, -5564.444430404238, -653.7661735732763, 52.8618756368012, -2859.570426889709, -947.0210608269049, -840.9173298975624, -3407.255221278098, -2290.5173648020464, -1696.7656250912698, -2428.852311235942, -1771.621617272093, -4949.704402649928, -7031.881157384058, 0.006, -0.114, 0.978, 192.0, 0.0, 24.0, 126.0, 56.0, 15.0, 72.0, 0.0, 0.0, 0.0, 1.645921075332279E9, 0.0, 2022-02-27 11:17:55.332
2.0, -1964.4054131991165, -5233.169225832132, -2109.6694004141573, -10655.881244645268, -734.254805356837, 524.3719249215037, -5482.0111968530655, -1617.1040078525555, -2306.0965306873954, -6653.197902822245, -4345.693212234165, -3291.607295466339, -4541.382734940378, -3360.517723622051, -9969.59328288952, -14223.487880645738, 0.006, -0.114, 0.978, 192.0, 0.0, 0.0, 0.0, 0.0, 0.0, 0.0, 0.0, 0.0, 0.0, 1.645921075338258E9, 0.0, 2022-02-27 11:17:55.338
4.0, -2474.427518180313, -5619.899108397854, -2522.9531553927845, -11119.031741503686, -1219.6452879482852, 130.42242889671672, -5851.39612572147, -2113.7821213939337, -5150.735992280959, -7734.262375147627, -4418.202271247181, -3547.221845057231, -4502.1554234213145, -3502.8089288245355, -10480.442402415563, -15602.031719926801, 0.006, -0.114, 0.978, 192.0, 0.0, 0.0, 0.0, 0.0, 0.0, 0.0, 0.0, 0.0, 0.0, 1.645921075344907E9, 0.0, 2022-02-27 11:17:55.344
6.0, -2378.694996678233, -5534.783665512045, -2373.218819286683, -10958.903844225866, -1095.011960865493, 260.2637124375954, -5599.268448265606, -1784.2280011448863, -2103.1426910332075, -6902.442205243374, -4578.687796436286, -3360.160095710766, -4773.103269708547, -3571.540543024605, -10016.062559612103, -14370.69646962839, 0.006, -0.114, 0.978, 192.0, 0.0, 0.0, 0.0, 0.0, 0.0, 0.0, 0.0, 0.0, 0.0, 1.645921075353769E9, 0.0, 2022-02-27 11:17:55.353
8.0, -1975.000140070932, -5240.813522435847, -2155.065793402886, -10718.242611675574, -758.5958550686664, 480.9424854448421, -5598.508488954126, -1814.0675799927212, -4030.779484603344, -7115.051998502255, -4248.17255117566, -3403.5671834429722, -4373.767003270031, -3315.009571911046, -10216.3118381872, -14921.555211729434, 0.014, -0.108, 0.978, 192.0, 0.0, 56.0, 126.0, 80.0, 15.0, 72.0, 0.0, 0.0, 0.0, 1.645921075360894E9, 0.0, 2022-02-27 11:17:55.360
10.0, -2691.8652882415404, -5771.578046271568, -2620.362057729013, -11231.975106236352, -1398.2804296350992, 10.170043727164714, -5847.663384397434, -2060.227341679018, -3859.4757150978703, -7629.365638418871, -4658.796448564106, -3529.3628012374406, -4798.360740943043, -3721.9454314643663, -10362.33578471372, -15259.334773938033, 0.014, -0.108, 0.978, 192.0, 0.0, 0.0, 0.0, 0.0, 0.0, 0.0, 0.0, 0.0, 0.0, 1.645921075368017E9, 0.0, 2022-02-27 11:17:55.368
12.0, -1969.1886865125523, -5219.288792525386, -2108.0377230689196, -10667.481800017573, -739.127485648094, 516.1241312174953, -5476.244446783597, -1656.2195606493428, -2329.7446763211105, -6655.813056923516, -4338.898281919752, -3299.162185092233, -4538.633470372376, -3372.8558865613804, -9971.537884657131, -14240.20698549831, 0.014, -0.108, 0.978, 192.0, 0.0, 0.0, 0.0, 0.0, 0.0, 0.0, 0.0, 0.0, 0.0, 1.645921075375599E9, 0.0, 2022-02-27 11:17:55.375
14.0, -2484.888134585397, -5624.034181122087, -2526.9317659058293, -11129.648820119957, -1235.783247445017, 104.67321928420297, -5878.173515578927, -2135.9103484046877, -5173.333605925275, -7734.2176716587155, -4415.073027023438, -3563.739784209703, -4506.737531034652, -3519.3492197214628, -10488.801954841847, -15620.024874213324, 0.014, -0.108, 0.978, 192.0, 0.0, 0.0, 0.0, 0.0, 0.0, 0.0, 0.0, 0.0, 0.0, 1.645921075383441E9, 0.0, 2022-02-27 11:17:55.383
16.0, -2392.106043351417, -5549.62522383037, -2387.0545491045177, -10977.813420035056, -1109.7641122059956, 228.01014518858736, -5610.332561770983, -1796.7673297843135, -2112.373961493249, -6931.1641968684435, -4581.392357515378, -3368.0949649924, -4790.604685617052, -3599.055540449088, -10030.568841763597, -14390.008376837777, 0.015, -0.108, 0.98, 192.0, 0.0, 64.0, 126.0, 80.0, 15.0, 88.0, 0.0, 0.0, 0.0, 1.645921075399E9, 0.0, 2022-02-27 11:17:55.399
18.0, -1971.3791574691722, -5241.975813147523, -2159.960825438598, -10725.55163211246, -755.9583492229401, 468.2913980831383, -5608.052683836542, -1820.817806818224, -4015.9826297739305, -7114.515556635328, -4249.848932009809, -3416.0394568490337, -4388.094471465883, -3340.6023193123724, -10216.3118381872, -14922.538688485467, 0.015, -0.108, 0.98, 192.0, 0.0, 0.0, 0.0, 0.0, 0.0, 0.0, 0.0, 0.0, 0.0, 1.645921075405276E9, 0.0, 2022-02-27 11:17:55.405
20.0, -2703.9575819918614, -5780.742261498244, -2637.483493981778, -11244.93911802043, -1406.1705954278227, 8.67247684865914, -5841.20373024985, -2075.1359552307076, -3911.7564453788336, -7655.584234664945, -4661.92569278785, -3555.0673073610437, -4806.51912766923, -3726.4157803554276, -10366.962595815969, -15282.468829449277, 0.015, -0.108, 0.98, 192.0, 0.0, 0.0, 0.0, 0.0, 0.0, 0.0, 0.0, 0.0, 0.0, 1.645921075413107E9, 0.0, 2022-02-27 11:17:55.413
22.0, -1983.8737826196889, -5234.264461310442, -2126.9025953891987, -10681.9210269357, -749.7892677532755, 502.37780837748153, -5490.013121368065, -1646.5189035557394, -2330.616394354867, -6660.12694360339, -4347.436648301679, -3305.4653770286295, -4555.598444413954, -3370.3077876934753, -9966.888721810428, -14237.792997097135, 0.015, -0.108, 0.98, 192.0, 0.0, 0.0, 0.0, 0.0, 0.0, 0.0, 0.0, 0.0, 0.0, 1.645921075421114E9, 0.0, 2022-02-27 11:17:55.421
24.0, -2482.988236306696, -5616.68045719629, -2537.459437544279, -11133.605078888546, -1234.1068666108688, 109.34473387536215, -5867.712899173845, -2113.3350865048274, -5181.089661251266, -7739.805607772542, -4419.766893359053, -3571.4511360467836, -4515.700580561231, -3505.9381730482787, -10483.482239661484, -15614.503993332863, 0.015, -0.108, 0.98, 192.0, 0.0, 0.0, 0.0, 0.0, 0.0, 0.0, 0.0, 0.0, 0.0, 1.645921075427799E9, 0.0, 2022-02-27 11:17:55.427
26.0, -2398.3198283099923, -5541.332726637451, -2392.9777613851743, -10972.40429787687, -1106.523109259976, 233.44161909122695, -5595.289837752562, -1795.5826873281824, -2120.4429412416152, -6934.94164168139, -4591.115366353437, -3383.2941512220086, -4801.467633422331, -3609.404398131895, -10028.780702207172, -14386.074469813642, 0.014499999999999999, -0.108, 0.981, 192.0, 0.0, 56.0, 126.0, 80.0, 15.0, 88.0, 0.0, 0.0, 0.0, 1.645921075435793E9, 0.0, 2022-02-27 11:17:55.435
28.0, -1964.226599243474, -5232.722190943025, -2153.0317846574526, -10714.308704651441, -742.9943374388621, 471.91238068489804, -5606.845689635956, -1823.7682370863245, -3993.385016129615, -7125.3338009516965, -4253.201693678105, -3405.9141166107797, -4391.380177900813, -3339.9317669787133, -10208.935762516949, -14911.787499402464, 0.014499999999999999, -0.108, 0.981, 192.0, 0.0, 0.0, 0.0, 0.0, 0.0, 0.0, 0.0, 0.0, 0.0, 1.645921075443856E9, 0.0, 2022-02-27 11:17:55.443
30.0, -2696.670913299431, -5767.554732269613, -2633.0131450907165, -11244.626193598056, -1410.6856478077946, 0.8046628003910543, -5836.398105191959, -2062.998957991476, -3926.1509688080514, -7656.5006561876135, -4656.516570629665, -3545.1431328228873, -4802.942848556381, -3720.492568074771, -10375.031575564335, -15296.997463345226, 0.014499999999999999, -0.108, 0.981, 192.0, 0.0, 0.0, 0.0, 0.0, 0.0, 0.0, 0.0, 0.0, 0.0, 1.645921075449947E9, 0.0, 2022-02-27 11:17:55.449
32.0, -1980.5657244403035, -5230.6658304531375, -2118.699505174101, -10674.991986154555, -746.8611892296302, 511.05028522614066, -5498.70794996118, -1634.8512929500691, -2287.9692659341417, -6637.0822950699685, -4344.441514544668, -3311.0533131424563, -4557.475990948199, -3374.912247051269, -9966.419335176866, -14234.14966275092, 0.014499999999999999, -0.108, 0.981, 192.0, 0.0, 0.0, 0.0, 0.0, 0.0, 0.0, 0.0, 0.0, 0.0, 1.645921075457345E9, 0.0, 2022-02-27 11:17:55.457
34.0, -2474.3381112024917, -5618.267431052617, -2517.4769780012343, -11117.95885776983, -1219.1759013147237, 119.80535028044585, -5851.552587932657, -2120.577051708347, -5163.16356219811, -7747.539311354079, -4407.1828612307145, -3548.7864671691023, -4499.361455364401, -3516.7787691091025, -10478.989539025968, -15610.614789797639, 0.014499999999999999, -0.108, 0.981, 192.0, 0.0, 0.0, 0.0, 0.0, 0.0, 0.0, 0.0, 0.0, 0.0, 1.6459210754654E9, 0.0, 2022-02-27 11:17:55.465
36.0, -2414.949526184741, -5564.265616448595, -2392.8660026628977, -10984.965978260754, -1123.622193768286, 219.98586892913212, -5613.819433906011, -1812.6147166031262, -2133.1610838366846, -6955.974633213835, -4589.2601715636465, -3371.7606510830706, -4798.740720598784, -3596.6862555368252, -10028.356019062521, -14407.42038576846, 0.01525, -0.11, 0.9835, 192.0, 0.0, 64.0, 126.0, 64.0, 15.0, 104.0, 0.0, 0.0, 0.0, 1.645921075473384E9, 0.0, 2022-02-27 11:17:55.473
38.0, -1975.5589336823148, -5239.94180440209, -2149.991947411531, -10711.805309272446, -748.5152183193229, 473.20878186330583, -5612.232460049684, -1817.0180102608217, -3956.3928790560817, -7115.610792113637, -4252.240568666526, -3407.165814300277, -4391.1566604562595, -3333.7850372535036, -10199.391567634531, -14897.035348061961, 0.01525, -0.11, 0.9835, 192.0, 0.0, 0.0, 0.0, 0.0, 0.0, 0.0, 0.0, 0.0, 0.0, 1.645921075480039E9, 0.0, 2022-02-27 11:17:55.480
40.0, -2718.8885472880065, -5793.929790726876, -2634.71187766932, -11243.776827308755, -1408.2046041732556, 3.0174855014664534, -5864.717765416833, -2082.6461413676907, -3970.3850710851043, -7678.204200053716, -4660.204608464791, -3550.708717192259, -4797.198450231368, -3715.8434052280672, -10374.405726719586, -15311.101414096525, 0.01525, -0.11, 0.9835, 192.0, 0.0, 0.0, 0.0, 0.0, 0.0, 0.0, 0.0, 0.0, 0.0, 1.645921075487992E9, 0.0, 2022-02-27 11:17:55.487
42.0, -2037.0709344233198, -5279.012653709967, -2127.416685511671, -10684.893808948256, -753.5890643106776, 503.6742095558894, -5463.101621043876, -1640.1710081304323, -2281.5543152754685, -6679.103574645946, -4358.210189129137, -3313.6237637548165, -4556.000775814149, -3372.4759069056404, -9958.328003684044, -14228.941706292833, 0.01525, -0.11, 0.9835, 192.0, 0.0, 0.0, 0.0, 0.0, 0.0, 0.0, 0.0, 0.0, 0.0, 1.645921075496025E9, 0.0, 2022-02-27 11:17:55.496
44.0, -2550.803428984097, -5691.2682284436505, -2521.0532571140834, -11120.931639782386, -1205.518985452531, 131.89764403076697, -5858.6827944139, -2115.1455778057075, -5191.460870678529, -7756.234139947193, -4423.298468982991, -3578.514287294661, -4497.662722785798, -3504.127681747399, -10469.311233676819, -15606.2338478844, 0.01525, -0.11, 0.9835, 192.0, 0.0, 0.0, 0.0, 0.0, 0.0, 0.0, 0.0, 0.0, 0.0, 1.645921075503061E9, 0.0, 2022-02-27 11:17:55.503
46.0, -2521.232071069726, -5674.347957890983, -2398.677456221277, -10984.585998605013, -1110.5240715174762, 246.78561053104528, -5601.391863988861, -1788.4077773580286, -2174.1318314232626, -6989.368139430063, -4617.2669073661455, -3408.439863734229, -4794.113909496536, -3589.0643106775656, -10025.047960883137, -14404.022920611254, 0.013625, -0.11, 0.98575, 192.0, 0.0, 48.0, 126.0, 72.0, 15.0, 112.0, 0.0, 0.0, 0.0, 1.645921075517713E9, 0.0, 2022-02-27 11:17:55.517
48.0, -2132.9152146476763, -5406.238783149574, -2154.6187585137795, -10714.308704651441, -737.6075670251331, 494.82291875158774, -5590.283046994573, -1799.136614696576, -4001.6551615780786, -7143.863397105146, -4289.143298762238, -3443.0627158955, -4391.804861045463, -3313.646115499272, -10193.468355353876, -14883.311376966403, 0.013625, -0.11, 0.98575, 192.0, 0.0, 0.0, 0.0, 0.0, 0.0, 0.0, 0.0, 0.0, 0.0, 1.645921075525724E9, 0.0, 2022-02-27 11:17:55.525
50.0, -2928.9949451678926, -6014.630915478578, -2651.0510028661497, -11258.618385627078, -1399.3086098800434, 17.769636841969113, -5840.689640127378, -2061.702556813068, -4092.090319644251, -7745.929985753297, -4706.182146809358, -3605.9845812302333, -4793.353950185055, -3703.594649266559, -10377.24439826541, -15323.46192878031, 0.013625, -0.11, 0.98575, 192.0, 0.0, 0.0, 0.0, 0.0, 0.0, 0.0, 0.0, 0.0, 0.0, 1.645921075532728E9, 0.0, 2022-02-27 11:17:55.532
52.0, -2255.693346940678, -5510.554374522492, -2140.6042147403023, -10695.175611397697, -744.0448694282614, 514.9394887613641, -5464.286263500007, -1622.6472404774715, -2330.303469932493, -6736.636964873906, -4426.472416695645, -3373.839363317414, -4568.741270153674, -3374.554619139984, -9951.890701280916, -14211.216772939775, 0.013625, -0.11, 0.98575, 192.0, 0.0, 0.0, 0.0, 0.0, 0.0, 0.0, 0.0, 0.0, 0.0, 1.645921075540316E9, 0.0, 2022-02-27 11:17:55.540
54.0, -2717.0780559871264, -5867.221160795827, -2512.8725186434413, -11102.871430262498, -1172.617217614319, 165.11233629135327, -5831.860701067531, -2088.189373992607, -5252.101153385777, -7801.2505532801815, -4471.0417951395275, -3630.303279197607, -4496.500432074122, -3492.0800914859883, -10461.868102773202, -15588.553618020253, 0.013625, -0.11, 0.98575, 192.0, 0.0, 0.0, 0.0, 0.0, 0.0, 0.0, 0.0, 0.0, 0.0, 1.645921075548418E9, 0.0, 2022-02-27 11:17:55.548
56.0, -2684.846840482574, -5825.959840531331, -2418.2575843641266, -10999.628722623434, -1114.815606452895, 255.92747401326588, -5640.9097481858435, -1780.6293702875819, -2289.7574054905663, -7048.4438000254395, -4667.960663790782, -3448.829465964969, -4805.133319513002, -3582.8058222300797, -10037.408475566921, -14434.33188609265, 0.012812500000000001, -0.10700000000000001, 0.986875, 192.0, 0.0, 48.0, 126.0, 96.0, 15.0, 112.0, 0.0, 0.0, 0.0, 1.645921075555264E9, 0.0, 2022-02-27 11:17:55.555
58.0, -2203.4573201486255, -5473.294016515496, -2145.7451159650227, -10707.849050503857, -708.2150230664042, 522.5614336206238, -5567.260750205606, -1764.9384456799562, -3945.0158411283305, -7128.060713775243, -4305.750644892531, -3455.512637557106, -4383.735881297098, -3289.975618121102, -10174.625834778051, -14831.254164129992, 0.012812500000000001, -0.10700000000000001, 0.986875, 192.0, 0.0, 0.0, 0.0, 0.0, 0.0, 0.0, 0.0, 0.0, 0.0, 1.645921075562961E9, 0.0, 2022-02-27 11:17:55.562
60.0, -2947.278672132334, -6021.04586613725, -2646.6700609529094, -11257.903129804508, -1390.5690777980183, 28.83375034734611, -5828.418532421414, -2061.5237428574255, -4138.581948111289, -7749.170988699316, -4716.061617858603, -3617.1604534578864, -4786.670778592918, -3685.534439746671, -10371.544703429307, -15324.154832858425, 0.012812500000000001, -0.10700000000000001, 0.986875, 192.0, 0.0, 0.0, 0.0, 0.0, 0.0, 0.0, 0.0, 0.0, 0.0, 1.645921075570043E9, 0.0, 2022-02-27 11:17:55.570
62.0, -2219.148244756251, -5459.0559552974655, -2134.122208848263, -10690.682910762182, -740.8485699711526, 523.7684278212104, -5478.524324718038, -1615.6064409740497, -2311.706818545678, -6707.982028482203, -4429.802826619485, -3364.6304446018275, -4568.115421308926, -3351.129990950822, -9947.800332045595, -14199.19153442282, 0.012812500000000001, -0.10700000000000001, 0.986875, 192.0, 0.0, 0.0, 0.0, 0.0, 0.0, 0.0, 0.0, 0.0, 0.0, 1.645921075578083E9, 0.0, 2022-02-27 11:17:55.578
64.0, -2650.8498371660517, -5792.164002914907, -2509.050370341584, -11103.698444807345, -1185.0894910203804, 151.20955124015228, -5858.526332202713, -2104.193223022607, -5222.283926282397, -7752.166122456328, -4454.389745520323, -3603.0788544510433, -4484.5422487905325, -3476.1432976893543, -10463.388021396164, -15578.450629526453, 0.012812500000000001, -0.10700000000000001, 0.986875, 192.0, 0.0, 0.0, 0.0, 0.0, 0.0, 0.0, 0.0, 0.0, 0.0, 1.645921075584949E9, 0.0, 2022-02-27 11:17:55.584
66.0, -2600.8042813306192, -5738.899795877909, -2406.8358429474647, -10992.051481253086, -1120.9623361781046, 252.99939548962064, -5626.1128933564305, -1781.6351987880707, -2234.146265285762, -7005.260229737786, -4649.319308915056, -3431.7527332011146, -4805.110967768546, -3579.5871710285155, -10036.223833110791, -14412.248362570806, 0.01140625, -0.10850000000000001, 0.9864375, 192.0, 0.0, 40.0, 126.0, 72.0, 15.0, 104.0, 0.0, 0.0, 0.0, 1.64592107559268E9, 0.0, 2022-02-27 11:17:55.592
68.0, -2109.0211998249533, -5370.58775074336, -2133.585766981336, -10698.796593999457, -714.8758429140858, 522.6955440873556, -5593.993436574154, -1766.5701230251937, -3934.3764107676043, -7104.412568141529, -4294.1277377757715, -3443.733268229159, -4393.235372690603, -3293.7530629340486, -10178.447983079908, -14837.98203921104, 0.01140625, -0.10850000000000001, 0.9864375, 192.0, 0.0, 0.0, 0.0, 0.0, 0.0, 0.0, 0.0, 0.0, 0.0, 1.645921075600661E9, 0.0, 2022-02-27 11:17:55.600
70.0, -2841.152589458536, -5920.820643999654, -2631.5379299566666, -11251.979917523851, -1393.2065836437446, 8.67247684865914, -5849.16095127594, -2085.998903035987, -4113.637401299167, -7728.272107633604, -4682.913980831383, -3589.1984211442973, -4777.439508132877, -3685.8026606801345, -10382.80998263478, -15340.337495844067, 0.01140625, -0.10850000000000001, 0.9864375, 192.0, 0.0, 0.0, 0.0, 0.0, 0.0, 0.0, 0.0, 0.0, 0.0, 1.645921075608684E9, 0.0, 2022-02-27 11:17:55.608
72.0, -2131.5070547469923, -5381.271884592997, -2128.355458778794, -10691.040538673466, -756.1818666674932, 496.2534303967274, -5486.973284122144, -1639.2322348633093, -2252.2288265501056, -6688.245438128167, -4388.183878443704, -3342.345755379886, -4559.733517138186, -3372.297092949998, -9945.989840744716, -14209.898020016912, 0.01140625, -0.10850000000000001, 0.9864375, 192.0, 0.0, 0.0, 0.0, 0.0, 0.0, 0.0, 0.0, 0.0, 0.0, 1.645921075615244E9, 0.0, 2022-02-27 11:17:55.615
74.0, -2547.137742893427, -5699.739539592211, -2492.465375955746, -11080.85496197402, -1181.6249706298079, 161.53605717850414, -5871.624454453523, -2105.4449207121042, -5187.571667143306, -7734.955279225741, -4412.882556066818, -3586.2032873872863, -4484.475193557167, -3486.961542005723, -10465.869065030702, -15586.541961019275, 0.01140625, -0.10850000000000001, 0.9864375, 192.0, 0.0, 0.0, 0.0, 0.0, 0.0, 0.0, 0.0, 0.0, 0.0, 1.645921075623274E9, 0.0, 2022-02-27 11:17:55.623
76.0, -2542.4438765578125, -5684.5180016181475, -2416.827072718987, -10996.410071421871, -1147.426801613188, 229.440656833727, -5640.30625108555, -1825.8916528095785, -2250.798314904966, -7019.6771049114595, -4620.86553822345, -3416.0394568490337, -4807.994342803281, -3585.8233077315463, -10050.573653051097, -14455.655450303013, 0.014703125000000001, -0.10525000000000001, 0.98521875, 192.0, 0.0, 72.0, 126.0, 104.0, 15.0, 96.0, 0.0, 0.0, 0.0, 1.645921075631242E9, 0.0, 2022-02-27 11:17:55.631
78.0, -2029.1807686305963, -5299.039816741922, -2128.1319413342408, -10690.705262506635, -724.7553139633316, 502.42251186639214, -5606.286896024572, -1778.014216186311, -3845.751744002312, -7061.720736231892, -4263.9528827611075, -3419.235756306143, -4396.834003547908, -3290.847336154859, -10173.68706151093, -14823.922791948653, 0.014703125000000001, -0.10525000000000001, 0.98521875, 192.0, 0.0, 0.0, 0.0, 0.0, 0.0, 0.0, 0.0, 0.0, 0.0, 1.645921075644937E9, 0.0, 2022-02-27 11:17:55.644
80.0, -2775.5502194822097, -5853.318375744627, -2636.455313736834, -11251.80110356821, -1425.4601508927526, -6.77257856995804, -5861.029727581707, -2087.8317460813223, -4144.393401669669, -7708.177889368283, -4650.794524049106, -3580.347130339996, -4776.053699976647, -3679.0077303657213, -10398.43385200904, -15372.211083437334, 0.014703125000000001, -0.10525000000000001, 0.98521875, 192.0, 0.0, 0.0, 0.0, 0.0, 0.0, 0.0, 0.0, 0.0, 0.0, 1.645921075653226E9, 0.0, 2022-02-27 11:17:55.653
82.0, -2084.993074535498, -5335.719029393081, -2134.323374548361, -10696.561419553927, -769.9728929964177, 485.4798895692694, -5479.351339262884, -1659.147639172988, -2206.273639949994, -6671.481629786686, -4380.4725266066225, -3335.863749487847, -4589.640151219386, -3371.648892360794, -9953.276509437146, -14204.71241530328, 0.014703125000000001, -0.10525000000000001, 0.98521875, 192.0, 0.0, 0.0, 0.0, 0.0, 0.0, 0.0, 0.0, 0.0, 0.0, 1.645921075661053E9, 0.0, 2022-02-27 11:17:55.661
84.0, -2490.431367210313, -5641.893224941877, -2496.2875242576033, -11090.332101623071, -1212.9621163561483, 134.64690859876976, -5907.141376393006, -2139.2407583285285, -5153.440553360052, -7707.8649649459085, -4390.664922078243, -3574.4462698037946, -4486.218629624681, -3479.898390757846, -10469.914730777113, -15587.547789519764, 0.014703125000000001, -0.10525000000000001, 0.98521875, 192.0, 0.0, 0.0, 0.0, 0.0, 0.0, 0.0, 0.0, 0.0, 0.0, 1.645921075667976E9, 0.0, 2022-02-27 11:17:55.667
86.0, -2470.1359832448943, -5615.182890317785, -2405.42768304678, -10993.683158598324, -1157.7533075515398, 214.5767467709478, -5631.1643876033295, -1822.941222541478, -2206.4301021611814, -6988.474069651851, -4595.362197799945, -3394.425319960752, -4819.4831394533085, -3604.576421329549, -10061.168379922912, -14453.979069468865, 0.018000000000000002, -0.10400000000000001, 0.984, 192.0, 0.0, 72.0, 126.0, 96.0, 15.0, 96.0, 0.0, 0.0, 0.0, 1.645921075675528E9, 0.0, 2022-02-27 11:17:55.675
88.0, -1975.938913338055, -5253.79988596438, -2128.6013279678023, -10682.613931013815, -740.6250525265996, 498.01921820869666, -5600.698959910746, -1788.9218674805009, -3844.14241840153, -7057.004518151823, -4241.534083072434, -3394.537078683028, -4401.885497794807, -3318.1388161347886, -10179.789087747227, -14833.131710664238, 0.018000000000000002, -0.10400000000000001, 0.984, 192.0, 0.0, 0.0, 0.0, 0.0, 0.0, 0.0, 0.0, 0.0, 0.0, 1.645921075683632E9, 0.0, 2022-02-27 11:17:55.683
90.0, -2741.3296987211347, -5831.637183622978, -2638.1763980598926, -11242.726295319355, -1429.3046509390654, 11.287630949930067, -5875.424251010925, -2070.866772039744, -4115.582003066779, -7711.307133592026, -4640.4456663662995, -3563.3598045539625, -4800.66297062194, -3693.715178217313, -10406.502831757407, -15358.531815830687, 0.018000000000000002, -0.10400000000000001, 0.984, 192.0, 0.0, 0.0, 0.0, 0.0, 0.0, 0.0, 0.0, 0.0, 0.0, 1.645921075690461E9, 0.0, 2022-02-27 11:17:55.690
92.0, -2042.2788908814064, -5295.418834140162, -2130.8365024133327, -10692.962788696623, -769.2799889183032, 489.1902791488504, -5459.570045419937, -1642.7861622317032, -2212.5768318863907, -6668.620606496407, -4363.418145587224, -3317.8035399679593, -4583.985159872193, -3359.7801160550257, -9954.371744915456, -14203.840697269523, 0.018000000000000002, -0.10400000000000001, 0.984, 192.0, 0.0, 0.0, 0.0, 0.0, 0.0, 0.0, 0.0, 0.0, 0.0, 1.645921075697114E9, 0.0, 2022-02-27 11:17:55.697
94.0, -2444.789105032576, -5608.544422214559, -2483.2788089846144, -11084.967682953797, -1167.8562960453387, 156.9539495651662, -5835.839311580577, -2096.3924642077045, -5164.169390698599, -7707.328523078982, -4386.552201098466, -3571.473487791239, -4487.93971394774, -3476.16564943381, -10458.02360272689, -15582.339833061676, 0.018000000000000002, -0.10400000000000001, 0.984, 192.0, 0.0, 0.0, 0.0, 0.0, 0.0, 0.0, 0.0, 0.0, 0.0, 1.645921075705679E9, 0.0, 2022-02-27 11:17:55.705
96.0, -2455.339128415481, -5611.986590860676, -2421.453883821235, -11008.07768202754, -1153.9535109941378, 220.70112475170194, -5657.807666994056, -1813.9558212704446, -2241.2988235114603, -7003.516793670273, -4604.0570263930595, -3394.9617618276793, -4824.132302300012, -3592.729996768236, -10059.737868277773, -14472.53101736677, 0.016, -0.108, 0.984, 192.0, 0.0, 64.0, 126.0, 80.0, 15.0, 96.0, 0.0, 0.0, 0.0, 1.645921075713187E9, 0.0, 2022-02-27 11:17:55.713
98.0, -1944.5123606338932, -5229.436484508095, -2131.1270750912518, -10683.776221725491, -720.1955580944489, 512.2796311711826, -5578.838953833456, -1771.3757480830848, -3796.332037011628, -7041.671221455482, -4242.69637378411, -3393.5312501825397, -4404.768872829542, -3299.1845368366885, -10181.644282537018, -14817.306675589882, 0.016, -0.108, 0.984, 192.0, 0.0, 0.0, 0.0, 0.0, 0.0, 0.0, 0.0, 0.0, 0.0, 1.645921075720176E9, 0.0, 2022-02-27 11:17:55.720
100.0, -2711.1324919620147, -5795.941447727853, -2644.7925144186634, -11253.119856491072, -1416.4523978772638, -1.5199186229608803, -5869.098707330073, -2100.058150298375, -4164.577026912812, -7712.8494039594425, -4636.802332020085, -3559.4929527631944, -4785.3743774145105, -3688.2837043146737, -10411.040235881834, -15388.66196735644, 0.016, -0.108, 0.984, 192.0, 0.0, 0.0, 0.0, 0.0, 0.0, 0.0, 0.0, 0.0, 0.0, 1.645921075727787E9, 0.0, 2022-02-27 11:17:55.727
102.0, -2019.100131881253, -5266.160400648165, -2139.0395926284305, -10694.594466041859, -781.2605239463478, 487.1562704034174, -5509.593249510915, -1654.6102350485605, -2192.884945021265, -6649.196940564745, -4358.903093207252, -3299.720978703616, -4581.012377859638, -3370.2183807156543, -9963.245387464212, -14217.274095687164, 0.016, -0.108, 0.984, 192.0, 0.0, 0.0, 0.0, 0.0, 0.0, 0.0, 0.0, 0.0, 0.0, 1.645921075736876E9, 0.0, 2022-02-27 11:17:55.736
104.0, -2415.2177471182044, -5578.637788133358, -2487.905620086863, -11070.886083946954, -1172.6619211032298, 151.99186229608802, -5867.824657896121, -2107.635391668724, -5142.264681132398, -7680.349967521426, -4366.0332996884945, -3538.3258507640185, -4474.305149830002, -3467.9402074742566, -10469.780620310381, -15581.51281851683, 0.016, -0.108, 0.984, 192.0, 0.0, 0.0, 0.0, 0.0, 0.0, 0.0, 0.0, 0.0, 0.0, 1.645921075743782E9, 0.0, 2022-02-27 11:17:55.743
106.0, -2446.7113550557324, -5589.321921982994, -2428.248814135649, -11003.584981392025, -1155.6745953171965, 217.7283427391461, -5660.646338539879, -1819.141425984076, -2248.697250926167, -7002.198040747409, -4600.167822857836, -3387.7645001130704, -4815.5492324291745, -3606.2304504192416, -10068.61151082653, -14483.304558194228, 0.016, -0.114, 0.988, 192.0, 0.0, 64.0, 126.0, 56.0, 15.0, 112.0, 0.0, 0.0, 0.0, 1.645921075750383E9, 0.0, 2022-02-27 11:17:55.750
108.0, -1933.8505785287118, -5205.520117940917, -2127.4613890005817, -10676.690718733158, -712.5959649796445, 514.1571777054284, -5609.371436759405, -1783.9374284669673, -3785.334978739617, -7026.6061456926045, -4235.78968474742, -3386.7810233570367, -4397.370445414835, -3298.5363362474845, -10180.571398803164, -14815.630294755734, 0.016, -0.114, 0.988, 192.0, 0.0, 0.0, 0.0, 0.0, 0.0, 0.0, 0.0, 0.0, 0.0, 1.645921075765544E9, 0.0, 2022-02-27 11:17:55.765
110.0, -2720.162596721959, -5790.129994169473, -2653.8449709230626, -11255.243272214328, -1420.9227467683252, -4.604459357793255, -5891.539858763202, -2091.9444670610987, -4182.793698643887, -7706.9261916787855, -4628.465131338255, -3555.402583527873, -4773.70676680884, -3683.6792449568807, -10419.668009241583, -15402.76591810774, 0.016, -0.114, 0.988, 192.0, 0.0, 0.0, 0.0, 0.0, 0.0, 0.0, 0.0, 0.0, 0.0, 1.64592107577347E9, 0.0, 2022-02-27 11:17:55.773
112.0, -2045.6987077830684, -5281.940732233612, -2158.440906815637, -10702.596390556859, -788.8377653166968, 484.5187645576912, -5500.540793006515, -1634.761885972248, -2200.506889880525, -6662.0268418820915, -4370.570703812922, -3312.841452698881, -4594.915162910839, -3384.009407044579, -9958.931500784338, -14208.758081049691, 0.016, -0.114, 0.988, 192.0, 0.0, 0.0, 0.0, 0.0, 0.0, 0.0, 0.0, 0.0, 0.0, 1.645921075780071E9, 0.0, 2022-02-27 11:17:55.780
114.0, -2422.9514506997407, -5569.965311284699, -2493.2253352672265, -11064.672298988378, -1154.7358220500735, 173.69540616219118, -5842.746000617266, -2067.424603393627, -5162.895341264647, -7681.780479166566, -4372.62706430281, -3552.474505004228, -4485.168097635281, -3469.035442952567, -10463.522131862896, -15569.12995208859, 0.016, -0.114, 0.988, 192.0, 0.0, 0.0, 0.0, 0.0, 0.0, 0.0, 0.0, 0.0, 0.0, 1.645921075787982E9, 0.0, 2022-02-27 11:17:55.787
116.0, -2486.855088097464, -5613.662971694824, -2454.020375492618, -11023.634496168435, -1169.8679530463164, 205.16666235526353, -5655.192512892784, -1817.4203416610173, -2318.926432004742, -7023.3204392576745, -4619.278564367123, -3406.4952619666174, -4831.463674481353, -3606.2528021636967, -10071.092554461069, -14502.303540981238, 0.016, -0.112, 0.99, 192.0, 0.0, 64.0, 126.0, 64.0, 15.0, 120.0, 0.0, 0.0, 0.0, 1.645921075796108E9, 0.0, 2022-02-27 11:17:55.796
118.0, -1951.3743461816725, -5220.987525103989, -2138.570205994869, -10683.910332192223, -708.416188766502, 511.02793348168535, -5584.561000414014, -1758.4564397879171, -3753.975481268821, -7022.560479946194, -4249.8712837542635, -3397.442805462218, -4414.156605500771, -3308.393455552275, -10169.574340531151, -14789.054070598373, 0.016, -0.112, 0.99, 192.0, 0.0, 0.0, 0.0, 0.0, 0.0, 0.0, 0.0, 0.0, 0.0, 1.645921075802673E9, 0.0, 2022-02-27 11:17:55.802
120.0, -2718.9332507769172, -5799.04834020714, -2661.444564037867, -11260.652394372511, -1402.5719645705183, -1.1399389672206601, -5871.423288753425, -2095.386635707216, -4256.308586157392, -7734.664706547822, -4624.844148736495, -3576.0779471490323, -4772.477420863798, -3696.9114776744223, -10419.91387843059, -15418.792118882195, 0.016, -0.112, 0.99, 192.0, 0.0, 0.0, 0.0, 0.0, 0.0, 0.0, 0.0, 0.0, 0.0, 1.645921075811468E9, 0.0, 2022-02-27 11:17:55.811
122.0, -2049.386745618194, -5289.0485869704, -2161.0784126613635, -10712.319399394919, -777.1478029665712, 482.976494190275, -5485.810993410468, -1629.173949858421, -2161.7936684839333, -6665.2007895947445, -4365.161581654737, -3320.9774876806127, -4594.199907088269, -3386.7586716125816, -9954.461151893276, -14207.416976382374, 0.016, -0.112, 0.99, 192.0, 0.0, 0.0, 0.0, 0.0, 0.0, 0.0, 0.0, 0.0, 0.0, 1.645921075817637E9, 0.0, 2022-02-27 11:17:55.817
124.0, -2421.6997530102435, -5577.475497421682, -2489.850221854475, -11073.903569448421, -1152.746516793551, 173.15896429526381, -5848.2892332421825, -2103.0756357998416, -5140.901224720625, -7677.578351208967, -4357.830209473397, -3551.6251387149264, -4472.382899806846, -3468.2978353855415, -10456.21311142601, -15565.03958285327, 0.016, -0.112, 0.99, 192.0, 0.0, 0.0, 0.0, 0.0, 0.0, 0.0, 0.0, 0.0, 0.0, 1.645921075825726E9, 0.0, 2022-02-27 11:17:55.825
126.0, -2471.1865152342934, -5598.664951165313, -2442.7774480315984, -11020.214679266774, -1164.7717553105063, 197.43295877372728, -5680.449984127282, -1818.7390945838804, -2293.803071236977, -7032.730523673359, -4605.062854893548, -3412.284363780542, -4817.091502796591, -3617.205156946797, -10070.80198178315, -14510.037244562775, 0.014, -0.112, 0.992, 192.0, 0.0, 56.0, 126.0, 64.0, 15.5, 0.0, 0.0, 0.0, 0.0, 1.645921075832374E9, 0.0, 2022-02-27 11:17:55.832
128.0, -1947.4404391575385, -5213.298525011364, -2134.0998571038076, -10673.96380590961, -709.9361073894629, 514.4477503833474, -5569.1159449953975, -1744.0619163586996, -3736.854045016056, -7018.7383316443365, -4243.389277862225, -3397.5322124400395, -4405.215907718648, -3308.6393247412834, -10166.042764907213, -14789.54580897639, 0.014, -0.112, 0.992, 192.0, 0.0, 0.0, 0.0, 0.0, 0.0, 0.0, 0.0, 0.0, 0.0, 1.645921075840276E9, 0.0, 2022-02-27 11:17:55.840
130.0, -2721.101369989082, -5791.694616281345, -2658.136505858482, -11252.8069320687, -1406.7964442725713, -5.565584369371458, -5873.21142830985, -2097.9123828306656, -4279.0403102684395, -7738.263337405127, -4630.342677872501, -3578.603694272482, -4771.18101968539, -3697.9396579193663, -10417.96927666298, -15426.034084085713, 0.014, -0.112, 0.992, 192.0, 0.0, 0.0, 0.0, 0.0, 0.0, 0.0, 0.0, 0.0, 0.0, 1.64592107584839E9, 0.0, 2022-02-27 11:17:55.848
132.0, -2038.5685013018253, -5272.508296073473, -2155.512828291992, -10707.759643526035, -779.092404734183, 489.2126308933057, -5505.458176786683, -1642.406182575963, -2143.576996752858, -6640.435056738264, -4366.3238723664135, -3304.03486538349, -4589.886020408395, -3383.450613433196, -9951.466018136265, -14201.069080957066, 0.014, -0.112, 0.992, 192.0, 0.0, 0.0, 0.0, 0.0, 0.0, 0.0, 0.0, 0.0, 0.0, 1.645921075855425E9, 0.0, 2022-02-27 11:17:55.855
134.0, -2400.599706244434, -5564.735003082157, -2473.555800146556, -11063.934691421353, -1141.816513754906, 176.80229864147887, -5855.151218789962, -2095.900725829688, -5113.185061596044, -7652.969080563675, -4349.738877980576, -3541.633908943404, -4456.73667868813, -3454.484457312162, -10459.297652160842, -15553.349620503142, 0.014, -0.112, 0.992, 192.0, 0.0, 0.0, 0.0, 0.0, 0.0, 0.0, 0.0, 0.0, 0.0, 1.645921075862953E9, 0.0, 2022-02-27 11:17:55.862
136.0, -2472.304102457059, -5599.827241876989, -2445.213788177227, -11029.356542748994, -1168.1245169788024, 198.0811593629312, -5646.698849999768, -1814.5146148818274, -2307.459987099169, -7039.0113638653, -4602.715921725741, -3421.2921167960308, -4827.57447094613, -3614.947630756811, -10070.489057360775, -14514.842869620667, 0.014, -0.108, 0.99, 192.0, 0.0, 56.0, 126.0, 80.0, 15.0, 120.0, 0.0, 0.0, 0.0, 1.645921075870925E9, 0.0, 2022-02-27 11:17:55.870
138.0, -1932.3083081612956, -5201.072120794311, -2126.030877355442, -10668.82290468489, -701.7553689188205, 522.3602679205261, -5578.995416044643, -1750.1192391060877, -3692.0611491276204, -6987.423537662451, -4228.614774777267, -3380.902514565291, -4403.181898973215, -3320.172824880222, -10158.756096214784, -14773.25138726847, 0.014, -0.108, 0.99, 192.0, 0.0, 0.0, 0.0, 0.0, 0.0, 0.0, 0.0, 0.0, 0.0, 1.645921075878994E9, 0.0, 2022-02-27 11:17:55.878
140.0, -2712.004209995772, -5783.3127121106045, -2653.040308122672, -11252.449304157413, -1407.221127417222, 1.721084323058644, -5886.220143582838, -2109.3117725028724, -4272.89358054323, -7714.794005727054, -4616.529299799121, -3572.1440401248983, -4768.4094033729325, -3690.0047886377324, -10420.226802852965, -15430.258563787767, 0.014, -0.108, 0.99, 192.0, 0.0, 0.0, 0.0, 0.0, 0.0, 0.0, 0.0, 0.0, 0.0, 1.645921075892702E9, 0.0, 2022-02-27 11:17:55.892
142.0, -2051.554864830359, -5280.33140663283, -2162.151296395218, -10706.530297580994, -788.4577856609567, 472.62763650746786, -5487.017987611054, -1649.4246303349294, -2140.023069384464, -6649.263995798111, -4361.808819986441, -3298.8269089254036, -4605.5769450160205, -3388.0774245354446, -9947.241538434213, -14200.33147339004, 0.014, -0.108, 0.99, 192.0, 0.0, 0.0, 0.0, 0.0, 0.0, 0.0, 0.0, 0.0, 0.0, 1.64592107590059E9, 0.0, 2022-02-27 11:17:55.900
144.0, -2388.887392149853, -5549.826389530467, -2471.074756512017, -11057.09505761803, -1135.3792113517775, 177.2046300416744, -5838.812093593132, -2096.9065543301767, -5129.904166448613, -7653.259653241594, -4348.151904124249, -3538.9069961198566, -4478.9096091877955, -3457.3007771135303, -10449.619346811694, -15556.635326938072, 0.014, -0.108, 0.99, 192.0, 0.0, 0.0, 0.0, 0.0, 0.0, 0.0, 0.0, 0.0, 0.0, 1.645921075908713E9, 0.0, 2022-02-27 11:17:55.908
146.0, -2478.473183926724, -5615.898146140355, -2451.047593480062, -11031.815234639078, -1186.587057898886, 186.63706620181398, -5667.329510132016, -1834.8323505917015, -2321.832158783932, -7042.4535325114175, -4596.323322811523, -3400.2367735191315, -4840.4937792412975, -3622.502520382705, -10079.787383054183, -14536.21113731994, 0.014, -0.11, 0.994, 192.0, 0.0, 56.0, 126.0, 72.0, 15.5, 8.0, 0.0, 0.0, 0.0, 1.645921075915322E9, 0.0, 2022-02-27 11:17:55.915
148.0, -1936.7339535634464, -5212.292696510875, -2120.867624386266, -10675.327262321385, -713.8923661580523, 515.6994480728446, -5573.899218308833, -1759.171695610487, -3671.1622680619084, -6988.071738251655, -4233.576862046345, -3378.935561053224, -4426.07008529545, -3311.2097753536436, -10159.96309041537, -14767.931672088109, 0.014, -0.11, 0.994, 192.0, 0.0, 0.0, 0.0, 0.0, 0.0, 0.0, 0.0, 0.0, 0.0, 1.645921075923261E9, 0.0, 2022-02-27 11:17:55.923
150.0, -2721.414294411456, -5798.824822762588, -2653.196770333859, -11267.424972942468, -1427.2706421936325, -20.541253154427192, -5888.410614539459, -2118.185415051629, -4323.9449648791515, -7745.617061330922, -4614.875270709428, -3578.760156483669, -4784.077976236103, -3702.0300271546876, -10427.669933756582, -15453.213805343368, 0.014, -0.11, 0.994, 192.0, 0.0, 0.0, 0.0, 0.0, 0.0, 0.0, 0.0, 0.0, 0.0, 1.645921075931365E9, 0.0, 2022-02-27 11:17:55.931
152.0, -2055.1758474321186, -5290.90378176019, -2163.604159784813, -10713.414634873228, -814.1175882956492, 462.61405499149026, -5525.775912496557, -1665.8755142540354, -2128.6907349456233, -6626.532271687063, -4370.391889857279, -3300.458586270641, -4622.318401613045, -3409.870375379369, -9959.937329284827, -14211.373235150963, 0.014, -0.11, 0.994, 192.0, 0.0, 0.0, 0.0, 0.0, 0.0, 0.0, 0.0, 0.0, 0.0, 1.645921075937967E9, 0.0, 2022-02-27 11:17:55.937
154.0, -2377.2644850330935, -5539.186959169741, -2464.525695386612, -11044.578080723059, -1146.398621368244, 179.1045283203755, -5833.358267946037, -2098.381769464227, -5115.666105230583, -7634.551243132501, -4347.637814001777, -3526.5911849249824, -4487.604437780909, -3464.185114405765, -10459.655280072127, -15547.627573922584, 0.013000000000000001, -0.109, 0.994, 192.0, 0.0, 48.0, 126.0, 80.0, 15.5, 8.0, 0.0, 0.0, 0.0, 1.645921075944919E9, 0.0, 2022-02-27 11:17:55.944
156.0, -2473.533448402101, -5598.910820354321, -2453.394526647869, -11042.56642372208, -1198.0535028044585, 177.83047888642298, -5668.2012281657735, -1863.911970128056, -2353.102249276906, -7052.645927983038, -4608.192099117291, -3398.001599073601, -4856.430573037931, -3629.252747208208, -10092.527877393708, -14552.460855538948, 0.013000000000000001, -0.109, 0.994, 192.0, 0.0, 0.0, 0.0, 0.0, 0.0, 0.0, 0.0, 0.0, 0.0, 1.645921075953117E9, 0.0, 2022-02-27 11:17:55.953
158.0, -1909.911860217078, -5180.530867639884, -2117.4254557401487, -10672.488590775562, -712.8865376575635, 511.5867270930681, -5578.727195111179, -1779.914114465012, -3637.411133934395, -6958.880359993024, -4231.386391089724, -3371.648892360794, -4436.664812167265, -3321.782150481004, -10160.477180537842, -14764.511855186447, 0.013000000000000001, -0.109, 0.994, 192.0, 0.0, 0.0, 0.0, 0.0, 0.0, 0.0, 0.0, 0.0, 0.0, 1.64592107596105E9, 0.0, 2022-02-27 11:17:55.961
160.0, -2696.8050237661632, -5778.61884577499, -2649.709898198831, -11264.22867348536, -1431.2269009622219, -12.136997239231736, -5892.970370408341, -2140.9394909071316, -4334.04795337295, -7734.441189103269, -4603.744101970685, -3560.0517463745773, -4783.697996580362, -3712.110663904031, -10439.918689718092, -15469.709392751383, 0.013000000000000001, -0.109, 0.994, 192.0, 0.0, 0.0, 0.0, 0.0, 0.0, 0.0, 0.0, 0.0, 0.0, 1.645921075967713E9, 0.0, 2022-02-27 11:17:55.967
162.0, -2030.6559837646466, -5263.969929691545, -2158.8879417047433, -10717.840280275379, -816.6209836746435, 466.95029341581983, -5528.659287531292, -1685.209773207876, -2108.149481791196, -6627.694562398739, -4359.573645540911, -3287.449870997652, -4625.96173595926, -3402.4048927312965, -9961.099619996503, -14208.71337756078, 0.013000000000000001, -0.109, 0.994, 192.0, 0.0, 0.0, 0.0, 0.0, 0.0, 0.0, 0.0, 0.0, 0.0, 1.64592107597557E9, 0.0, 2022-02-27 11:17:55.975
164.0, -2349.3918596973253, -5517.8186914704675, -2449.8629510239307, -11035.167996307373, -1135.334507862867, 184.35718826737266, -5869.433983496903, -2110.9881533370203, -5090.00630259589, -7601.984751461119, -4328.214148070115, -3517.9410598207787, -4476.2721033420685, -3458.418364336296, -10460.884626017169, -15545.548861688241, 0.0115, -0.1085, 0.993, 192.0, 0.0, 40.0, 126.0, 80.0, 15.5, 0.0, 0.0, 0.0, 0.0, 1.645921075983739E9, 0.0, 2022-02-27 11:17:55.983
166.0, -2466.8726285544194, -5604.029369834587, -2452.411049891836, -11038.18548180884, -1209.296430265478, 165.69348164719125, -5668.64826305488, -1869.9245893865336, -2352.0293655430514, -7044.82281742368, -4605.331075827012, -3379.0696715199556, -4856.899959671493, -3633.141950743431, -10096.774708840217, -14556.55122477427, 0.0115, -0.1085, 0.993, 192.0, 0.0, 0.0, 0.0, 0.0, 0.0, 0.0, 0.0, 0.0, 0.0, 1.645921075990654E9, 0.0, 2022-02-27 11:17:55.990
168.0, -1890.9352291745222, -5172.037204746867, -2099.8122811093667, -10658.719916191092, -713.5570899912227, 509.30684915862673, -5603.112948311919, -1806.3785799000955, -3595.076929936043, -6951.258415133765, -4229.531196299934, -3351.6887845622045, -4441.8727686253515, -3317.6023742678613, -10155.425686290942, -14742.24951770896, 0.0115, -0.1085, 0.993, 192.0, 0.0, 0.0, 0.0, 0.0, 0.0, 0.0, 0.0, 0.0, 0.0, 1.645921075998156E9, 0.0, 2022-02-27 11:17:55.998
170.0, -2677.448413067867, -5758.994014143231, -2641.260938794725, -11256.070286759174, -1430.4669416507413, -16.540290896927225, -5912.461091573369, -2132.0434966139196, -4351.839941959374, -7721.544232552556, -4589.751909941663, -3534.9507373512674, -4768.342348139567, -3691.9717421497994, -10447.54063457735, -15480.125305667558, 0.0115, -0.1085, 0.993, 192.0, 0.0, 0.0, 0.0, 0.0, 0.0, 0.0, 0.0, 0.0, 0.0, 1.645921076013265E9, 0.0, 2022-02-27 11:17:56.013
172.0, -2037.741486756979, -5273.312958873864, -2156.47395330357, -10724.45639663415, -820.2419662764033, 448.3759937734597, -5496.4504237711935, -1679.957113260879, -2079.9415802885987, -6622.196033262734, -4368.0896601783825, -3283.7618331625263, -4630.655602294874, -3407.478738722651, -9951.957756514283, -14198.677444300349, 0.0115, -0.1085, 0.993, 192.0, 0.0, 0.0, 0.0, 0.0, 0.0, 0.0, 0.0, 0.0, 0.0, 1.645921076020388E9, 0.0, 2022-02-27 11:17:56.020
174.0, -2328.4482751427026, -5508.0733308879535, -2427.667668779811, -11022.628667667947, -1121.2529088560234, 190.41451101476088, -5858.30281475816, -2092.9726473060427, -5071.297892486798, -7600.665998538256, -4328.415313770212, -3508.575678894005, -4472.785231207041, -3452.741021244648, -10443.137340919655, -15533.121291771091, 0.01075, -0.10625000000000001, 0.9904999999999999, 192.0, 0.0, 40.0, 126.0, 96.0, 15.0, 112.0, 0.0, 0.0, 0.0, 1.645921076027739E9, 0.0, 2022-02-27 11:17:56.027
176.0, -2480.618951394433, -5598.843765120955, -2446.8678172669192, -11048.064952858085, -1219.3100117814556, 157.87037108783377, -5712.1671095093625, -1893.32686583124, -2396.4199300312916, -7054.746991961836, -4604.146433370881, -3377.3709389413525, -4851.781410191227, -3630.9738315312666, -10108.2858572347, -14589.207123423474, 0.01075, -0.10625000000000001, 0.9904999999999999, 192.0, 0.0, 0.0, 0.0, 0.0, 0.0, 0.0, 0.0, 0.0, 0.0, 1.645921076035897E9, 0.0, 2022-02-27 11:17:56.035
178.0, -1902.3346188467287, -5167.388041900163, -2093.151461261685, -10661.782105181468, -706.4268835099797, 520.7956458086545, -5582.012901546109, -1789.301847136241, -3527.306440747552, -6907.940734379379, -4222.065713651862, -3344.9832612256128, -4427.880576596329, -3316.194214367177, -10147.15554084248, -14727.832642535288, 0.01075, -0.10625000000000001, 0.9904999999999999, 192.0, 0.0, 0.0, 0.0, 0.0, 0.0, 0.0, 0.0, 0.0, 0.0, 1.6459210760429E9, 0.0, 2022-02-27 11:17:56.042
180.0, -2710.8195675396405, -5777.814182974599, -2643.5631684736218, -11268.22963574286, -1425.4377991482972, -20.38479094324004, -5876.45243125587, -2144.6275287422573, -4381.254837662558, -7733.770636769609, -4601.397168802878, -3556.65428121737, -4768.319996395111, -3697.1573468634306, -10438.756399006415, -15479.477105078353, 0.01075, -0.10625000000000001, 0.9904999999999999, 192.0, 0.0, 0.0, 0.0, 0.0, 0.0, 0.0, 0.0, 0.0, 0.0, 1.645921076050695E9, 0.0, 2022-02-27 11:17:56.050
182.0, -2052.828914264311, -5279.28087464343, -2151.511866034492, -10725.819853045923, -822.410085488568, 455.4391450213367, -5541.332726637451, -1707.181538007443, -2066.4411266375932, -6619.02208555008, -4366.547389810967, -3277.7045104151384, -4625.358238858967, -3401.376712486352, -9951.868349536462, -14202.253723413198, 0.01075, -0.10625000000000001, 0.9904999999999999, 192.0, 0.0, 0.0, 0.0, 0.0, 0.0, 0.0, 0.0, 0.0, 0.0, 1.64592107605841E9, 0.0, 2022-02-27 11:17:56.058
184.0, -2345.1003247619064, -5511.537851278526, -2422.727933255188, -11023.23216476824, -1108.3783040497667, 205.25606933308475, -5808.994866489753, -2068.2739696829285, -5061.507828415373, -7602.141213672307, -4322.268584045003, -3505.4911381591724, -4463.732774702642, -3444.8061519630137, -10442.556195563817, -15522.303047454721, 0.009375, -0.10512500000000001, 0.98725, 192.0, 0.0, 32.0, 126.0, 96.0, 15.0, 96.0, 0.0, 0.0, 0.0, 1.645921076065466E9, 0.0, 2022-02-27 11:17:56.065
186.0, -2513.654829699377, -5636.394695805871, -2457.7307650721987, -11059.889025674944, -1219.2206048036344, 165.1570397802639, -5703.472280916248, -1881.1898685920082, -2437.81536076252, -7088.274608644797, -4614.696456753785, -3395.6099624168833, -4853.614253236563, -3642.86495958149, -10112.018598558736, -14602.729928818933, 0.009375, -0.10512500000000001, 0.98725, 192.0, 0.0, 0.0, 0.0, 0.0, 0.0, 0.0, 0.0, 0.0, 0.0, 1.645921076072644E9, 0.0, 2022-02-27 11:17:56.072
188.0, -1929.0002499819102, -5199.820423104814, -2096.3030572298835, -10661.066849358898, -702.2024038079267, 533.9608232928305, -5550.876921519866, -1759.4846200328614, -3505.0217515256113, -6928.616098000539, -4229.9111759556745, -3346.033793215012, -4429.333439985924, -3301.285600815487, -10136.829034904127, -14702.888095723165, 0.009375, -0.10512500000000001, 0.98725, 192.0, 0.0, 0.0, 0.0, 0.0, 0.0, 0.0, 0.0, 0.0, 0.0, 1.645921076080135E9, 0.0, 2022-02-27 11:17:56.080
190.0, -2731.763152094263, -5804.904497254432, -2645.910101641429, -11261.255891472805, -1428.3211741830319, -8.06897974836585, -5890.779899451721, -2136.3350315493385, -4427.612355662865, -7749.506264866146, -4607.678008994819, -3567.8525051894794, -4771.13631619648, -3682.7404716897577, -10447.428875855074, -15484.796820258716, 0.009375, -0.10512500000000001, 0.98725, 192.0, 0.0, 0.0, 0.0, 0.0, 0.0, 0.0, 0.0, 0.0, 0.0, 1.645921076088171E9, 0.0, 2022-02-27 11:17:56.088
192.0, -2090.9162868161543, -5319.514014662983, -2161.0784126613635, -10730.044332747977, -823.7064866669758, 457.3613950444931, -5512.722493734657, -1663.0368427082115, -2076.03002500892, -6644.815998651505, -4385.00993073105, -3291.0485018549566, -4634.790675019107, -3413.1113783253886, -9958.484465895232, -14196.308159388085, 0.009375, -0.10512500000000001, 0.98725, 192.0, 0.0, 0.0, 0.0, 0.0, 0.0, 0.0, 0.0, 0.0, 0.0, 1.645921076096017E9, 0.0, 2022-02-27 11:17:56.096
194.0, -2365.5745226829677, -5539.81280801449, -2420.828034976487, -11017.13013853194, -1099.9293446456606, 216.409589816283, -5818.6731718389, -2071.805545306867, -5070.448526197497, -7604.868126495854, -4331.544557993956, -3518.544556921072, -4465.364452047879, -3443.956785673712, -10441.460960085507, -15510.657788593506, 0.0076875, -0.1045625, 0.986625, 192.0, 0.0, 24.0, 126.0, 96.0, 15.0, 104.0, 0.0, 0.0, 0.0, 1.645921076102683E9, 0.0, 2022-02-27 11:17:56.102
196.0, -2525.613012982966, -5640.485065041193, -2452.00871849164, -11055.37397329497, -1202.300334250967, 176.35526375237274, -5687.289617930605, -1871.9362463875111, -2442.553930587045, -7100.635123328581, -4619.949116700783, -3400.907325852791, -4849.1215526010465, -3643.1331805149534, -10108.151746767968, -14599.444222384003, 0.0076875, -0.1045625, 0.986625, 192.0, 0.0, 0.0, 0.0, 0.0, 0.0, 0.0, 0.0, 0.0, 0.0, 1.645921076111321E9, 0.0, 2022-02-27 11:17:56.111
198.0, -1944.8923402896335, -5216.472472724017, -2091.832708338822, -10664.911349405213, -687.2714385117815, 529.2446052127606, -5549.491113363638, -1760.043413644244, -3538.2587955306526, -6946.855121476069, -4238.449542337602, -3366.418584158252, -4429.1322742858265, -3308.7063799746493, -10136.38200001502, -14711.269999893904, 0.0076875, -0.1045625, 0.986625, 192.0, 0.0, 0.0, 0.0, 0.0, 0.0, 0.0, 0.0, 0.0, 0.0, 1.645921076118649E9, 0.0, 2022-02-27 11:17:56.118
200.0, -2738.4463236864, -5820.8189393066095, -2634.9130433694177, -11269.436629943446, -1406.3494093834652, -7.733703581536243, -5876.340672533593, -2132.445828014115, -4454.635614709332, -7773.48968666669, -4602.358293814456, -3571.9428744248003, -4753.411382843421, -3689.8706781710007, -10437.459997828008, -15497.582018087152, 0.0076875, -0.1045625, 0.986625, 192.0, 0.0, 0.0, 0.0, 0.0, 0.0, 0.0, 0.0, 0.0, 0.0, 1.645921076125813E9, 0.0, 2022-02-27 11:17:56.125
202.0, -2106.3389904903165, -5334.824959614869, -2159.5137905494917, -10741.153149742264, -821.4266087325345, 462.59170324703496, -5504.809976197479, -1665.0037962202784, -2082.6684931121463, -6666.787763451071, -4382.841811518885, -3302.22437408261, -4627.861634237961, -3411.993791102623, -9948.225015190246, -14199.19153442282, 0.0076875, -0.1045625, 0.986625, 192.0, 0.0, 0.0, 0.0, 0.0, 0.0, 0.0, 0.0, 0.0, 0.0, 1.645921076140424E9, 0.0, 2022-02-27 11:17:56.140
204.0, -2359.271330746571, -5529.531005565048, -2410.5909360159562, -11008.167089005363, -1080.59508569182, 238.02372670456492, -5817.935564271876, -2066.3070161708615, -5068.4815726854295, -7606.2539346520825, -4332.550386494445, -3517.225803998209, -4459.284777556036, -3424.0413813640334, -10434.755436748916, -15505.628646091063, 0.01084375, -0.10328125, 0.9883124999999999, 192.0, 0.0, 56.0, 126.0, 104.0, 15.0, 120.0, 0.0, 0.0, 0.0, 1.645921076148292E9, 0.0, 2022-02-27 11:17:56.148
206.0, -2547.9871091827285, -5663.261492641151, -2468.5713611330225, -11070.617863013491, -1219.3100117814556, 172.7566328950683, -5697.169088979851, -1872.1150603431536, -2507.68691392981, -7119.812920071236, -4625.96173595926, -3408.462215478685, -4841.924290886437, -3628.33632568554, -10121.316924252144, -14623.628809884645, 0.01084375, -0.10328125, 0.9883124999999999, 192.0, 0.0, 0.0, 0.0, 0.0, 0.0, 0.0, 0.0, 0.0, 0.0, 1.645921076154946E9, 0.0, 2022-02-27 11:17:56.154
208.0, -1944.6241193561698, -5221.32280127082, -2091.899763572188, -10655.25539580052, -684.0751390546726, 535.3242797046041, -5537.376467868861, -1748.9122449055012, -3472.902294743335, -6924.995115398779, -4251.257091910493, -3361.612959100361, -4428.528777185533, -3303.0737403719118, -10122.054531819169, -14669.80751392931, 0.01084375, -0.10328125, 0.9883124999999999, 192.0, 0.0, 0.0, 0.0, 0.0, 0.0, 0.0, 0.0, 0.0, 0.0, 1.645921076162982E9, 0.0, 2022-02-27 11:17:56.162
210.0, -2734.646527128998, -5822.048285251652, -2638.1093428265267, -11264.139266507538, -1412.4067321308532, -8.560718126382605, -5886.398957538481, -2136.223272827062, -4542.075639018493, -7792.533372942612, -4603.677046737319, -3575.765022726658, -4741.743772237751, -3676.9290181313777, -10452.010983468412, -15517.385663674553, 0.01084375, -0.10328125, 0.9883124999999999, 192.0, 0.0, 0.0, 0.0, 0.0, 0.0, 0.0, 0.0, 0.0, 0.0, 1.645921076171024E9, 0.0, 2022-02-27 11:17:56.171
212.0, -2133.8539879147993, -5358.070773848388, -2175.271770390483, -10758.945138328689, -838.6598037075763, 448.51010424019154, -5506.575764009448, -1671.4410986234068, -2082.802603578878, -6678.567132779019, -4418.224622991636, -3321.0445429139786, -4651.107448471481, -3424.510767997595, -9956.83043680554, -14202.47724085775, 0.01084375, -0.10328125, 0.9883124999999999, 192.0, 0.0, 0.0, 0.0, 0.0, 0.0, 0.0, 0.0, 0.0, 0.0, 1.645921076178922E9, 0.0, 2022-02-27 11:17:56.178
214.0, -2349.0118800415853, -5536.661212046291, -2402.0749213784843, -11003.517926158658, -1072.59316117682, 243.0305174625537, -5814.135767714473, -2055.6675858101353, -5038.016144992846, -7590.495954811091, -4339.926462164696, -3529.027525070611, -4456.557864732488, -3437.608890248405, -10425.390055822141, -15476.01258468778, 0.012421874999999999, -0.105640625, 0.98515625, 192.0, 0.0, 56.0, 126.0, 80.0, 15.0, 88.0, 0.0, 0.0, 0.0, 1.645921076185573E9, 0.0, 2022-02-27 11:17:56.185
216.0, -2539.6052050119883, -5668.223579910228, -2462.826962808009, -11063.800580954621, -1214.5490902124752, 180.378577754328, -5676.3596148919605, -1870.1928103199973, -2529.3457543070026, -7140.8906150925895, -4634.477750596732, -3418.2075760611983, -4851.669651468951, -3646.0389072941434, -10116.734816638806, -14627.495661675413, 0.012421874999999999, -0.105640625, 0.98515625, 192.0, 0.0, 0.0, 0.0, 0.0, 0.0, 0.0, 0.0, 0.0, 0.0, 1.645921076192703E9, 0.0, 2022-02-27 11:17:56.192
218.0, -1933.7611715508906, -5209.521080198417, -2084.9260193021323, -10646.001773596023, -682.8234413651754, 546.7907246101767, -5541.243319659629, -1728.7062679179035, -3472.052928454033, -6933.131150380511, -4250.6312430657445, -3358.2154939431543, -4433.669678410253, -3296.03294086849, -10118.433549217409, -14672.176798841572, 0.012421874999999999, -0.105640625, 0.98515625, 192.0, 0.0, 0.0, 0.0, 0.0, 0.0, 0.0, 0.0, 0.0, 0.0, 1.64592107620074E9, 0.0, 2022-02-27 11:17:56.200
220.0, -2717.9274222764284, -5797.2825523951715, -2624.6982961533427, -11242.41337089698, -1397.0957871789678, 23.67049737817018, -5873.859628899054, -2115.480853972537, -4524.685981832264, -7773.601445388967, -4590.780090186607, -3559.1353248519094, -4731.283155832667, -3655.5160469431935, -10437.124721661177, -15494.341015141132, 0.012421874999999999, -0.105640625, 0.98515625, 192.0, 0.0, 0.0, 0.0, 0.0, 0.0, 0.0, 0.0, 0.0, 0.0, 1.645921076207703E9, 0.0, 2022-02-27 11:17:56.207
222.0, -2130.702391946601, -5349.688869677648, -2177.596351813835, -10754.56419641545, -843.152504343093, 446.8784268949541, -5523.205461884197, -1668.7141857998595, -2077.616998865247, -6676.734289733683, -4403.0701402509385, -3302.0455601269678, -4637.383477375923, -3412.127901569355, -9944.514625610665, -14194.944702976312, 0.012421874999999999, -0.105640625, 0.98515625, 192.0, 0.0, 0.0, 0.0, 0.0, 0.0, 0.0, 0.0, 0.0, 0.0, 1.645921076215064E9, 0.0, 2022-02-27 11:17:56.215
224.0, -2292.5513735474797, -5473.003443837577, -2362.601740670412, -10962.904806483366, -1032.4270763906331, 269.2938171975395, -5815.633334592979, -2028.711381997035, -4966.915245880514, -7548.7875996574885, -4317.574717709389, -3502.6524666133487, -4440.710477913675, -3414.452482992707, -10409.520317258874, -15436.785273168716, 0.018000000000000002, -0.11, 0.99, 192.0, 0.0, 72.0, 126.0, 72.0, 15.0, 120.0, 0.0, 0.0, 0.0, 1.645921076223334E9, 0.0, 2022-02-27 11:17:56.223
226.0, -2547.1153911489714, -5659.953434461765, -2469.10780299995, -11077.05516541662, -1226.5966804738857, 167.3922142257946, -5681.053481227575, -1892.6786652420362, -2626.70995315432, -7163.622339203637, -4614.137663142403, -3403.8577561208913, -4828.647354679984, -3626.0340960066437, -10124.222651031334, -14668.108781350707, 0.018000000000000002, -0.11, 0.99, 192.0, 0.0, 0.0, 0.0, 0.0, 0.0, 0.0, 0.0, 0.0, 0.0, 1.64592107623119E9, 0.0, 2022-02-27 11:17:56.231
228.0, -1948.3345089357508, -5225.7931501618805, -2092.9726473060427, -10659.166951080198, -705.5551654762228, 533.4467331703584, -5571.798154330034, -1756.176561853476, -3325.000801682568, -6912.254621059254, -4263.528199616457, -3362.842305045403, -4457.273120555058, -3318.4964440460735, -10113.42675845942, -14623.13707150663, 0.018000000000000002, -0.11, 0.99, 192.0, 0.0, 0.0, 0.0, 0.0, 0.0, 0.0, 0.0, 0.0, 0.0, 1.645921076238023E9, 0.0, 2022-02-27 11:17:56.238
230.0, -2635.449485236345, -5741.917281379376, -2564.393289612924, -11192.323111572638, -1316.8306728399602, 72.88903866875633, -5837.158064503439, -2086.647103625191, -4592.85880242095, -7744.164197941327, -4533.358458680923, -3534.2578332731528, -4663.535018388631, -3609.6502673209034, -10420.986762164446, -15487.009642959792, 0.018000000000000002, -0.11, 0.99, 192.0, 0.0, 0.0, 0.0, 0.0, 0.0, 0.0, 0.0, 0.0, 0.0, 1.645921076245743E9, 0.0, 2022-02-27 11:17:56.245
232.0, -2190.9403432536537, -5407.222259905608, -2226.636079148779, -10811.449386054204, -909.3360196752573, 415.1836532573287, -5548.619395329881, -1706.8462618406131, -2174.1094796788075, -6761.000366330191, -4438.788227890519, -3326.5877755388947, -4657.656509596885, -3452.4951520556397, -9971.850809079506, -14276.260349304719, 0.018000000000000002, -0.11, 0.99, 192.0, 0.0, 0.0, 0.0, 0.0, 0.0, 0.0, 0.0, 0.0, 0.0, 1.645921076259984E9, 0.0, 2022-02-27 11:17:56.259
234.0, -2269.9761116476193, -5467.281397257018, -2339.467685159169, -10935.92625092581, -999.1006254077704, 300.8544803684331, -5740.37501101196, -1967.5123056784041, -4783.228609946801, -7488.169668694695, -4324.8837381462745, -3502.4513009132506, -4446.87955938334, -3408.551622456506, -10372.818752863259, -15335.531870786175, 0.014, -0.11, 0.992, 192.0, 0.0, 56.0, 126.0, 72.0, 15.5, 0.0, 0.0, 0.0, 0.0, 1.64592107626745E9, 0.0, 2022-02-27 11:17:56.267
236.0, -2550.8704842174634, -5675.93493174731, -2470.20303847826, -11084.319482364594, -1236.520855012042, 158.02683329902092, -5695.224487212239, -1889.4153105515613, -2715.6028408530765, -7199.407482076584, -4619.815006234051, -3421.7615034295923, -4824.311116255655, -3626.995221018222, -10132.626906946529, -14700.496459066448, 0.014, -0.11, 0.992, 192.0, 0.0, 0.0, 0.0, 0.0, 0.0, 0.0, 0.0, 0.0, 0.0, 1.645921076275663E9, 0.0, 2022-02-27 11:17:56.275
238.0, -1924.686363302036, -5208.738769142481, -2072.02906275142, -10647.856968385813, -671.5358104152454, 551.3728322235146, -5530.223909643163, -1713.1494537770097, -3341.51874083504, -6901.995170354267, -4254.431039623147, -3364.228113201632, -4437.424771478745, -3311.0086096535456, -10101.870906576027, -14621.7512633504, 0.014, -0.11, 0.992, 192.0, 0.0, 0.0, 0.0, 0.0, 0.0, 0.0, 0.0, 0.0, 0.0, 1.645921076283659E9, 0.0, 2022-02-27 11:17:56.283
240.0, -2698.1014249445707, -5793.326293626582, -2614.7294181262755, -11240.669934829466, -1376.3310165799876, 17.635526375237273, -5860.426230481414, -2127.394333767216, -4586.220334317724, -7781.715128626243, -4571.311720766034, -3566.6455109888925, -4701.130652562458, -3648.0282125506656, -10435.336582104754, -15513.183535716957, 0.014, -0.11, 0.992, 192.0, 0.0, 0.0, 0.0, 0.0, 0.0, 0.0, 0.0, 0.0, 0.0, 1.645921076290199E9, 0.0, 2022-02-27 11:17:56.290
242.0, -2123.147502320707, -5357.668442448192, -2173.1260029227738, -10751.859635336355, -837.4975129959004, 450.87938915245405, -5505.793452953512, -1669.1388689445103, -2056.6957660550793, -6685.60793228244, -4411.072064765938, -3309.3992840527635, -4635.193006419302, -3422.9684976301787, -9944.291108166111, -14197.962188477779, 0.014, -0.11, 0.992, 192.0, 0.0, 0.0, 0.0, 0.0, 0.0, 0.0, 0.0, 0.0, 0.0, 1.645921076298216E9, 0.0, 2022-02-27 11:17:56.298
244.0, -2284.7729664770327, -5484.447536998694, -2362.244112759127, -10954.925233712822, -1022.1452739411919, 287.84576509544434, -5798.310732640116, -2026.5209110404148, -4977.8452489191595, -7549.301689779961, -4312.0314850844725, -3507.2569259711418, -4422.8514340938855, -3404.0365700765337, -10406.569886990774, -15435.91355513496, 0.01, -0.108, 0.988, 192.0, 0.0, 40.0, 126.0, 80.0, 15.0, 112.0, 0.0, 0.0, 0.0, 1.645921076306211E9, 0.0, 2022-02-27 11:17:56.306
246.0, -2540.029888156639, -5667.530675832114, -2471.7900123345867, -11073.791810726145, -1224.9202996397376, 169.9626648381549, -5676.963111992253, -1873.590275477204, -2627.4699124658005, -7182.3307493127295, -4630.432084850322, -3428.8917099108353, -4830.927232614426, -3644.4072299489058, -10137.588994215608, -14680.849275690232, 0.01, -0.108, 0.988, 192.0, 0.0, 0.0, 0.0, 0.0, 0.0, 0.0, 0.0, 0.0, 0.0, 1.645921076313293E9, 0.0, 2022-02-27 11:17:56.313
248.0, -1912.61642129617, -5201.36269347223, -2072.833725551811, -10627.695694887125, -665.8808190680527, 570.8188498996318, -5527.720514264169, -1717.53039569025, -3336.0202116990345, -6888.025330069701, -4243.1210569287605, -3351.6217293288387, -4420.862128837362, -3306.56061250694, -10098.294627463178, -14611.871792301154, 0.01, -0.108, 0.988, 192.0, 0.0, 0.0, 0.0, 0.0, 0.0, 0.0, 0.0, 0.0, 0.0, 1.645921076319909E9, 0.0, 2022-02-27 11:17:56.319
250.0, -2714.0382187412047, -5808.7266455562885, -2627.715781654809, -11238.233594683838, -1389.4738423197082, 23.402276444706494, -5885.549591249179, -2135.6197757267687, -4600.838375191495, -7791.393433975391, -4581.302950537557, -3579.2965983505965, -4707.813824154595, -3664.0991168140313, -10454.000288724934, -15525.54405040074, 0.01, -0.108, 0.988, 192.0, 0.0, 0.0, 0.0, 0.0, 0.0, 0.0, 0.0, 0.0, 0.0, 1.645921076327886E9, 0.0, 2022-02-27 11:17:56.327
252.0, -2116.441978984115, -5351.007622600511, -2173.5059825785142, -10734.134701983297, -827.1710070575484, 461.0941363685294, -5520.009162427087, -1669.9882352338118, -2032.8241029768114, -6667.771240207106, -4409.887422309807, -3312.5285282765067, -4630.029753450126, -3430.389276789341, -9941.20656743128, -14180.080792913532, 0.01, -0.108, 0.988, 192.0, 0.0, 0.0, 0.0, 0.0, 0.0, 0.0, 0.0, 0.0, 0.0, 1.645921076335861E9, 0.0, 2022-02-27 11:17:56.335
254.0, -2306.6106208098677, -5503.446519785705, -2381.176040312772, -10956.869835480433, -1032.1812072016248, 283.5542301600254, -5762.95027291182, -2019.770684214912, -5000.532269541296, -7553.63792820429, -4315.42895024168, -3515.929402819801, -4417.956402058173, -3414.7877591595366, -10407.039273624334, -15441.926174393437, 0.01, -0.11, 0.99, 192.0, 0.0, 40.0, 126.0, 72.0, 15.0, 120.0, 0.0, 0.0, 0.0, 1.645921076343042E9, 0.0, 2022-02-27 11:17:56.343
0.0, -2548.6353097719325, -5676.605484080968, -2474.0922420134834, -11060.961909408798, -1223.489787994598, 178.70219692017997, -5668.916483988343, -1865.6554061955699, -2606.079293022072, -7179.648539978092, -4644.3795733904335, -3438.055925137511, -4836.828093150627, -3654.1749422758753, -10124.870851620539, -14665.627737716168, 0.01, -0.11, 0.99, 192.0, 0.0, 0.0, 0.0, 0.0, 0.0, 0.0, 0.0, 0.0, 0.0, 1.645921076350753E9, 0.0, 2022-02-27 11:17:56.350
2.0, -1908.7942729943125, -5193.941914313068, -2066.150553959674, -10617.883279071246, -652.9615107728853, 571.2882365331932, -5519.562127537982, -1688.115499987066, -3353.409868885263, -6895.535516206684, -4243.255167395493, -3353.1416479517998, -4409.306276953969, -3308.818138696926, -10093.287836705189, -14612.341178934716, 0.01, -0.11, 0.99, 192.0, 0.0, 0.0, 0.0, 0.0, 0.0, 0.0, 0.0, 0.0, 0.0, 1.645921076358612E9, 0.0, 2022-02-27 11:17:56.358
4.0, -2711.221898939836, -5798.869526251498, -2627.4252089768897, -11238.904147017498, -1382.678912005295, 12.516976894971956, -5867.3105677736485, -2138.927833906154, -4638.992802976704, -7800.267076524148, -4581.437061004289, -3576.6590925048704, -4695.855640871006, -3666.8930848709447, -10451.385134623664, -15540.966754074903, 0.01, -0.11, 0.99, 192.0, 0.0, 0.0, 0.0, 0.0, 0.0, 0.0, 0.0, 0.0, 0.0, 1.645921076366496E9, 0.0, 2022-02-27 11:17:56.366
6.0, -2125.3379732773274, -5356.707317436614, -2177.149316924729, -10740.996687531077, -834.92706238354, 455.37208978797076, -5490.884839401822, -1652.1738949029323, -2023.1234458832082, -6670.051118141547, -4416.704704368675, -3310.4051125532524, -4627.43695109331, -3430.5680907449832, -9937.54088134061, -14179.365537090962, 0.01, -0.11, 0.99, 192.0, 0.0, 0.0, 0.0, 0.0, 0.0, 0.0, 0.0, 0.0, 0.0, 1.645921076373068E9, 0.0, 2022-02-27 11:17:56.373
8.0, -2279.050919896474, -5481.22888579713, -2362.7134993926884, -10946.49862605317, -1007.4601778340552, 281.3637592034053, -5771.756860227211, -2031.3712395872165, -4983.522592010808, -7548.720544424123, -4311.405636239724, -3509.7156178612254, -4408.255744964569, -3413.9830963591453, -10400.57961947675, -15431.890241133004, 0.008, -0.106, 0.99, 192.0, 0.0, 32.0, 126.0, 88.0, 15.0, 120.0, 0.0, 0.0, 0.0, 1.645921076388118E9, 0.0, 2022-02-27 11:17:56.388
10.0, -2537.079457888539, -5669.050594455075, -2463.3857564193913, -11064.694650732834, -1208.6258779318189, 161.80427811196782, -5666.88247524291, -1889.0129791513657, -2608.4038744454238, -7186.197601103498, -4629.135683671914, -3436.1113233698993, -4817.739703385795, -3656.5218754436823, -10130.771712156738, -14683.307967580316, 0.008, -0.106, 0.99, 192.0, 0.0, 0.0, 0.0, 0.0, 0.0, 0.0, 0.0, 0.0, 0.0, 1.645921076395307E9, 0.0, 2022-02-27 11:17:56.395
12.0, -1903.6310200251366, -5190.0750625223, -2062.7307370580124, -10618.017389537978, -643.484371123835, 571.2211812998273, -5505.100548875398, -1706.175709506954, -3323.235013870599, -6891.445146971363, -4237.756638259487, -3354.706270063671, -4394.397663402279, -3302.8949264162693, -10093.645464616475, -14611.625923112146, 0.008, -0.106, 0.99, 192.0, 0.0, 0.0, 0.0, 0.0, 0.0, 0.0, 0.0, 0.0, 0.0, 1.645921076402732E9, 0.0, 2022-02-27 11:17:56.402
14.0, -2702.9741052358277, -5791.806375003622, -2630.3085840116246, -11233.964411492874, -1375.0122636571245, 20.675363621159033, -5868.808134652154, -2131.4399995136264, -4651.710945571774, -7804.2456870371925, -4579.291293536579, -3584.9962931867, -4686.087928544036, -3662.9591778468107, -10455.721373047993, -15550.13096930158, 0.008, -0.106, 0.99, 192.0, 0.0, 0.0, 0.0, 0.0, 0.0, 0.0, 0.0, 0.0, 0.0, 1.645921076410786E9, 0.0, 2022-02-27 11:17:56.410
16.0, -2114.7879498944226, -5348.817151643891, -2179.5856570703577, -10742.047219520477, -828.5568152137776, 463.396366047426, -5511.1802233672415, -1646.0942204110886, -2001.7551781839345, -6673.672100743306, -4411.988486288606, -3307.208813096144, -4612.908317197361, -3414.8101109039917, -9941.519491853654, -14176.035127167122, 0.008, -0.106, 0.99, 192.0, 0.0, 0.0, 0.0, 0.0, 0.0, 0.0, 0.0, 0.0, 0.0, 1.645921076420156E9, 0.0, 2022-02-27 11:17:56.420
18.0, -2267.048033123974, -5470.432993225217, -2350.3082812199928, -10939.524881783114, -1003.5262708099212, 292.9643145757097, -5741.2243773012615, -2013.132216111686, -4953.8394753741595, -7539.466922219625, -4293.770109864487, -3507.145167248865, -4389.435576133201, -3398.2698200070645, -10398.746776431415, -15424.357703251566, 0.014, -0.106, 0.986, 192.0, 0.0, 56.0, 126.0, 88.0, 15.0, 104.0, 0.0, 0.0, 0.0, 1.645921076425988E9, 0.0, 2022-02-27 11:17:56.425
20.0, -2535.73835322122, -5662.613292051947, -2463.8998465418636, -11068.650909501423, -1210.0340378325031, 173.29307476199565, -5686.328492919028, -1876.6301127231256, -2635.449485236345, -7196.7699762308575, -4630.566195317054, -3431.417457034285, -4809.514261426242, -3644.697802626825, -10134.81737790315, -14692.695700251545, 0.014, -0.106, 0.986, 192.0, 0.0, 0.0, 0.0, 0.0, 0.0, 0.0, 0.0, 0.0, 0.0, 1.645921076433222E9, 0.0, 2022-02-27 11:17:56.433
22.0, -1884.7214442159468, -5184.241257219464, -2051.130181685708, -10617.905630815701, -635.5271500977457, 569.7012626768665, -5476.8926473728, -1707.4497589409066, -3281.3031412724426, -6867.2382077262655, -4228.011277676974, -3348.246615916087, -4386.865125520841, -3286.5558012194397, -10086.023519757215, -14597.924303761043, 0.014, -0.106, 0.986, 192.0, 0.0, 0.0, 0.0, 0.0, 0.0, 0.0, 0.0, 0.0, 0.0, 1.645921076439764E9, 0.0, 2022-02-27 11:17:56.439
24.0, -2679.348311346568, -5783.692691766345, -2612.4718919362895, -11236.199585938404, -1371.547743266552, 22.1505787552093, -5866.6623671844445, -2127.8413686563217, -4649.743992059707, -7802.658713180866, -4557.498342692655, -3578.670749505848, -4662.2833206991345, -3648.497599184227, -10451.429838112574, -15559.943385117458, 0.014, -0.106, 0.986, 192.0, 0.0, 0.0, 0.0, 0.0, 0.0, 0.0, 0.0, 0.0, 0.0, 1.645921076447855E9, 0.0, 2022-02-27 11:17:56.447
26.0, -2105.4449207121042, -5340.412895728695, -2174.1094796788075, -10740.393190430785, -835.7987804172969, 460.8259154350657, -5490.102528345887, -1653.3808891035187, -1980.901000607133, -6655.03074586758, -4403.092491995393, -3296.2117548241326, -4611.991895674693, -3417.224099305165, -9937.496177851699, -14177.666804512359, 0.014, -0.106, 0.986, 192.0, 0.0, 0.0, 0.0, 0.0, 0.0, 0.0, 0.0, 0.0, 0.0, 1.645921076455754E9, 0.0, 2022-02-27 11:17:56.455
28.0, -2234.7050588971447, -5448.0812487699095, -2337.1878072247277, -10928.684285722291, -990.33874158129, 304.87779437038836, -5768.4040985589145, -2009.5335852543815, -4935.30987922071, -7510.387302683271, -4286.148165005227, -3489.800213551547, -4376.873895749319, -3385.328159967442, -10391.594218205717, -15411.036063556203, 0.016, -0.10400000000000001, 0.988, 192.0, 0.0, 64.0, 126.0, 96.0, 15.0, 112.0, 0.0, 0.0, 0.0, 1.64592107646292E9, 0.0, 2022-02-27 11:17:56.462
30.0, -2509.8550331419747, -5645.827131966011, -2458.7365935726875, -11068.874426945977, -1218.0583140919584, 170.2532375160739, -5702.064121015564, -1881.0781098697319, -2634.9130433694177, -7185.6164557476595, -4616.372837587934, -3423.3708290303744, -4797.690188609385, -3647.156494516909, -10144.853311163582, -14708.967770215007, 0.016, -0.10400000000000001, 0.988, 192.0, 0.0, 0.0, 0.0, 0.0, 0.0, 0.0, 0.0, 0.0, 0.0, 1.645921076470527E9, 0.0, 2022-02-27 11:17:56.470
32.0, -1862.682624183014, -5159.609634829716, -2033.8746349662108, -10612.362398190786, -648.4017549040026, 569.0754138321178, -5504.653513986292, -1701.817119338169, -3234.655050594217, -6840.63963182445, -4206.978286144529, -3337.204854155166, -4378.997311472573, -3295.0494641124565, -10088.213990713833, -14590.369414135148, 0.016, -0.10400000000000001, 0.988, 192.0, 0.0, 0.0, 0.0, 0.0, 0.0, 0.0, 0.0, 0.0, 0.0, 1.645921076478424E9, 0.0, 2022-02-27 11:17:56.478
34.0, -2666.7642792182305, -5763.28554907865, -2606.3698656999904, -11226.297763144705, -1387.2163161297221, 16.473235663561304, -5890.511678518257, -2142.9734996525644, -4658.841152053017, -7784.419689705335, -4540.71218260672, -3560.856409174968, -4661.880989298938, -3647.6258811504704, -10465.220864441499, -15566.783018920783, 0.016, -0.10400000000000001, 0.988, 192.0, 0.0, 0.0, 0.0, 0.0, 0.0, 0.0, 0.0, 0.0, 0.0, 1.645921076486495E9, 0.0, 2022-02-27 11:17:56.486
36.0, -2105.1990515230955, -5338.289480005441, -2164.766450496489, -10745.355277699862, -851.5344085138331, 441.1116768254849, -5509.9508774221995, -1666.8813427545242, -1963.0196050428874, -6662.585635493474, -4404.433596662712, -3286.287580285976, -4621.7819597461175, -3432.512692512595, -9944.425218632845, -14178.80674347958, 0.015, -0.10500000000000001, 0.987, 192.0, 0.0, 56.0, 126.0, 88.0, 15.0, 104.0, 0.0, 0.0, 0.0, 1.645921076495071E9, 0.0, 2022-02-27 11:17:56.495
38.0, -2218.2988784669496, -5431.1162747283315, -2325.5425483635127, -10921.35291354095, -984.1026048782594, 294.372474476394, -5760.715098466289, -2014.450969034549, -4906.185556195445, -7510.119081749807, -4276.536914889445, -3486.1792309497873, -4378.796145772475, -3383.361206455375, -10393.829392651247, -15402.05066228517, 0.015, -0.10500000000000001, 0.987, 192.0, 0.0, 0.0, 0.0, 0.0, 0.0, 0.0, 0.0, 0.0, 0.0, 1.645921076508087E9, 0.0, 2022-02-27 11:17:56.508
40.0, -2515.3535622779805, -5642.809646464544, -2462.1564104743493, -11066.371031566981, -1236.2526340785782, 153.69059487469136, -5710.043693786108, -1905.3074008592846, -2672.262808354236, -7197.664046009069, -4620.3737998454335, -3411.457349235696, -4805.781520102206, -3648.8105236066012, -10153.369325801055, -14723.921087255609, 0.015, -0.10500000000000001, 0.987, 192.0, 0.0, 0.0, 0.0, 0.0, 0.0, 0.0, 0.0, 0.0, 0.0, 1.645921076516E9, 0.0, 2022-02-27 11:17:56.516
42.0, -1851.0150135773438, -5151.87593124818, -2034.2769663664064, -10601.253581196497, -658.191818975427, 568.7401376652882, -5525.015953185076, -1703.7393693613255, -3197.2829338649435, -6830.849567753025, -4213.437940292113, -3317.557670778951, -4391.469584878634, -3287.1369465752778, -10090.180944225902, -14571.236320881406, 0.015, -0.10500000000000001, 0.987, 192.0, 0.0, 0.0, 0.0, 0.0, 0.0, 0.0, 0.0, 0.0, 0.0, 1.645921076522736E9, 0.0, 2022-02-27 11:17:56.522
44.0, -2650.9168923994175, -5754.836589674544, -2602.972400542784, -11227.482405600835, -1389.6079527864401, 15.355648440795951, -5914.293934618704, -2163.2018283846173, -4691.45234721331, -7791.2146200197485, -4530.832711557474, -3554.2626445606525, -4655.644852595908, -3649.2799102401627, -10481.828210571792, -15577.489504514875, 0.015, -0.10500000000000001, 0.987, 192.0, 0.0, 0.0, 0.0, 0.0, 0.0, 0.0, 0.0, 0.0, 0.0, 1.645921076530762E9, 0.0, 2022-02-27 11:17:56.530
46.0, -2102.673304399646, -5332.969764825078, -2168.09686042033, -10750.607937646859, -868.7228999999643, 429.1311417974403, -5552.0392122315425, -1691.244744210809, -1951.262587459396, -6660.283405814577, -4396.074044236427, -3285.46056574113, -4621.893718468395, -3438.2570908376088, -9959.937329284827, -14186.451040083295, 0.014499999999999999, -0.10450000000000001, 0.9875, 192.0, 0.0, 56.0, 126.0, 96.0, 15.0, 112.0, 0.0, 0.0, 0.0, 1.645921076538677E9, 0.0, 2022-02-27 11:17:56.538
48.0, -2207.3018201949385, -5425.528338614505, -2313.5396615910126, -10921.151747840851, -983.4767560335108, 291.53380293057, -5760.223360088273, -2028.8454924637667, -4887.655960041995, -7484.034595970464, -4273.564132876889, -3476.92560874529, -4375.91277073774, -3395.095872294411, -10399.43968050953, -15393.311130203145, 0.014499999999999999, -0.10450000000000001, 0.9875, 192.0, 0.0, 0.0, 0.0, 0.0, 0.0, 0.0, 0.0, 0.0, 0.0, 1.645921076545352E9, 0.0, 2022-02-27 11:17:56.545
50.0, -2530.619803740955, -5658.724088516723, -2461.0388232515843, -11084.811220742611, -1238.8230846909387, 139.8772168013116, -5705.46158617277, -1902.2452118689075, -2700.6942273013865, -7211.231554893441, -4625.067666181048, -3423.214366819187, -4803.434586934399, -3667.4965819712384, -10159.91838692646, -14745.691686355078, 0.014499999999999999, -0.10450000000000001, 0.9875, 192.0, 0.0, 0.0, 0.0, 0.0, 0.0, 0.0, 0.0, 0.0, 0.0, 1.645921076553568E9, 0.0, 2022-02-27 11:17:56.553
52.0, -1862.324996271729, -5163.185913942566, -2038.2332251349958, -10607.512069643983, -654.6825950959438, 569.164820809939, -5538.337592880439, -1689.6130668655715, -3184.140108125223, -6843.299489414631, -4227.921870699152, -3323.0561999149563, -4393.905925024263, -3307.9464206631687, -10087.789307569183, -14563.480265555414, 0.014499999999999999, -0.10450000000000001, 0.9875, 192.0, 0.0, 0.0, 0.0, 0.0, 0.0, 0.0, 0.0, 0.0, 0.0, 1.645921076560352E9, 0.0, 2022-02-27 11:17:56.560
54.0, -2653.3085290561353, -5754.925996652365, -2602.860641820507, -11226.40952186698, -1386.8810399628926, 14.573337384860205, -5886.667178471945, -2151.444810801126, -4725.248184829734, -7797.517811956145, -4535.70539184873, -3548.540597980094, -4650.30278567109, -3644.943671815833, -10484.935103051079, -15582.764516206327, 0.014499999999999999, -0.10450000000000001, 0.9875, 192.0, 0.0, 0.0, 0.0, 0.0, 0.0, 0.0, 0.0, 0.0, 0.0, 1.645921076568424E9, 0.0, 2022-02-27 11:17:56.568
56.0, -2100.9075165876766, -5333.081523547355, -2165.705223763612, -10751.07732428042, -871.2262953789586, 434.2943947666162, -5527.720514264169, -1698.3525989475966, -1944.7582298229015, -6652.527350488585, -4399.069177993439, -3269.724937644594, -4622.877195224428, -3432.512692512595, -9953.723544326253, -14186.205170894287, 0.01525, -0.10625000000000001, 0.98675, 192.0, 0.0, 64.0, 126.0, 80.0, 15.0, 104.0, 0.0, 0.0, 0.0, 1.645921076575481E9, 0.0, 2022-02-27 11:17:56.575
58.0, -2194.449567133137, -5411.200870418653, -2302.207327152172, -10904.790270899568, -993.1997648715693, 303.9390211032654, -5779.110584153007, -2011.7017044665463, -4864.521904530752, -7462.979252693564, -4258.70022281411, -3460.7429457596477, -4372.269436391525, -3378.801450586492, -10396.422195008063, -15384.23632195429, 0.01525, -0.10625000000000001, 0.98675, 192.0, 0.0, 0.0, 0.0, 0.0, 0.0, 0.0, 0.0, 0.0, 0.0, 1.64592107658307E9, 0.0, 2022-02-27 11:17:56.583
60.0, -2521.9473268922957, -5643.010812164643, -2454.020375492618, -11082.643101530446, -1260.034890179025, 137.3291179334066, -5756.289453064139, -1932.040087227832, -2721.637811856009, -7204.526031556849, -4615.188195131802, -3418.520500483573, -4806.697941624873, -3668.591817449548, -10179.006776691293, -14765.808256364853, 0.01525, -0.10625000000000001, 0.98675, 192.0, 0.0, 0.0, 0.0, 0.0, 0.0, 0.0, 0.0, 0.0, 0.0, 1.645921076590988E9, 0.0, 2022-02-27 11:17:56.590
62.0, -1857.3852607471063, -5153.552312082328, -2018.8766144366998, -10611.535383645938, -656.001348018807, 556.5360851926905, -5497.299790060496, -1682.6169708510604, -3144.711630906061, -6790.974055644758, -4219.003524661484, -3320.642211513783, -4395.895230280785, -3298.0222461250123, -10082.42488889991, -14557.69116374149, 0.01525, -0.10625000000000001, 0.98675, 192.0, 0.0, 0.0, 0.0, 0.0, 0.0, 0.0, 0.0, 0.0, 0.0, 1.645921076597951E9, 0.0, 2022-02-27 11:17:56.597
64.0, -2639.651613193943, -5754.434258274348, -2577.2455426747256, -11226.27541140025, -1383.2600573611328, 6.683171592136811, -5896.680759987922, -2164.0288429294637, -4750.41624908641, -7812.2252598077375, -4525.870624288395, -3552.027470115122, -4640.982108233226, -3635.24301472223, -10475.100335490744, -15601.1823536375, 0.01525, -0.10625000000000001, 0.98675, 192.0, 0.0, 0.0, 0.0, 0.0, 0.0, 0.0, 0.0, 0.0, 0.0, 1.645921076605614E9, 0.0, 2022-02-27 11:17:56.605
66.0, -2113.2680312714615, -5348.280709776964, -2155.468124803081, -10761.31442324095, -876.0989756702156, 409.99804854369745, -5537.398819613317, -1679.3536161605855, -1939.9973082539211, -6671.79455420906, -4396.275209936525, -3270.753117889538, -4624.3077068695675, -3442.6603844953042, -9952.20362570329, -14199.750328034203, 0.014624999999999999, -0.108125, 0.988375, 192.0, 0.0, 56.0, 126.0, 72.0, 15.0, 120.0, 0.0, 0.0, 0.0, 1.645921076613522E9, 0.0, 2022-02-27 11:17:56.613
68.0, -2166.778107497467, -5390.547858541949, -2272.7700797045327, -10887.020634057599, -970.1104128492372, 302.307343758028, -5787.7160057683, -1999.6988176940463, -4840.113799585557, -7464.186246894151, -4245.043306951918, -3452.070468910989, -4371.330663124402, -3387.295113479509, -10388.733194915438, -15376.23439743929, 0.014624999999999999, -0.108125, 0.988375, 192.0, 0.0, 0.0, 0.0, 0.0, 0.0, 0.0, 0.0, 0.0, 0.0, 1.645921076621544E9, 0.0, 2022-02-27 11:17:56.621
70.0, -2522.3049548035806, -5643.681364498301, -2451.5169801136235, -11082.352528852527, -1259.9454832012038, 114.82091126691238, -5742.967813368776, -1930.386058138139, -2770.521076979766, -7238.791255806835, -4598.178517601314, -3397.778081629048, -4796.840822320083, -3657.974738833277, -10186.896942484014, -14798.486506758512, 0.014624999999999999, -0.108125, 0.988375, 192.0, 0.0, 0.0, 0.0, 0.0, 0.0, 0.0, 0.0, 0.0, 0.0, 1.645921076635185E9, 0.0, 2022-02-27 11:17:56.635
72.0, -1841.5155221838384, -5134.307460106309, -2003.7444834404569, -10593.698691570604, -636.4882751093239, 560.3135300056374, -5508.028627399043, -1684.4498138963957, -3059.953815931537, -6786.861334664981, -4208.855832678775, -3285.5499727189513, -4391.4472331341785, -3288.1204233313115, -10067.717441048319, -14525.25878253684, 0.014624999999999999, -0.108125, 0.988375, 192.0, 0.0, 0.0, 0.0, 0.0, 0.0, 0.0, 0.0, 0.0, 0.0, 1.645921076643197E9, 0.0, 2022-02-27 11:17:56.643
74.0, -2633.5942904465546, -5740.911452878887, -2569.713004793287, -11219.324018874648, -1369.0443478875575, 8.359552426284841, -5910.427082827936, -2146.415668298682, -4738.145141380446, -7776.1271925124165, -4512.414874126301, -3536.0459728295773, -4625.738218514707, -3621.0049535041994, -10473.111030234222, -15597.449612313463, 0.014624999999999999, -0.108125, 0.988375, 192.0, 0.0, 0.0, 0.0, 0.0, 0.0, 0.0, 0.0, 0.0, 0.0, 1.645921076651105E9, 0.0, 2022-02-27 11:17:56.651
76.0, -2123.0804470873413, -5343.117456807788, -2151.6236247567685, -10762.543769185993, -881.7763187618636, 419.6987056373007, -5560.845799546933, -1678.5936568491052, -1919.6125173106811, -6658.159990091323, -4402.556050128466, -3269.3002544999426, -4626.498177826188, -3426.388314531841, -9949.119084968459, -14192.463659341773, 0.014312499999999999, -0.1090625, 0.9901875, 192.0, 0.0, 56.0, 126.0, 72.0, 15.5, 0.0, 0.0, 0.0, 0.0, 1.645921076657796E9, 0.0, 2022-02-27 11:17:56.657
78.0, -2187.118194951796, -5417.258193166041, -2268.1656203467396, -10895.089613805963, -975.698348963064, 298.66400941181297, -5787.179563901373, -2024.0175156614205, -4828.222671535334, -7459.447677069626, -4255.41451637918, -3461.3240911154858, -4377.589151571889, -3368.8772760483357, -10382.228837278943, -15370.579406092098, 0.014312499999999999, -0.1090625, 0.9901875, 192.0, 0.0, 0.0, 0.0, 0.0, 0.0, 0.0, 0.0, 0.0, 0.0, 1.645921076665887E9, 0.0, 2022-02-27 11:17:56.665
80.0, -2561.420507600368, -5694.1516034783845, -2452.1651807028275, -11101.262104661717, -1276.6198845648628, 106.52841407399346, -5728.349772495005, -1917.2432323984185, -2779.7746991842628, -7259.399564194628, -4620.239689378702, -3421.0238958625673, -4816.66681965194, -3671.050509339632, -10182.851276737605, -14801.92867540463, 0.014312499999999999, -0.1090625, 0.9901875, 192.0, 0.0, 0.0, 0.0, 0.0, 0.0, 0.0, 0.0, 0.0, 0.0, 1.645921076673848E9, 0.0, 2022-02-27 11:17:56.673
82.0, -1882.4862697704161, -5179.413280417119, -2008.773625942901, -10608.942581289122, -665.9702260458739, 548.8694368445202, -5533.353153866906, -1694.530450645739, -3116.6378398701954, -6828.301468885121, -4236.706106270088, -3320.530452791507, -4420.079817781427, -3308.8851939302917, -10073.99828124026, -14541.083817611197, 0.014312499999999999, -0.1090625, 0.9901875, 192.0, 0.0, 0.0, 0.0, 0.0, 0.0, 0.0, 0.0, 0.0, 0.0, 1.645921076680455E9, 0.0, 2022-02-27 11:17:56.680
84.0, -2671.1228693870153, -5773.835572461555, -2569.645949559921, -11232.46684461437, -1383.8412027169709, -2.413988401173163, -5923.145225423005, -2156.965691681587, -4785.575543114608, -7809.610105706466, -4532.598499369443, -3563.51626676515, -4643.798428034595, -3640.5850816470484, -10483.348129194752, -15611.419452598031, 0.014312499999999999, -0.1090625, 0.9901875, 192.0, 0.0, 0.0, 0.0, 0.0, 0.0, 0.0, 0.0, 0.0, 0.0, 1.645921076687539E9, 0.0, 2022-02-27 11:17:56.687
86.0, -2159.089107404841, -5374.141678111753, -2159.960825438598, -10776.267740281552, -891.6110863221987, 397.1010919929853, -5540.058677203498, -1681.0299969947337, -1932.777694794857, -6689.295970117566, -4422.560861415966, -3288.947437876158, -4643.127875700936, -3441.006355405612, -9946.883910522927, -14197.537505333126, 0.01315625, -0.10753125, 0.99009375, 192.0, 0.0, 48.0, 126.0, 88.0, 15.0, 120.0, 0.0, 0.0, 0.0, 1.645921076695425E9, 0.0, 2022-02-27 11:17:56.695
88.0, -2196.6400380897567, -5402.528393569994, -2264.768155189533, -10888.87582884739, -961.728508678497, 305.6601054263241, -5789.14651741344, -2001.576364228292, -4815.459825451354, -7468.835409740855, -4262.187094949138, -3472.052928454033, -4378.639683561288, -3373.5711423839502, -10374.539837186318, -15361.795170521162, 0.01315625, -0.10753125, 0.99009375, 192.0, 0.0, 0.0, 0.0, 0.0, 0.0, 0.0, 0.0, 0.0, 0.0, 1.645921076703432E9, 0.0, 2022-02-27 11:17:56.703
90.0, -2581.671188076876, -5692.050539499586, -2460.6811953402994, -11096.188258670361, -1273.0883089409244, 106.50606232953815, -5741.425543001359, -1948.4686194024825, -2814.241089134346, -7278.309140003817, -4627.325192371034, -3432.87032042388, -4818.767883630739, -3673.978587863277, -10186.584018061641, -14814.937390677618, 0.01315625, -0.10753125, 0.99009375, 192.0, 0.0, 0.0, 0.0, 0.0, 0.0, 0.0, 0.0, 0.0, 0.0, 1.645921076710102E9, 0.0, 2022-02-27 11:17:56.710
92.0, -1900.0100374233768, -5190.991484044967, -2014.7191899680126, -10605.209839965086, -661.8351533216421, 553.1833235243945, -5524.747732251612, -1690.8200610661581, -3078.528115573897, -6827.474454340274, -4240.528254571946, -3317.960002179146, -4417.442311935701, -3300.4362345261857, -10065.258749158234, -14529.863241894633, 0.01315625, -0.10753125, 0.99009375, 192.0, 0.0, 0.0, 0.0, 0.0, 0.0, 0.0, 0.0, 0.0, 0.0, 1.645921076718794E9, 0.0, 2022-02-27 11:17:56.718
94.0, -2687.0596631836493, -5780.898723709432, -2576.172658940871, -11228.287068401227, -1377.7168247362167, 4.895032035712247, -5917.713751520366, -2156.5186567924807, -4833.296517526689, -7838.153283375894, -4536.554758138032, -3569.1042028789766, -4640.400962877388, -3625.2964884396183, -10481.202361727042, -15621.23186841391, 0.01315625, -0.10753125, 0.99009375, 192.0, 0.0, 0.0, 0.0, 0.0, 0.0, 0.0, 0.0, 0.0, 0.0, 1.645921076726134E9, 0.0, 2022-02-27 11:17:56.726
96.0, -2195.500099122536, -5423.673143824714, -2169.415613343193, -10784.001443863088, -894.8967927571289, 397.4140164153596, -5548.328822651962, -1689.590715121116, -1955.7552880949127, -6718.107368720457, -4438.765876146063, -3305.331266561898, -4649.63223333743, -3446.1025531414216, -9945.63221283343, -14208.445156627316, 0.012578124999999999, -0.107765625, 0.988046875, 192.0, 0.0, 48.0, 126.0, 80.0, 15.0, 104.0, 0.0, 0.0, 0.0, 1.645921076733219E9, 0.0, 2022-02-27 11:17:56.733
98.0, -2236.53790194248, -5455.658490140258, -2263.0247191220187, -10890.239285259162, -954.8441713862624, 315.5172247311145, -5772.80739221661, -1994.6249717026917, -4822.925308099426, -7483.229933170072, -4275.374624177769, -3486.7603763056254, -4374.4822590926005, -3378.220305230654, -10364.727421370439, -15355.201405906846, 0.012578124999999999, -0.107765625, 0.988046875, 192.0, 0.0, 0.0, 0.0, 0.0, 0.0, 0.0, 0.0, 0.0, 0.0, 1.645921076740869E9, 0.0, 2022-02-27 11:17:56.740
100.0, -2666.0490233956607, -5778.171810885884, -2474.8074978360532, -11115.187241457372, -1285.0911957134242, 116.4525886121498, -5758.61403448749, -1924.8875290021335, -2883.4644417124323, -7327.080646405298, -4654.907245028883, -3461.279387626575, -4825.093427311591, -3678.8065646656237, -10192.820154764671, -14832.528213563946, 0.012578124999999999, -0.107765625, 0.988046875, 192.0, 0.0, 0.0, 0.0, 0.0, 0.0, 0.0, 0.0, 0.0, 0.0, 1.645921076755821E9, 0.0, 2022-02-27 11:17:56.755
102.0, -2009.7347509544793, -5300.71619757607, -2026.0738761513087, -10615.692808114625, -657.6330253640444, 562.5040009622576, -5515.561165280481, -1683.0416539957112, -3098.443519883576, -6858.945710533347, -4275.329920688859, -3349.5653688389507, -4430.383971975323, -3307.0299991405013, -10065.594025325063, -14519.089701067174, 0.012578124999999999, -0.107765625, 0.988046875, 192.0, 0.0, 0.0, 0.0, 0.0, 0.0, 0.0, 0.0, 0.0, 0.0, 1.645921076762957E9, 0.0, 2022-02-27 11:17:56.762
104.0, -2827.093342196148, -5932.264737160771, -2589.7625195696974, -11234.523205104257, -1365.1551443523342, 18.12726475325403, -5910.248268872294, -2169.6614825322013, -4903.905678261003, -7882.387385652946, -4571.3564242549455, -3612.4218836333616, -4639.864521010461, -3634.86303506649, -10484.242198972965, -15633.011237741857, 0.012578124999999999, -0.107765625, 0.988046875, 192.0, 0.0, 0.0, 0.0, 0.0, 0.0, 0.0, 0.0, 0.0, 0.0, 1.645921076771668E9, 0.0, 2022-02-27 11:17:56.771
106.0, -2368.6590634178, -5593.702863896235, -2194.471918877592, -10801.122880115852, -897.7801677918635, 400.38679842791544, -5553.29090992104, -1684.0474824962, -2009.2877160653732, -6767.012985588669, -4498.355626863912, -3361.1212207223443, -4660.986919520727, -3465.570922561994, -9949.789637302118, -14212.423767140363, 0.016, -0.11, 0.99, 192.0, 0.0, 64.0, 126.0, 72.0, 15.0, 120.0, 0.0, 0.0, 0.0, 1.645921076778381E9, 0.0, 2022-02-27 11:17:56.778
108.0, -2407.372284814392, -5634.695963227268, -2280.369672819337, -10893.592046927459, -941.4331247130782, 329.50941676013673, -5744.957118625298, -1969.5910179127477, -4862.018509151758, -7519.7750353545, -4337.937156908173, -3540.1810455538093, -4382.238314418592, -3375.8286685739363, -10362.916930069558, -15339.197556876847, 0.016, -0.11, 0.99, 192.0, 0.0, 0.0, 0.0, 0.0, 0.0, 0.0, 0.0, 0.0, 0.0, 1.645921076785479E9, 0.0, 2022-02-27 11:17:56.785
110.0, -2827.2945078962457, -5944.044106488718, -2497.7403876471985, -11127.480700907792, -1281.2466956671115, 102.03571343847675, -5729.869691117966, -1935.2363866849407, -2982.952056283004, -7389.754937857979, -4716.262783558701, -3529.631022170904, -4830.927232614426, -3697.8949544304555, -10196.485840855341, -14853.98588824104, 0.016, -0.11, 0.99, 192.0, 0.0, 0.0, 0.0, 0.0, 0.0, 0.0, 0.0, 0.0, 0.0, 1.645921076793176E9, 0.0, 2022-02-27 11:17:56.793
112.0, -2120.7111621750787, -5395.487594066572, -2036.6238995342137, -10619.403197694206, -659.3094061981924, 560.5593991946458, -5524.837139229434, -1690.9094680439794, -3110.334647933799, -6878.615245654017, -4317.239441542559, -3393.218325760165, -4433.2449952656025, -3307.3429235628755, -10064.61054856903, -14510.68544515198, 0.016, -0.11, 0.99, 192.0, 0.0, 0.0, 0.0, 0.0, 0.0, 0.0, 0.0, 0.0, 0.0, 1.645921076801104E9, 0.0, 2022-02-27 11:17:56.801
114.0, -2883.822069623717, -5983.025548818773, -2596.1104149950047, -11229.672876557455, -1366.4291937862868, 23.67049737817018, -5895.339655320604, -2129.651859957202, -4960.634405688573, -7888.7129293337985, -4590.266000064135, -3635.153607744409, -4640.713887299763, -3646.6200526499815, -10495.596885156261, -15637.392179655097, 0.016, -0.11, 0.99, 192.0, 0.0, 0.0, 0.0, 0.0, 0.0, 0.0, 0.0, 0.0, 0.0, 1.645921076808049E9, 0.0, 2022-02-27 11:17:56.808
116.0, -2387.4121770158026, -5600.654256421835, -2205.4689771496032, -10802.240467338619, -902.5634411052991, 406.6229351309461, -5512.9460111792105, -1664.7355752868148, -2021.5588237713366, -6769.985767601224, -4508.525670591077, -3352.716964807149, -4667.6253876239525, -3467.157896418321, -9950.080209980037, -14208.847488027513, 0.01, -0.10200000000000001, 0.988, 192.0, 0.0, 40.0, 126.0, 104.0, 15.0, 112.0, 0.0, 0.0, 0.0, 1.645921076815167E9, 0.0, 2022-02-27 11:17:56.815
118.0, -2354.5104091775906, -5588.651369649336, -2270.043166880985, -10877.67760487528, -912.8228918102851, 357.627911284913, -5720.191385768818, -1949.9214827920775, -4841.231386808323, -7501.357197923327, -4332.259813816526, -3529.2063390262533, -4390.843736033886, -3379.7178721091595, -10356.233758477421, -15321.785547946161, 0.01, -0.10200000000000001, 0.988, 192.0, 0.0, 0.0, 0.0, 0.0, 0.0, 0.0, 0.0, 0.0, 0.0, 1.645921076822642E9, 0.0, 2022-02-27 11:17:56.822
120.0, -2763.8826088765395, -5875.021919610729, -2503.238916783204, -11142.322259226115, -1277.1786781762455, 113.39039962177273, -5734.496502220214, -1938.3209274197732, -3045.5592925023193, -7408.709217156079, -4700.750672906718, -3515.1470917638653, -4822.657087165962, -3685.556791491126, -10206.924105515971, -14889.99454855854, 0.01, -0.10200000000000001, 0.988, 192.0, 0.0, 0.0, 0.0, 0.0, 0.0, 0.0, 0.0, 0.0, 0.0, 1.645921076831229E9, 0.0, 2022-02-27 11:17:56.831
122.0, -2039.4625710800376, -5327.359476966796, -2035.5286640559036, -10620.230212239054, -651.9556822723964, 571.6011609555675, -5521.327915349951, -1659.5276188287282, -3012.0093240749034, -6848.485094128263, -4299.738025634054, -3377.840325574914, -4432.149759787293, -3313.1320253768, -10041.007106424226, -14476.666090091001, 0.01, -0.10200000000000001, 0.988, 192.0, 0.0, 0.0, 0.0, 0.0, 0.0, 0.0, 0.0, 0.0, 0.0, 1.645921076838694E9, 0.0, 2022-02-27 11:17:56.838
124.0, -2786.8825539210507, -5888.723538961833, -2583.7051968223095, -11220.307495630681, -1350.1124203339125, 30.59953815931537, -5908.7507019937875, -2144.649880486713, -4927.464416916897, -7866.137667433938, -4556.358403725434, -3607.8844795089344, -4626.229956892724, -3623.150720971909, -10492.400585699152, -15626.484528360908, 0.01, -0.10200000000000001, 0.988, 192.0, 0.0, 0.0, 0.0, 0.0, 0.0, 0.0, 0.0, 0.0, 0.0, 1.64592107684575E9, 0.0, 2022-02-27 11:17:56.845
126.0, -2301.380312607326, -5509.526194277549, -2192.5273171099802, -10792.875086411845, -893.667446812087, 395.6929320923009, -5531.989697455132, -1696.9891425358228, -1975.0224918153874, -6734.33473519501, -4480.675396999764, -3325.358429593853, -4656.918902029861, -3456.250245124131, -9945.654564577886, -14202.991330980221, 0.012, -0.106, 0.984, 192.0, 0.0, 48.0, 126.0, 88.0, 15.0, 96.0, 0.0, 0.0, 0.0, 1.64592107685339E9, 0.0, 2022-02-27 11:17:56.853
128.0, -2268.2997308134713, -5491.644798713302, -2258.8002394199657, -10865.272386702585, -904.5527463618215, 349.2907106030835, -5715.721036877756, -1973.6366836591583, -4771.449240618854, -7450.328165331861, -4291.646694141233, -3483.5417251040612, -4363.596959542866, -3367.8267440589366, -10346.488397894907, -15312.397815274933, 0.012, -0.106, 0.984, 192.0, 0.0, 0.0, 0.0, 0.0, 0.0, 0.0, 0.0, 0.0, 0.0, 1.64592107686129E9, 0.0, 2022-02-27 11:17:56.861
130.0, -2694.7933667651855, -5801.842308264054, -2495.415806223846, -11126.161947984929, -1273.0436054520137, 103.4662250836164, -5740.062086589585, -1914.9186509750666, -2986.148355740113, -7372.186466716107, -4676.16375400588, -3484.5475536045496, -4819.729008642317, -3682.047567611643, -10204.107785714601, -14874.460086162102, 0.012, -0.106, 0.984, 192.0, 0.0, 0.0, 0.0, 0.0, 0.0, 0.0, 0.0, 0.0, 0.0, 1.645921076868306E9, 0.0, 2022-02-27 11:17:56.868
132.0, -1971.1109365357086, -5253.822237708836, -2023.4587220500377, -10607.28855219943, -641.584472845134, 562.1687247954279, -5518.042208915021, -1668.4459648663958, -2993.7032453660067, -6829.530814830162, -4272.200676465115, -3348.872464760836, -4423.678448638731, -3307.7899584519814, -10051.646536784952, -14480.264720948306, 0.012, -0.106, 0.984, 192.0, 0.0, 0.0, 0.0, 0.0, 0.0, 0.0, 0.0, 0.0, 0.0, 1.64592107688294E9, 0.0, 2022-02-27 11:17:56.882
134.0, -2726.8234165696404, -5833.045343523663, -2577.8266880305637, -11226.387170122525, -1346.4467342432422, 8.225441959552999, -5907.901335704486, -2144.694583975623, -4934.438161186953, -7855.78880975113, -4535.973612782194, -3600.6872177943255, -4612.014247419149, -3613.919450511867, -10489.628969386695, -15641.549604123784, 0.012, -0.106, 0.984, 192.0, 0.0, 0.0, 0.0, 0.0, 0.0, 0.0, 0.0, 0.0, 0.0, 1.645921076890882E9, 0.0, 2022-02-27 11:17:56.890
136.0, -2269.707890714156, -5482.4805834866265, -2208.240593462061, -10813.751615733101, -911.1912144650477, 363.305254376561, -5531.944993966222, -1686.95320927539, -1958.0798695182646, -6750.875026091937, -4480.004844666105, -3337.7189442776375, -4660.070497998059, -3481.731233803181, -9949.834340791029, -14223.845508557024, 0.014, -0.106, 0.99, 192.0, 0.0, 56.0, 126.0, 88.0, 15.0, 120.0, 0.0, 0.0, 0.0, 1.645921076897481E9, 0.0, 2022-02-27 11:17:56.897
138.0, -2220.7575703570333, -5452.4845424276045, -2252.787620161488, -10862.85839830141, -904.0833597282601, 330.96228014973167, -5716.592754911513, -1958.9739392964768, -4743.4648565608095, -7454.329127589361, -4289.836202840353, -3495.9692950212116, -4363.596959542866, -3382.5341919105285, -10343.068580993246, -15303.859448893005, 0.014, -0.106, 0.99, 192.0, 0.0, 0.0, 0.0, 0.0, 0.0, 0.0, 0.0, 0.0, 0.0, 1.645921076905622E9, 0.0, 2022-02-27 11:17:56.905
140.0, -2655.9236831574062, -5772.04743290513, -2494.4770329567236, -11134.968535300319, -1283.9959602351141, 85.56247777491544, -5759.619862987979, -1967.19938125603, -3023.587527702752, -7389.50906866897, -4668.586512635531, -3485.732196060681, -4809.3801509595105, -3680.795869922146, -10211.528564873763, -14904.746699899042, 0.014, -0.106, 0.99, 192.0, 0.0, 0.0, 0.0, 0.0, 0.0, 0.0, 0.0, 0.0, 0.0, 1.645921076913597E9, 0.0, 2022-02-27 11:17:56.913
142.0, -1936.8233605412677, -5228.475359496518, -2027.102056396253, -10608.674360355659, -652.0227375057623, 557.7877828821878, -5528.1451974088195, -1665.629645065027, -2938.0921051612027, -6808.028436664157, -4266.500981629012, -3340.2223396566324, -4414.648343878787, -3313.646115499272, -10043.84577797005, -14470.653470832523, 0.014, -0.106, 0.99, 192.0, 0.0, 0.0, 0.0, 0.0, 0.0, 0.0, 0.0, 0.0, 0.0, 1.645921076920682E9, 0.0, 2022-02-27 11:17:56.920
144.0, -2691.2394393967916, -5805.4409391213585, -2581.8052985436084, -11219.212260152372, -1350.6935656897506, 14.863910062779196, -5901.061701901162, -2148.4496770441147, -4947.245710759844, -7854.894739972919, -4524.216595198703, -3591.210078145275, -4602.2912385810905, -3622.8154448050796, -10492.60175139925, -15641.326086679232, 0.014, -0.106, 0.99, 192.0, 0.0, 0.0, 0.0, 0.0, 0.0, 0.0, 0.0, 0.0, 0.0, 1.645921076928077E9, 0.0, 2022-02-27 11:17:56.928
146.0, -2244.8303991353987, -5454.853827339867, -2211.705113852634, -10810.71177848718, -923.2835082153688, 358.6113880409465, -5548.507636607604, -1716.7704363787695, -1946.389907168139, -6748.975127813235, -4466.414984037278, -3326.476016816618, -4657.656509596885, -3480.792460536058, -9952.762419314673, -14225.968924280278, 0.012, -0.108, 0.992, 192.0, 0.0, 48.0, 126.0, 80.0, 15.5, 0.0, 0.0, 0.0, 0.0, 1.645921076935259E9, 0.0, 2022-02-27 11:17:56.935
148.0, -2198.092901479352, -5431.898585784267, -2257.8838178972983, -10860.310299433506, -916.8685575566957, 323.98853587967585, -5731.523720207658, -1967.1099742782087, -4717.469777759287, -7434.927813402154, -4279.2191242240815, -3486.2015826942425, -4362.948758953662, -3374.8004883289923, -10350.265842707855, -15293.175315043369, 0.012, -0.108, 0.992, 192.0, 0.0, 0.0, 0.0, 0.0, 0.0, 0.0, 0.0, 0.0, 0.0, 1.645921076943224E9, 0.0, 2022-02-27 11:17:56.943
150.0, -2658.3376715585796, -5765.967758413286, -2512.2466697986924, -11140.53411966969, -1300.7150650876838, 67.34580604384018, -5755.753011197211, -1960.9632445529992, -3050.3872693046656, -7405.490565954515, -4675.44849818331, -3496.93042003279, -4816.130377785013, -3707.6403150129695, -10222.302105701221, -14921.778729173986, 0.012, -0.108, 0.992, 192.0, 0.0, 0.0, 0.0, 0.0, 0.0, 0.0, 0.0, 0.0, 0.0, 1.645921076950222E9, 0.0, 2022-02-27 11:17:56.950
152.0, -1940.3772879096614, -5232.096342098277, -2038.680260024102, -10616.989209293033, -663.0197957777734, 530.652765113445, -5489.923714390245, -1677.2525521817868, -2939.7684859953506, -6822.44531183783, -4280.202600980116, -3353.119296207344, -4434.54139644401, -3327.4371418281967, -10044.292812859156, -14469.737049309857, 0.012, -0.108, 0.992, 192.0, 0.0, 0.0, 0.0, 0.0, 0.0, 0.0, 0.0, 0.0, 0.0, 1.645921076957838E9, 0.0, 2022-02-27 11:17:56.957
154.0, -2674.5650380331326, -5783.871505721987, -2584.0628247335944, -11216.328885117637, -1358.7848971825717, -0.9164215226675896, -5906.895507203997, -2188.414596130204, -4972.369071527609, -7867.255254656703, -4523.32252542049, -3599.3237613825518, -4598.759662957152, -3622.8377965495347, -10499.441385202574, -15661.95674681148, 0.012, -0.108, 0.992, 192.0, 0.0, 0.0, 0.0, 0.0, 0.0, 0.0, 0.0, 0.0, 0.0, 1.645921076965896E9, 0.0, 2022-02-27 11:17:56.965
156.0, -2241.5670444449242, -5450.182312748709, -2223.6409453917677, -10818.892516957821, -944.6741276590977, 332.9068819173434, -5560.532875124559, -1720.8384538696355, -1941.8301512992564, -6760.083944807523, -4468.35958580489, -3338.836531500403, -4666.798373079107, -3494.2705624426085, -9968.4533439223, -14244.923203578379, 0.014, -0.106, 0.988, 192.0, 0.0, 56.0, 126.0, 88.0, 15.0, 112.0, 0.0, 0.0, 0.0, 1.645921076973872E9, 0.0, 2022-02-27 11:17:56.973
158.0, -2167.672177275679, -5400.673198780203, -2243.1316665567956, -10842.831235269456, -906.7655690628969, 324.6590882133351, -5734.876481875955, -1969.2333900014628, -4675.247332483213, -7411.234964279529, -4264.310510672392, -3492.1024432304434, -4362.009985686539, -3379.740223853615, -10346.689563595006, -15283.094678294025, 0.014, -0.106, 0.988, 192.0, 0.0, 0.0, 0.0, 0.0, 0.0, 0.0, 0.0, 0.0, 0.0, 1.645921076980419E9, 0.0, 2022-02-27 11:17:56.980
160.0, -2654.4708197678115, -5756.647080975424, -2525.7918269386087, -11145.742076127777, -1322.485664187153, 52.705413425614054, -5780.09406090904, -1976.0506720603314, -3109.6864473445953, -7420.868566139766, -4659.578759620043, -3500.6855131012817, -4814.09636903958, -3705.271030100707, -10240.250556498833, -14954.166406889726, 0.014, -0.106, 0.988, 192.0, 0.0, 0.0, 0.0, 0.0, 0.0, 0.0, 0.0, 0.0, 0.0, 1.645921076988494E9, 0.0, 2022-02-27 11:17:56.988
162.0, -1932.6882878170359, -5214.6396296786825, -2047.8221235063224, -10616.229249981554, -665.5008394123125, 523.9695935213082, -5512.275458845551, -1695.0445407682112, -2872.9367700739826, -6793.432747534842, -4275.016996266484, -3343.5527495804727, -4434.988431333117, -3327.414790083741, -10040.60477502403, -14451.363915367594, 0.014, -0.106, 0.988, 192.0, 0.0, 0.0, 0.0, 0.0, 0.0, 0.0, 0.0, 0.0, 0.0, 1.645921077003653E9, 0.0, 2022-02-27 11:17:57.003
164.0, -2668.4630117968336, -5771.645101504934, -2592.735301582253, -11212.484385071324, -1353.2863680465662, -6.549061125404969, -5910.985876439318, -2172.8801337337654, -4990.094004880668, -7856.168789406871, -4519.478025374177, -3607.9068312533896, -4597.1279856119145, -3615.9758110017556, -10495.596885156261, -15662.157912511579, 0.014, -0.106, 0.988, 192.0, 0.0, 0.0, 0.0, 0.0, 0.0, 0.0, 0.0, 0.0, 0.0, 1.645921077010091E9, 0.0, 2022-02-27 11:17:57.010
166.0, -2255.045146351474, -5450.964623804644, -2245.1209718133177, -10823.18405189324, -942.5060084469329, 332.75041970615626, -5562.566883869992, -1729.5109307182945, -1964.2042474990187, -6782.972131129758, -4489.4596325707, -3350.0124037280566, -4680.54469591912, -3497.5339171330834, -9966.039355521127, -14249.460607702806, 0.018000000000000002, -0.108, 0.984, 192.0, 0.0, 72.0, 126.0, 80.0, 15.0, 96.0, 0.0, 0.0, 0.0, 1.645921077018185E9, 0.0, 2022-02-27 11:17:57.018
168.0, -2171.248456388528, -5395.0182074330105, -2257.6155969638344, -10840.551357335014, -901.89288877164, 328.8388644264775, -5734.340040009027, -1969.6357214016584, -4645.0277739796375, -7388.503240168481, -4264.355214161303, -3480.54659134705, -4343.614499999821, -3361.7470695670927, -10339.827578047227, -15258.68657334883, 0.018000000000000002, -0.108, 0.984, 192.0, 0.0, 0.0, 0.0, 0.0, 0.0, 0.0, 0.0, 0.0, 0.0, 1.645921077026222E9, 0.0, 2022-02-27 11:17:57.026
170.0, -2656.5048285132443, -5755.104810608007, -2536.3418503215134, -11148.06665755113, -1318.7305711186614, 36.545102184427044, -5786.196087145339, -2003.520965995904, -3091.7827000358943, -7409.491528212015, -4660.517532887165, -3496.125757232399, -4813.269354494733, -3710.9036697034444, -10236.808387852716, -14949.450188809657, 0.018000000000000002, -0.108, 0.984, 192.0, 0.0, 0.0, 0.0, 0.0, 0.0, 0.0, 0.0, 0.0, 0.0, 1.645921077032756E9, 0.0, 2022-02-27 11:17:57.032
172.0, -1936.555139607804, -5212.7620831444365, -2054.393536376183, -10614.038779024933, -675.223848250371, 517.8005120516434, -5515.04707515801, -1691.0212267662557, -2866.700633370952, -6794.751500457704, -4267.75267931851, -3344.8938542477913, -4433.647326665799, -3330.745200007582, -10044.113998903513, -14454.783732269256, 0.018000000000000002, -0.108, 0.984, 192.0, 0.0, 0.0, 0.0, 0.0, 0.0, 0.0, 0.0, 0.0, 0.0, 1.64592107704077E9, 0.0, 2022-02-27 11:17:57.040
174.0, -2659.7234797148085, -5757.161171097895, -2595.7304353392647, -11209.444547825402, -1351.230007556678, -5.073845991354704, -5920.530071321735, -2184.1677646836956, -4997.358321828642, -7849.93265270384, -4507.564545579498, -3601.983618972733, -4590.266000064135, -3621.139063970931, -10505.699873650059, -15666.67296489155, 0.016, -0.11, 0.989, 192.0, 0.0, 56.0, 126.0, 64.0, 15.5, 8.0, 0.0, 0.0, 0.0, 1.645921077048764E9, 0.0, 2022-02-27 11:17:57.048
176.0, -2259.8060679204546, -5443.45443766766, -2251.602977705357, -10832.683543286746, -963.6060552127428, 322.2003963232513, -5576.782593343568, -1743.3243087916744, -1952.5589886378038, -6772.62327344695, -4485.391615079834, -3346.7714007820373, -4676.767251106173, -3508.3298097049965, -9979.517457427675, -14252.72396239328, 0.016, -0.11, 0.989, 192.0, 0.0, 0.0, 0.0, 0.0, 0.0, 0.0, 0.0, 0.0, 0.0, 1.645921077055908E9, 0.0, 2022-02-27 11:17:57.055
178.0, -2137.0726391163635, -5363.457544262117, -2250.239521293583, -10826.872089728367, -891.8569555112072, 336.77373370811154, -5744.3312697805495, -1976.8329831162673, -4614.204718375769, -7366.93380676911, -4254.878074512252, -3468.8566289969244, -4352.376383826302, -3373.638197617316, -10337.704162323971, -15248.784750555129, 0.016, -0.11, 0.989, 192.0, 0.0, 0.0, 0.0, 0.0, 0.0, 0.0, 0.0, 0.0, 0.0, 1.645921077062239E9, 0.0, 2022-02-27 11:17:57.062
180.0, -2653.2191220783143, -5749.785095427644, -2545.6625277593766, -11154.146332042972, -1333.348611992432, 40.300195252918634, -5800.747072785744, -2008.3712945427055, -3158.659119446173, -7425.763598175478, -4653.208512450279, -3495.410501409829, -4809.246040492778, -3712.4906435597713, -10259.808332897226, -14984.274206671025, 0.016, -0.11, 0.989, 192.0, 0.0, 0.0, 0.0, 0.0, 0.0, 0.0, 0.0, 0.0, 0.0, 1.645921077070625E9, 0.0, 2022-02-27 11:17:57.070
182.0, -1932.353011650206, -5208.381141231196, -2058.3050916558614, -10619.62671513876, -670.0829470256505, 523.299041187649, -5526.088836918931, -1691.0882819996218, -2813.79405424524, -6783.955607885791, -4278.70503410161, -3348.80540952747, -4445.40434424929, -3337.1377989218, -10041.722362246795, -14432.700208747412, 0.016, -0.11, 0.989, 192.0, 0.0, 0.0, 0.0, 0.0, 0.0, 0.0, 0.0, 0.0, 0.0, 1.645921077078374E9, 0.0, 2022-02-27 11:17:57.078
184.0, -2644.9936801187614, -5749.159246582895, -2589.717816080787, -11208.706940258377, -1344.0103940976137, 0.715255822569826, -5930.677763304444, -2193.9131252662096, -4996.5760107727065, -7833.995858907207, -4503.027141455072, -3604.576421329549, -4583.068738349526, -3617.7415988137245, -10505.185783527588, -15665.041287546312, 0.014, -0.109, 0.9915, 192.0, 0.0, 48.0, 126.0, 80.0, 15.5, 8.0, 0.0, 0.0, 0.0, 1.645921077085492E9, 0.0, 2022-02-27 11:17:57.085
186.0, -2235.6885356531784, -5423.159053702242, -2240.0024223330524, -10825.061598427486, -948.4739242164999, 327.9000911593546, -5582.10230852393, -1747.369974538085, -1916.8632527426785, -6737.642793374395, -4465.811486936986, -3324.9560981936575, -4672.274550470656, -3510.319114961519, -9971.940216057326, -14249.617069913993, 0.014, -0.109, 0.9915, 192.0, 0.0, 0.0, 0.0, 0.0, 0.0, 0.0, 0.0, 0.0, 0.0, 1.645921077092989E9, 0.0, 2022-02-27 11:17:57.092
188.0, -2126.477912244548, -5353.354555768318, -2238.437800221181, -10818.914868702277, -878.669426282576, 342.7416494776785, -5742.207854057295, -1981.705663407524, -4592.210601831746, -7353.45570486256, -4246.831446508342, -3460.4076695928184, -4349.71652623612, -3366.7538603250814, -10335.245470433889, -15243.263869674669, 0.014, -0.109, 0.9915, 192.0, 0.0, 0.0, 0.0, 0.0, 0.0, 0.0, 0.0, 0.0, 0.0, 1.645921077102694E9, 0.0, 2022-02-27 11:17:57.102
190.0, -2639.4057440049346, -5732.440141730326, -2529.0775333735387, -11147.597270917568, -1323.6479548988289, 45.86577962229009, -5828.172663232406, -2015.7920737018674, -3147.90793036317, -7417.627563193747, -4638.858692509973, -3478.9819692351784, -4803.680456123407, -3708.713198746824, -10257.439047984964, -14990.599750351877, 0.014, -0.109, 0.9915, 192.0, 0.0, 0.0, 0.0, 0.0, 0.0, 0.0, 0.0, 0.0, 0.0, 1.645921077108972E9, 0.0, 2022-02-27 11:17:57.108
192.0, -1913.9798777079438, -5194.12072826871, -2040.0437164358757, -10606.707406843592, -671.3569964596029, 532.9326430478862, -5544.551377839015, -1688.5848866206275, -2811.8494524776283, -6770.05282283459, -4255.570978590367, -3323.1456068927773, -4431.546262686999, -3328.42061858423, -10040.336554090567, -14438.377551839061, 0.014, -0.109, 0.9915, 192.0, 0.0, 0.0, 0.0, 0.0, 0.0, 0.0, 0.0, 0.0, 0.0, 1.645921077115491E9, 0.0, 2022-02-27 11:17:57.115
194.0, -2635.09185732506, -5748.354583782504, -2577.849039775019, -11197.26284709726, -1347.4078592548203, 6.839633803323961, -5916.529109064235, -2178.0433867029415, -4987.009464145835, -7832.140664117416, -4477.657911498298, -3582.9399326968114, -4573.926874867306, -3603.0565027065877, -10501.74361488147, -15666.941185825013, 0.013000000000000001, -0.1075, 0.99075, 192.0, 0.0, 48.0, 126.0, 88.0, 15.0, 120.0, 0.0, 0.0, 0.0, 1.645921077130538E9, 0.0, 2022-02-27 11:17:57.130
196.0, -2244.53982645748, -5436.659507353247, -2242.505817712047, -10827.766159506578, -959.2027615550472, 328.0342016260864, -5543.09851444942, -1727.8345498841466, -1924.1052179461979, -6757.580549428529, -4468.918379416273, -3334.1203134203333, -4677.884838328939, -3502.7865770800804, -9956.74102982772, -14247.940689079845, 0.013000000000000001, -0.1075, 0.99075, 192.0, 0.0, 0.0, 0.0, 0.0, 0.0, 0.0, 0.0, 0.0, 0.0, 1.645921077137631E9, 0.0, 2022-02-27 11:17:57.137
198.0, -2113.9385836051206, -5344.793837641935, -2227.9324803271866, -10814.623333766858, -882.9386094735396, 346.65320475735723, -5726.204005027295, -1956.001157283921, -4579.827735403506, -7351.108771694752, -4240.349440616303, -3462.7322510161703, -4354.455096060646, -3358.3719561543417, -10325.164833684545, -15237.094788205004, 0.013000000000000001, -0.1075, 0.99075, 192.0, 0.0, 0.0, 0.0, 0.0, 0.0, 0.0, 0.0, 0.0, 0.0, 1.645921077145252E9, 0.0, 2022-02-27 11:17:57.145
200.0, -2633.5272352131888, -5724.840548615522, -2529.7480857071982, -11145.250337749761, -1328.5429869345412, 45.86577962229009, -5787.023101690185, -2005.5773264857921, -3175.0205963874578, -7419.348647516805, -4632.577852318032, -3479.9207425023014, -4792.951618784859, -3718.0115244402323, -10251.337021748664, -15001.39564292379, 0.013000000000000001, -0.1075, 0.99075, 192.0, 0.0, 0.0, 0.0, 0.0, 0.0, 0.0, 0.0, 0.0, 0.0, 1.645921077153245E9, 0.0, 2022-02-27 11:17:57.153
202.0, -1903.2063368804859, -5177.334568182775, -2037.7638385014343, -10599.398386406707, -673.838040094142, 535.5477971491572, -5515.359999580383, -1675.6655783254598, -2747.9458150799055, -6730.3561246819645, -4254.252225667504, -3303.096092116367, -4436.843626122907, -3329.717019762638, -10017.135443345958, -14411.08607185913, 0.013000000000000001, -0.1075, 0.99075, 192.0, 0.0, 0.0, 0.0, 0.0, 0.0, 0.0, 0.0, 0.0, 0.0, 1.645921077161361E9, 0.0, 2022-02-27 11:17:57.161
204.0, -2607.2192319892924, -5712.32357172055, -2574.786850784642, -11184.924684157932, -1342.5128272191082, 20.85417757680149, -5929.381362126036, -2179.183325670162, -5004.220307376422, -7806.97259986074, -4470.751222461608, -3566.5561040110715, -4565.276749763101, -3589.868973477957, -10493.227600243998, -15662.157912511579, 0.0115, -0.10575000000000001, 0.989375, 192.0, 0.0, 40.0, 126.0, 96.0, 15.0, 112.0, 0.0, 0.0, 0.0, 1.645921077167942E9, 0.0, 2022-02-27 11:17:57.167
206.0, -2225.429084948192, -5410.3962076182615, -2238.571910687913, -10821.261801870085, -968.1434593371702, 328.5035882596479, -5604.141128556863, -1755.7071752199145, -1913.1752149075528, -6740.414409686853, -4464.068050869471, -3310.6733334867163, -4675.359091205489, -3492.54947811955, -9962.954814786293, -14251.986354826255, 0.0115, -0.10575000000000001, 0.989375, 192.0, 0.0, 0.0, 0.0, 0.0, 0.0, 0.0, 0.0, 0.0, 0.0, 1.645921077177357E9, 0.0, 2022-02-27 11:17:57.177
208.0, -2083.9201908016435, -5319.335200707341, -2214.9461167986533, -10789.99171137711, -871.7403855014308, 366.1886294112956, -5758.1893513428395, -1962.3714044536835, -4519.768598052096, -7310.7638729529235, -4221.775140973943, -3430.8586634229023, -4334.338526050869, -3345.027964714523, -10315.75474926886, -15219.593372296498, 0.0115, -0.10575000000000001, 0.989375, 192.0, 0.0, 0.0, 0.0, 0.0, 0.0, 0.0, 0.0, 0.0, 0.0, 1.64592107718295E9, 0.0, 2022-02-27 11:17:57.182
210.0, -2614.260031492714, -5711.563612409069, -2522.5955274814996, -11134.141520755473, -1336.746077149639, 46.29046276694093, -5843.662422139933, -2030.097190153264, -3192.522012295963, -7412.777234646945, -4627.951041215782, -3469.705995286226, -4804.3957119459765, -3695.346855562551, -10261.93174862048, -15018.338265220913, 0.0115, -0.10575000000000001, 0.989375, 192.0, 0.0, 0.0, 0.0, 0.0, 0.0, 0.0, 0.0, 0.0, 0.0, 1.64592107719099E9, 0.0, 2022-02-27 11:17:57.190
212.0, -1887.426005295039, -5160.503704607929, -2026.9902976739763, -10593.72104331506, -674.1956680054269, 527.0317825116853, -5550.407534886305, -1673.3857003910186, -2720.1849484664144, -6717.906203020359, -4239.053039437895, -3297.6199147248167, -4435.793094133508, -3318.295278345976, -10026.344362061544, -14419.982066152343, 0.0115, -0.10575000000000001, 0.989375, 192.0, 0.0, 0.0, 0.0, 0.0, 0.0, 0.0, 0.0, 0.0, 0.0, 1.645921077197516E9, 0.0, 2022-02-27 11:17:57.197
214.0, -2598.1220719959824, -5698.398434924893, -2552.5468650516113, -11178.487381754801, -1338.578920194974, 23.111703766787503, -5935.2822226622375, -2177.5292965804692, -5010.970534201924, -7804.022169592639, -4459.3071293004905, -3568.2995400785853, -4562.1475055393585, -3590.4501188337945, -10500.26839974742, -15682.900331366103, 0.012750000000000001, -0.106875, 0.9886874999999999, 192.0, 0.0, 56.0, 126.0, 80.0, 15.0, 112.0, 0.0, 0.0, 0.0, 1.64592107720572E9, 0.0, 2022-02-27 11:17:57.205
216.0, -2244.316309012927, -5428.814045049435, -2231.374648973304, -10827.833214739945, -978.0005786419605, 308.565832205514, -5582.415232946305, -1747.1688088379872, -1910.7835782508348, -6755.501837194185, -4464.202161336203, -3325.738409249593, -4688.278399500657, -3506.6757806153037, -9967.000480532704, -14275.165113826408, 0.012750000000000001, -0.106875, 0.9886874999999999, 192.0, 0.0, 0.0, 0.0, 0.0, 0.0, 0.0, 0.0, 0.0, 0.0, 1.645921077213461E9, 0.0, 2022-02-27 11:17:57.213
218.0, -2078.6675308546464, -5307.712293590581, -2193.823718288388, -10785.65547295278, -869.4828593114447, 361.9641497092426, -5725.354638737994, -1932.1071424611978, -4487.783251736552, -7304.930067650088, -4218.735303728021, -3434.859625680402, -4348.755401224542, -3351.420563628741, -10305.13767065259, -15212.53022104862, 0.012750000000000001, -0.106875, 0.9886874999999999, 192.0, 0.0, 0.0, 0.0, 0.0, 0.0, 0.0, 0.0, 0.0, 0.0, 1.645921077220722E9, 0.0, 2022-02-27 11:17:57.220
220.0, -2629.23570027777, -5704.388702438915, -2517.87930940143, -11142.63518364849, -1341.6858126742618, 36.56745392888235, -5810.648895579445, -2012.1710911001078, -3236.219672706088, -7430.055133110897, -4632.10846568447, -3479.473707613195, -4812.889374838994, -3696.464442785316, -10260.970623608902, -15042.992239355117, 0.012750000000000001, -0.106875, 0.9886874999999999, 192.0, 0.0, 0.0, 0.0, 0.0, 0.0, 0.0, 0.0, 0.0, 0.0, 1.6459210772281E9, 0.0, 2022-02-27 11:17:57.228
222.0, -1891.426967552539, -5156.435687117063, -2014.6521347346468, -10590.167115946666, -675.6932348839325, 529.4681226573138, -5536.549453324014, -1672.7151480573593, -2699.911916245451, -6714.575793096518, -4242.31639412837, -3295.3847402792862, -4443.884425626329, -3339.3059181339645, -10012.329818288066, -14416.696359717413, 0.012750000000000001, -0.106875, 0.9886874999999999, 192.0, 0.0, 0.0, 0.0, 0.0, 0.0, 0.0, 0.0, 0.0, 0.0, 1.645921077236272E9, 0.0, 2022-02-27 11:17:57.236
224.0, -2595.8868975504515, -5702.086472760019, -2544.656699258888, -11172.519465985235, -1327.872434600882, 18.79781708691324, -5958.103353751106, -2184.8830205062654, -5027.264955909844, -7795.707320655266, -4450.9699286186615, -3558.4647725182504, -4557.677156648298, -3587.052653676588, -10496.423899701107, -15687.415383746074, 0.013375000000000001, -0.10843749999999999, 0.98734375, 192.0, 0.0, 56.0, 126.0, 72.0, 15.0, 104.0, 0.0, 0.0, 0.0, 1.645921077249815E9, 0.0, 2022-02-27 11:17:57.249
226.0, -2250.373631760315, -5437.039487008988, -2234.3921344747705, -10829.263726385085, -982.0462443883711, 306.7329891601788, -5636.729971972701, -1763.530285779272, -1919.7913312663236, -6763.950796598291, -4470.483001528144, -3302.8949264162693, -4686.981998322249, -3511.6155161399265, -9972.275492224157, -14286.832724432079, 0.013375000000000001, -0.10843749999999999, 0.98734375, 192.0, 0.0, 0.0, 0.0, 0.0, 0.0, 0.0, 0.0, 0.0, 0.0, 1.645921077257812E9, 0.0, 2022-02-27 11:17:57.257
228.0, -2088.904629815177, -5325.280764732453, -2196.6847415786674, -10783.353243273885, -863.7608127308861, 369.49668759068106, -5733.46832197527, -1942.2995379328179, -4489.526687804066, -7311.345018308762, -4232.995716690507, -3427.349439543419, -4355.483276305589, -3351.219397928643, -10310.61384804414, -15205.355311078467, 0.013375000000000001, -0.10843749999999999, 0.98734375, 192.0, 0.0, 0.0, 0.0, 0.0, 0.0, 0.0, 0.0, 0.0, 0.0, 1.645921077265955E9, 0.0, 2022-02-27 11:17:57.265
230.0, -2651.1851133328814, -5738.966851111276, -2526.305917061081, -11152.291137253182, -1344.2115597977115, 38.176779529664465, -5825.602212620046, -2002.4927857509597, -3276.206943536633, -7460.8558369703105, -4645.0277739796375, -3484.1452222043545, -4812.621153905529, -3701.918268432411, -10268.570216723707, -15049.4518935027, 0.013375000000000001, -0.10843749999999999, 0.98734375, 192.0, 0.0, 0.0, 0.0, 0.0, 0.0, 0.0, 0.0, 0.0, 0.0, 1.645921077272898E9, 0.0, 2022-02-27 11:17:57.272
232.0, -1914.7398370194242, -5181.626103118194, -2023.5034255389485, -10598.280799183942, -673.6815778829549, 525.7130295888221, -5555.3249186664725, -1679.0853952271218, -2685.4056340939565, -6723.941174023292, -4263.863475783286, -3303.3419613053757, -4456.1331815878375, -3324.397304582275, -10017.582478235065, -14400.200772309396, 0.013375000000000001, -0.10843749999999999, 0.98734375, 192.0, 0.0, 0.0, 0.0, 0.0, 0.0, 0.0, 0.0, 0.0, 0.0, 1.645921077280376E9, 0.0, 2022-02-27 11:17:57.280
234.0, -2607.733322111764, -5711.27303973115, -2543.1814841248374, -11178.59914047708, -1320.6081176529071, 11.64525886121498, -5953.521246137768, -2195.544802611447, -5047.940319531002, -7810.280658040126, -4458.077783355449, -3560.699946963781, -4561.164028783325, -3586.3597495984736, -10508.359731240242, -15691.81867740377, 0.0126875, -0.10821875, 0.987671875, 192.0, 0.0, 48.0, 126.0, 80.0, 15.0, 112.0, 0.0, 0.0, 0.0, 1.645921077288543E9, 0.0, 2022-02-27 11:17:57.288
236.0, -2292.8419462253987, -5470.522400203037, -2253.2346550505945, -10853.068334229987, -1002.1181109092369, 302.32969550248333, -5617.440416507771, -1734.696535431926, -1947.1275147351641, -6784.3579392859865, -4496.433376840756, -3331.32634536342, -4720.174338838379, -3532.4920454611834, -9985.105393541502, -14296.443974547861, 0.0126875, -0.10821875, 0.987671875, 192.0, 0.0, 0.0, 0.0, 0.0, 0.0, 0.0, 0.0, 0.0, 0.0, 1.645921077296402E9, 0.0, 2022-02-27 11:17:57.296
238.0, -2096.839499096811, -5335.160235781698, -2193.3990351437374, -10790.684615455224, -855.7588882158861, 358.5666845520359, -5720.70547589129, -1930.81074128279, -4465.655024725798, -7313.088454376275, -4246.943205230618, -3448.2036171202208, -4371.509477080045, -3365.4127556577632, -10307.842231731682, -15189.843200426485, 0.0126875, -0.10821875, 0.987671875, 192.0, 0.0, 0.0, 0.0, 0.0, 0.0, 0.0, 0.0, 0.0, 0.0, 1.645921077302548E9, 0.0, 2022-02-27 11:17:57.302
240.0, -2669.0441571526717, -5754.2554443187055, -2534.0172688981615, -11165.791590904188, -1345.9326441207702, 22.396447944217677, -5849.362116976037, -2025.224509862007, -3325.8501679718697, -7494.651674586735, -4655.957777018282, -3502.7865770800804, -4823.7076191553615, -3734.0600769591424, -10288.619731500117, -15084.968815442184, 0.0126875, -0.10821875, 0.987671875, 192.0, 0.0, 0.0, 0.0, 0.0, 0.0, 0.0, 0.0, 0.0, 0.0, 1.645921077310098E9, 0.0, 2022-02-27 11:17:57.310
242.0, -1936.778657052357, -5208.582306931295, -2035.4616088225378, -10613.658799369192, -676.453194195413, 518.1134364740177, -5526.848796230412, -1678.5713051046498, -2683.908067215451, -6744.862406833459, -4280.515525402489, -3324.6878772601935, -4473.008748651594, -3353.2534066740764, -10026.836100439561, -14402.704167688391, 0.0126875, -0.10821875, 0.987671875, 192.0, 0.0, 0.0, 0.0, 0.0, 0.0, 0.0, 0.0, 0.0, 0.0, 1.645921077318121E9, 0.0, 2022-02-27 11:17:57.318
244.0, -2612.606002403021, -5725.622859671457, -2550.9151877063737, -11177.950939887874, -1309.9463355477258, 18.57429964236017, -5939.149074453006, -2180.5244303374807, -5081.356177491686, -7831.827739695042, -4473.187562607237, -3580.213019873264, -4570.507057965643, -3605.2246219187527, -10509.164394040632, -15690.969311114468, 0.01134375, -0.105109375, 0.9888359375, 192.0, 0.0, 40.0, 126.0, 104.0, 15.0, 120.0, 0.0, 0.0, 0.0, 1.645921077326189E9, 0.0, 2022-02-27 11:17:57.326
246.0, -2288.304542100971, -5473.22696128213, -2255.1569050737507, -10844.597023081426, -975.5418867518767, 313.952602619243, -5611.628962949391, -1745.6041867261156, -1956.6717096175803, -6796.718453969772, -4507.296324646035, -3328.778246495515, -4716.352190536522, -3543.3996967553735, -9985.820649364072, -14291.9736256568, 0.01134375, -0.105109375, 0.9888359375, 192.0, 0.0, 0.0, 0.0, 0.0, 0.0, 0.0, 0.0, 0.0, 0.0, 1.645921077332672E9, 0.0, 2022-02-27 11:17:57.332
248.0, -2093.12910951723, -5340.099971306321, -2191.476785120581, -10777.027699593033, -833.0495158492943, 380.00200748467535, -5736.441103987826, -1923.3676103791727, -4463.129277602348, -7310.629762486192, -4250.295966898914, -3443.4650472956955, -4366.0332996884945, -3373.1241074948443, -10308.356321854153, -15179.315528788034, 0.01134375, -0.105109375, 0.9888359375, 192.0, 0.0, 0.0, 0.0, 0.0, 0.0, 0.0, 0.0, 0.0, 0.0, 1.645921077340834E9, 0.0, 2022-02-27 11:17:57.340
