%OpenBCI Raw EEG Data
%Number of channels = 16
%Sample Rate = 125 Hz
%Board = OpenBCI_GUI$BoardCytonSerialDaisy
Sample Index, EXG Channel 0, EXG Channel 1, EXG Channel 2, EXG Channel 3, EXG Channel 4, EXG Channel 5, EXG Channel 6, EXG Channel 7, EXG Channel 8, EXG Channel 9, EXG Channel 10, EXG Channel 11, EXG Channel 12, EXG Channel 13, EXG Channel 14, EXG Channel 15, Accel Channel 0, Accel Channel 1, Accel Channel 2, Other, Other, Other, Other, Other, Other, Other, Analog Channel 0, Analog Channel 1, Analog Channel 2, Timestamp, Other, Timestamp (Formatted)
0.0, -2488.7996898650754, -7316.530623022392, -3999.0400074768077, -8993.872582182, -1873.232647565919, 4102.707398260522, -10090.315054692634, -9219.714608158423, 0.0, 0.0, 0.0, 0.0, 0.0, 0.0, 0.0, 0.0, 0.0, 0.0, 0.0, 192.0, 0.0, 0.0, 0.0, 0.0, 0.0, 0.0, 0.0, 0.0, 0.0, 1.645919907900365E9, 0.0, 2022-02-27 10:58:27.900
100.0, -3288.7686239205154, -7693.872772916887, -4310.668028672699, -9440.7286573325, -2478.7414048601872, 3563.471563276239, -10172.547122543709, -9222.575631448703, -4957.326347509187, -8187.086366067692, -1486.9050964003918, 283.2636574821064, -6132.35755352468, -3718.369152351517, -17791.0498131573, -13897.107708109344, 0.0, 0.0, 0.0, 192.0, 0.0, 0.0, 0.0, 0.0, 0.0, 0.0, 0.0, 0.0, 0.0, 1.645919907900368E9, 0.0, 2022-02-27 10:58:27.900
0.0, -1622.3566677995525, -3480.032501224578, -1516.9234892038692, -4271.865400298286, -866.5994842767101, 1555.8825797894692, -4080.1097846162065, -3472.678777298782, -2966.210599685979, -3895.1490992485406, -713.7135522024098, -105.56728906241526, -3009.282411251356, -1816.7274375829027, -9147.227900889862, -7085.704158032437, 0.006, -0.10400000000000001, 0.988, 192.0, 0.0, 24.0, 126.0, 96.0, 15.0, 112.0, 0.0, 0.0, 0.0, 1.645919907988606E9, 0.0, 2022-02-27 10:58:27.988
2.0, -3259.286672983965, -6919.653048473961, -3005.3932077161326, -8694.448613458708, -1788.4748325913947, 3116.6154881257403, -8192.294322525779, -7104.546678608261, -5792.029892448175, -8402.80305180586, -2251.804143405455, -1078.2258007795574, -5600.877773866388, -4346.788447712475, -15665.667136391061, -14263.452799731827, 0.006, -0.10400000000000001, 0.988, 192.0, 0.0, 0.0, 0.0, 0.0, 0.0, 0.0, 0.0, 0.0, 0.0, 1.645919907994896E9, 0.0, 2022-02-27 10:58:27.994
4.0, -3654.599625420526, -7155.240435032897, -3161.363680525265, -8789.085899482478, -2049.0738211958196, 2838.0456969792485, -8162.56650240022, -6987.088261495622, -3371.38067142733, -7910.751749366731, -2264.2540650670608, -572.808155156154, -5642.854349953455, -4312.90320311823, -14908.278275522982, -13290.34725312558, 0.006, -0.10400000000000001, 0.988, 192.0, 0.0, 0.0, 0.0, 0.0, 0.0, 0.0, 0.0, 0.0, 0.0, 1.645919908001367E9, 0.0, 2022-02-27 10:58:28.001
6.0, -3158.6367677017174, -6901.570487209617, -2990.68575986454, -8553.766733857005, -1665.3837758760187, 3182.553134268896, -8179.777345630807, -7021.688761912437, -3987.4394521045033, -7635.490016399624, -2231.307593739938, -870.6451500231207, -5562.0751454919755, -4268.1773624631605, -15190.200828337769, -13386.07977462766, 0.009000000000000001, -0.10500000000000001, 0.99, 192.0, 0.0, 48.0, 126.0, 88.0, 15.5, 0.0, 0.0, 0.0, 0.0, 1.645919908008258E9, 0.0, 2022-02-27 10:58:28.008
8.0, -3589.7348630112247, -7081.367919608107, -3119.4541596715644, -8834.191719793287, -2015.25563183494, 2892.5168982168316, -8195.691787682985, -7077.568123050705, -5491.890667902311, -8638.256327898065, -2277.0616146399516, -894.4497578680227, -5644.262509854139, -4371.017738702028, -15506.142736213535, -14245.77256986768, 0.009000000000000001, -0.10500000000000001, 0.99, 192.0, 0.0, 0.0, 0.0, 0.0, 0.0, 0.0, 0.0, 0.0, 0.0, 1.645919908014195E9, 0.0, 2022-02-27 10:58:28.014
10.0, -3416.307677782497, -7032.216433550887, -3090.4862988574864, -8624.107673657856, -1851.909083355556, 3003.426254204065, -8160.912473310527, -6960.400278615985, -2644.747810929753, -7348.493617593482, -2225.5631954149244, -583.0005506277741, -5579.0401195335535, -4229.866472466764, -14776.134762303205, -12847.73800942159, 0.009000000000000001, -0.10500000000000001, 0.99, 192.0, 0.0, 0.0, 0.0, 0.0, 0.0, 0.0, 0.0, 0.0, 0.0, 1.645919908026595E9, 0.0, 2022-02-27 10:58:28.026
12.0, -3257.319719471898, -6909.214783813332, -3012.3446002417327, -8688.145421522311, -1781.3893295990622, 3125.489130674497, -8228.928831688027, -7123.0315712728, -5785.6596452784115, -8392.94593250107, -2251.8711986388207, -1073.5989896773087, -5598.866116865411, -4326.604822469333, -15664.661307890572, -14261.48584621976, 0.009000000000000001, -0.10500000000000001, 0.99, 192.0, 0.0, 0.0, 0.0, 0.0, 0.0, 0.0, 0.0, 0.0, 0.0, 1.645919908032756E9, 0.0, 2022-02-27 10:58:28.032
14.0, -3646.463590438794, -7145.27155700583, -3171.2207998300555, -8785.26375118062, -2058.5509608448697, 2844.3041854267344, -8180.3808427311, -7001.90746806949, -3386.646912890305, -7920.564165182611, -2263.561160988946, -562.7722218957213, -5643.815474965033, -4305.080092558872, -14922.71750244111, -13301.97016024234, 0.009000000000000001, -0.10500000000000001, 0.99, 192.0, 0.0, 0.0, 0.0, 0.0, 0.0, 0.0, 0.0, 0.0, 0.0, 1.645919908038997E9, 0.0, 2022-02-27 10:58:28.038
16.0, -3152.0877065763125, -6891.98158883829, -2995.916068067082, -8555.800742602438, -1674.0562527246777, 3184.9224191811586, -8176.089307795681, -7040.196006321431, -4043.0282405648522, -7665.37429873637, -2229.273584994505, -862.5761702747549, -5581.8564393349225, -4263.058812982895, -15215.592410038998, -13420.523812833288, 0.0105, -0.10550000000000001, 0.992, 192.0, 0.0, 48.0, 126.0, 88.0, 15.5, 8.0, 0.0, 0.0, 0.0, 1.645919908046286E9, 0.0, 2022-02-27 10:58:28.046
18.0, -3592.6405897904147, -7084.966550465411, -3136.307374990866, -8844.786446665103, -2029.9183761976215, 2884.246752768368, -8209.013427378348, -7094.041358714267, -5460.620577409337, -8629.986182449602, -2281.822536208932, -885.5314118303552, -5665.295501386583, -4364.558084554445, -15509.719015326384, -14245.72786637877, 0.0105, -0.10550000000000001, 0.992, 192.0, 0.0, 0.0, 0.0, 0.0, 0.0, 0.0, 0.0, 0.0, 0.0, 1.645919908053615E9, 0.0, 2022-02-27 10:58:28.053
20.0, -3413.4019510033077, -7044.241672067842, -3107.361865921243, -8630.120292916334, -1863.3978800055838, 2991.7809953428505, -8166.165133257525, -6969.989176987312, -2631.0238398341944, -7349.633556560702, -2233.1627885297285, -584.0287308727183, -5597.100329053442, -4240.282385382937, -14789.948140376586, -12857.438666515192, 0.0105, -0.10550000000000001, 0.992, 192.0, 0.0, 0.0, 0.0, 0.0, 0.0, 0.0, 0.0, 0.0, 0.0, 1.645919908061775E9, 0.0, 2022-02-27 10:58:28.061
22.0, -3252.1117630138115, -6909.058321602145, -3017.016114832892, -8688.771270367059, -1781.8140127437132, 3121.2870027168997, -8236.10374165818, -7121.109321249643, -5766.548903769124, -8398.198592448067, -2248.8760648818093, -1074.2024867776022, -5603.716445412212, -4332.483331261079, -15671.255072504888, -14268.213721300808, 0.0105, -0.10550000000000001, 0.992, 192.0, 0.0, 0.0, 0.0, 0.0, 0.0, 0.0, 0.0, 0.0, 0.0, 1.645919908068779E9, 0.0, 2022-02-27 10:58:28.068
24.0, -3650.5763114185706, -7149.719554152436, -3172.3830905417312, -8787.87890528189, -2062.1495917021743, 2834.022382977293, -8181.185505531491, -7001.14750875801, -3368.743165581604, -7907.108415020516, -2250.7536114160553, -566.5049632197575, -5638.942794673776, -4282.773051592476, -14927.344313543359, -13308.608628345566, 0.0105, -0.10550000000000001, 0.992, 192.0, 0.0, 0.0, 0.0, 0.0, 0.0, 0.0, 0.0, 0.0, 0.0, 1.64591990807531E9, 0.0, 2022-02-27 10:58:28.075
26.0, -3146.9244536071365, -6890.260504515231, -2994.373797699666, -8544.468408163597, -1675.6655783254598, 3185.4141575591752, -8165.025194290304, -7013.686837397438, -3929.0790473316965, -7606.320989885448, -2224.445608192159, -862.7996877193079, -5567.2383984611515, -4255.1462954457165, -15188.278578314612, -13373.518094243776, 0.01225, -0.10475000000000001, 0.993, 192.0, 0.0, 56.0, 126.0, 96.0, 15.5, 8.0, 0.0, 0.0, 0.0, 1.645919908084214E9, 0.0, 2022-02-27 10:58:28.084
28.0, -3573.887476192412, -7075.422355582996, -3123.790398095894, -8827.687362156792, -2007.7007422090462, 2903.692770444485, -8201.190316818991, -7072.963663692912, -5504.206479097185, -8632.556633061962, -2274.625274494323, -899.0989207147265, -5645.916538943832, -4354.209226871637, -15522.370102688088, -14255.473226961283, 0.01225, -0.10475000000000001, 0.993, 192.0, 0.0, 0.0, 0.0, 0.0, 0.0, 0.0, 0.0, 0.0, 0.0, 1.645919908090564E9, 0.0, 2022-02-27 10:58:28.090
30.0, -3404.908288110291, -7035.792712663736, -3094.75548204845, -8617.111577643345, -1851.8196763777348, 2997.860669834694, -8185.544095700276, -6964.311833895664, -2618.70802863932, -7346.191387914585, -2225.0714570369073, -581.8382599160982, -5578.078994521975, -4220.948126429096, -14780.046317582885, -12843.647640186267, 0.01225, -0.10475000000000001, 0.993, 192.0, 0.0, 0.0, 0.0, 0.0, 0.0, 0.0, 0.0, 0.0, 0.0, 1.645919908098525E9, 0.0, 2022-02-27 10:58:28.098
32.0, -3232.978669760069, -6906.689036689882, -3007.650733906118, -8675.650796371794, -1746.140628593043, 3129.33363072081, -8210.24277332339, -7106.647742587059, -5740.710287178789, -8376.830324748793, -2241.790561889477, -1076.4600129675882, -5586.662064392814, -4320.391037510757, -15665.823598602248, -14242.86684308849, 0.01225, -0.10475000000000001, 0.993, 192.0, 0.0, 0.0, 0.0, 0.0, 0.0, 0.0, 0.0, 0.0, 0.0, 1.645919908106668E9, 0.0, 2022-02-27 10:58:28.106
34.0, -3640.9427095583333, -7147.685545407003, -3168.203314328589, -8792.952751273246, -2038.5237978129148, 2831.250766664835, -8170.590778659675, -6990.95511328639, -3407.9257736117574, -7930.018953087206, -2255.670995196223, -585.4592425178579, -5630.359724802938, -4296.027636054473, -14927.903107154742, -13319.248058706291, 0.01225, -0.10475000000000001, 0.993, 192.0, 0.0, 0.0, 0.0, 0.0, 0.0, 0.0, 0.0, 0.0, 0.0, 1.645919908113877E9, 0.0, 2022-02-27 10:58:28.113
36.0, -3135.256843001466, -6891.109870804534, -2989.8587453196938, -8555.063135035412, -1665.6743485539375, 3170.3043783073877, -8175.530514184298, -7018.4477589664175, -3896.7360731048675, -7607.997370719597, -2222.0316197909856, -872.5674000462772, -5554.922587266277, -4252.687603555632, -15179.539046232589, -13366.4549429959, 0.014125, -0.106375, 0.9944999999999999, 192.0, 0.0, 64.0, 126.0, 80.0, 15.5, 16.0, 0.0, 0.0, 0.0, 1.645919908121156E9, 0.0, 2022-02-27 10:58:28.121
38.0, -3557.6824614623147, -7074.282416615774, -3112.592174123785, -8840.897243129879, -2002.0904543507643, 2886.9960173363706, -8194.551848715764, -7069.3426810911515, -5513.571860023959, -8629.628554538316, -2264.2317133226056, -915.6615633561091, -5637.579338262002, -4362.345261853368, -15516.916277040993, -14272.974642869789, 0.014125, -0.106375, 0.9944999999999999, 192.0, 0.0, 0.0, 0.0, 0.0, 0.0, 0.0, 0.0, 0.0, 0.0, 1.645919908129611E9, 0.0, 2022-02-27 10:58:28.129
40.0, -3386.28928497902, -7030.204776549909, -3081.4561940975423, -8620.173766633721, -1849.0927635541873, 2992.7644720988837, -8168.512066425332, -6953.493589579295, -2589.807223058608, -7336.647193032169, -2212.822701075399, -582.6429227164892, -5566.590197871948, -4227.653649765689, -14768.244596510482, -12847.268622788028, 0.014125, -0.106375, 0.9944999999999999, 192.0, 0.0, 0.0, 0.0, 0.0, 0.0, 0.0, 0.0, 0.0, 0.0, 1.645919908136313E9, 0.0, 2022-02-27 10:58:28.136
42.0, -3237.3372599288537, -6916.233231572299, -3003.40390245961, -8670.71106084717, -1763.8879136905568, 3133.915738334148, -8191.556714958753, -7080.630312041082, -5719.878461346443, -8361.094696652257, -2241.276471767005, -1070.9614838315827, -5584.24807599164, -4313.9090316187185, -15646.645801859595, -14233.255592972708, 0.014125, -0.106375, 0.9944999999999999, 192.0, 0.0, 0.0, 0.0, 0.0, 0.0, 0.0, 0.0, 0.0, 0.0, 1.645919908150901E9, 0.0, 2022-02-27 10:58:28.150
44.0, -3634.7512763442132, -7146.657365162059, -3156.982738612025, -8777.172419687799, -2047.7550682729566, 2840.7502580583405, -8161.672432622008, -6963.238950161809, -3427.4388465212405, -7920.631220415977, -2261.5271522435132, -576.9432278803858, -5633.936003915787, -4279.5096969020005, -14919.14122332826, -13312.16255571396, 0.014125, -0.106375, 0.9944999999999999, 192.0, 0.0, 0.0, 0.0, 0.0, 0.0, 0.0, 0.0, 0.0, 0.0, 1.645919908159054E9, 0.0, 2022-02-27 10:58:28.159
46.0, -3135.9944505684916, -6897.502469718751, -2982.952056283004, -8537.36055342681, -1653.0903164255997, 3183.111927880279, -8163.929958811994, -6997.057139522689, -3894.9032300595322, -7580.549428528479, -2213.7167708536117, -843.9571671434841, -5555.7943053000345, -4234.7838562469315, -15159.958918089738, -13341.465692694866, 0.013062500000000001, -0.10718749999999999, 0.99325, 192.0, 0.0, 48.0, 126.0, 80.0, 15.5, 0.0, 0.0, 0.0, 0.0, 1.645919908165881E9, 0.0, 2022-02-27 10:58:28.165
48.0, -3569.662996490359, -7092.297922646752, -3118.2024619820672, -8831.218937780732, -1997.3295327817839, 2901.770520421329, -8207.448805266476, -7061.87719844308, -5538.650517302814, -8621.961906190147, -2269.6184837363344, -904.3292289172684, -5647.101181399963, -4350.230616358593, -15515.709282840406, -14257.708401406813, 0.013062500000000001, -0.10718749999999999, 0.99325, 192.0, 0.0, 0.0, 0.0, 0.0, 0.0, 0.0, 0.0, 0.0, 0.0, 1.645919908173479E9, 0.0, 2022-02-27 10:58:28.173
50.0, -3409.8927271238244, -7056.669241984992, -3097.437691383087, -8621.559574789952, -1854.0324990788101, 2985.8801348066495, -8128.278926405779, -6930.314830579142, -2619.445636206345, -7341.743390767979, -2224.4232564477034, -589.7507774532769, -5590.573619672492, -4211.605097246778, -14765.227111009017, -12836.517433705025, 0.013062500000000001, -0.10718749999999999, 0.99325, 192.0, 0.0, 0.0, 0.0, 0.0, 0.0, 0.0, 0.0, 0.0, 0.0, 1.645919908181572E9, 0.0, 2022-02-27 10:58:28.181
52.0, -3218.8076637754043, -6905.593801211572, -3008.6789141510626, -8661.055107242479, -1751.7285647068697, 3126.159683008156, -8200.251543551867, -7086.128841177087, -5721.9124700918765, -8343.012135387915, -2227.8877768382763, -1072.9954925770155, -5604.25288727914, -4326.649525958243, -15643.76242682486, -14226.214793469286, 0.013062500000000001, -0.10718749999999999, 0.99325, 192.0, 0.0, 0.0, 0.0, 0.0, 0.0, 0.0, 0.0, 0.0, 0.0, 1.645919908189481E9, 0.0, 2022-02-27 10:58:28.189
54.0, -3644.8766165824672, -7160.448391490983, -3178.619227244762, -8782.35802440143, -2052.9406729865877, 2816.9456502134385, -8167.506237924843, -6981.500325381795, -3442.928605428768, -7921.413531471912, -2242.8410938788766, -574.7751086682212, -5648.218768622729, -4292.429005197168, -14928.797176932952, -13325.975933787338, 0.013062500000000001, -0.10718749999999999, 0.99325, 192.0, 0.0, 0.0, 0.0, 0.0, 0.0, 0.0, 0.0, 0.0, 0.0, 1.645919908196075E9, 0.0, 2022-02-27 10:58:28.196
56.0, -3149.4278489861313, -6908.521879735217, -3006.600201916719, -8542.479102907075, -1680.8958865280017, 3156.5357037229187, -8179.039738063781, -7027.209642792898, -3892.6010003806355, -7590.272437366538, -2208.7770353289884, -858.6646149950761, -5579.688320122757, -4259.236664681037, -15159.087200055981, -13347.075980553149, 0.01153125, -0.10859374999999999, 0.992625, 192.0, 0.0, 40.0, 126.0, 72.0, 15.5, 0.0, 0.0, 0.0, 0.0, 1.645919908203274E9, 0.0, 2022-02-27 10:58:28.203
58.0, -3562.532790009116, -7082.127878919588, -3129.1995202540784, -8830.078998813511, -2010.4276550325937, 2879.2399620103793, -8200.072729596226, -7077.366957350607, -5553.089744220942, -8623.101845157367, -2256.341547529882, -920.6907058585532, -5668.223579910228, -4358.634872273788, -15531.489614425853, -14274.963948126311, 0.01153125, -0.10859374999999999, 0.992625, 192.0, 0.0, 0.0, 0.0, 0.0, 0.0, 0.0, 0.0, 0.0, 0.0, 1.645919908211166E9, 0.0, 2022-02-27 10:58:28.211
60.0, -3410.0044858461006, -7050.1425326040435, -3102.37742690771, -8622.14072014579, -1870.5280864868269, 2970.412727643577, -8156.75504884184, -6957.963938470357, -2602.4359586758565, -7325.538376037882, -2202.898526537243, -583.5816959836121, -5601.704788411234, -4226.2678416094595, -14762.410791207647, -12847.380381510304, 0.01153125, -0.10859374999999999, 0.992625, 192.0, 0.0, 0.0, 0.0, 0.0, 0.0, 0.0, 0.0, 0.0, 0.0, 1.645919908219497E9, 0.0, 2022-02-27 10:58:28.219
62.0, -3224.0603237224013, -6910.84646115857, -3006.1531670276127, -8663.580854365928, -1755.2154368418976, 3115.654363114162, -8220.502224028376, -7097.2823616602855, -5693.212830211262, -8342.02865863188, -2218.7682651005107, -1071.6096844207866, -5606.957448358232, -4311.807967639919, -15644.56708962525, -14227.600601625516, 0.01153125, -0.10859374999999999, 0.992625, 192.0, 0.0, 0.0, 0.0, 0.0, 0.0, 0.0, 0.0, 0.0, 0.0, 1.645919908227114E9, 0.0, 2022-02-27 10:58:28.227
64.0, -3650.15162827392, -7153.720516409936, -3178.0827853778346, -8780.21225693372, -2051.1078299412525, 2816.900946724528, -8185.633502678097, -6994.95607554389, -3468.029614452078, -7942.200653815348, -2244.7856956464884, -581.9276668939194, -5653.091448913986, -4288.293932472937, -14937.559060759433, -13350.115817799071, 0.01153125, -0.10859374999999999, 0.992625, 192.0, 0.0, 0.0, 0.0, 0.0, 0.0, 0.0, 0.0, 0.0, 0.0, 1.645919908233923E9, 0.0, 2022-02-27 10:58:28.233
66.0, -3142.5658634383517, -6893.635617927983, -3002.7780536148616, -8540.154521483722, -1671.239932923309, 3159.5084857354746, -8205.124223843124, -7016.167881031976, -3841.1472846445185, -7572.368690057838, -2204.574907371391, -854.0154521483722, -5584.002206802632, -4236.080257425339, -15160.137732045381, -13340.839843850119, 0.011765625, -0.106296875, 0.9923124999999999, 192.0, 0.0, 48.0, 126.0, 96.0, 15.5, 0.0, 0.0, 0.0, 0.0, 1.645919908241786E9, 0.0, 2022-02-27 10:58:28.241
68.0, -3558.80004868508, -7071.488448558861, -3119.7000288605727, -8826.525071445116, -2003.5880212292698, 2893.7909476507843, -8198.57516271772, -7068.761535735314, -5573.832163075467, -8627.482787070607, -2248.8090096484434, -926.0774762722822, -5655.974823948721, -4343.011002899529, -15526.348713201132, -14290.721927967303, 0.011765625, -0.106296875, 0.9923124999999999, 192.0, 0.0, 0.0, 0.0, 0.0, 0.0, 0.0, 0.0, 0.0, 0.0, 1.645919908248414E9, 0.0, 2022-02-27 10:58:28.248
70.0, -3426.388314531841, -7052.802390194224, -3102.667999585629, -8626.923993459224, -1876.0489673672878, 2969.8762857766496, -8170.210799003935, -6936.550967282173, -2603.486490665256, -7352.494579850982, -2211.079265007885, -572.294065033682, -5602.2859337670725, -4242.0034697059955, -14758.454532439058, -12846.083980331896, 0.011765625, -0.106296875, 0.9923124999999999, 192.0, 0.0, 0.0, 0.0, 0.0, 0.0, 0.0, 0.0, 0.0, 0.0, 1.645919908256434E9, 0.0, 2022-02-27 10:58:28.256
72.0, -3228.620079591284, -6896.898972618458, -3003.2921437373334, -8674.399098682297, -1744.598358225627, 3110.3122961893437, -8202.754938930862, -7103.809071041235, -5692.31876043305, -8333.400885272133, -2224.5573669144355, -1071.7661466319737, -5601.123643055397, -4314.266659530003, -15636.006371498868, -14218.235220698742, 0.011765625, -0.106296875, 0.9923124999999999, 192.0, 0.0, 0.0, 0.0, 0.0, 0.0, 0.0, 0.0, 0.0, 0.0, 1.645919908271448E9, 0.0, 2022-02-27 10:58:28.271
74.0, -3653.951424831322, -7139.102475536165, -3170.8631719187706, -8790.091727982966, -2050.21376016304, 2813.4140745895, -8157.47030466441, -6968.71512755336, -3471.583541820472, -7948.660307962931, -2237.856654865343, -582.0170738717406, -5648.30817560055, -4295.714711632098, -14927.925458899195, -13345.041971807716, 0.011765625, -0.106296875, 0.9923124999999999, 192.0, 0.0, 0.0, 0.0, 0.0, 0.0, 0.0, 0.0, 0.0, 0.0, 1.645919908278016E9, 0.0, 2022-02-27 10:58:28.278
76.0, -3152.9817763545248, -6893.9485423503575, -2998.5535739128086, -8538.858120305315, -1666.5684183321498, 3154.9710816110473, -8157.47030466441, -6990.3292644416415, -3834.374706074561, -7591.591190289401, -2207.882965550776, -841.9678618869617, -5577.900180566333, -4243.188112162127, -15142.122226014404, -13317.281105194224, 0.0118828125, -0.1081484375, 0.99315625, 192.0, 0.0, 48.0, 126.0, 72.0, 15.5, 8.0, 0.0, 0.0, 0.0, 1.64591990828602E9, 0.0, 2022-02-27 10:58:28.286
78.0, -3555.8272666725243, -7065.58758802266, -3117.71072360405, -8821.138301031388, -1987.070082076798, 2880.4469562109657, -8189.880334124606, -7063.598282766138, -5579.2189334891955, -8637.876348242326, -2262.1977045771723, -916.3544674342237, -5661.40629785136, -4357.696099006665, -15522.705378854916, -14275.902721393433, 0.0118828125, -0.1081484375, 0.99315625, 192.0, 0.0, 0.0, 0.0, 0.0, 0.0, 0.0, 0.0, 0.0, 0.0, 1.645919908294076E9, 0.0, 2022-02-27 10:58:28.294
80.0, -3403.611886931883, -7031.3000120282195, -3098.085891972291, -8607.746196716571, -1849.9644815879444, 2987.690626107529, -8155.101019752147, -6939.814321972647, -2612.069560536094, -7350.21470191654, -2217.3601051998266, -578.9772366258188, -5595.960390086221, -4224.3902950752135, -14757.046372538374, -12845.16755880923, 0.0118828125, -0.1081484375, 0.99315625, 192.0, 0.0, 0.0, 0.0, 0.0, 0.0, 0.0, 0.0, 0.0, 0.0, 1.645919908301308E9, 0.0, 2022-02-27 10:58:28.301
82.0, -3235.459713394608, -6896.206068540343, -3008.8353763622495, -8651.42150538224, -1737.4234482554732, 3131.881729588715, -8187.443993978977, -7077.59047479516, -5720.079627046541, -8371.935292713082, -2228.5583291719354, -1068.5698471748647, -5599.447262221249, -4310.623325183788, -15629.390255140097, -14218.414034654385, 0.0118828125, -0.1081484375, 0.99315625, 192.0, 0.0, 0.0, 0.0, 0.0, 0.0, 0.0, 0.0, 0.0, 0.0, 1.645919908308829E9, 0.0, 2022-02-27 10:58:28.308
84.0, -3653.8396661090455, -7141.203539514964, -3170.2596748184774, -8761.570902057994, -2017.647268491658, 2832.725981798885, -8143.433409146477, -6967.128153697033, -3468.253131896631, -7950.023764374705, -2239.3318699993933, -577.7925941696876, -5636.841730694978, -4269.093783985828, -14911.586333702367, -13320.522108140243, 0.0118828125, -0.1081484375, 0.99315625, 192.0, 0.0, 0.0, 0.0, 0.0, 0.0, 0.0, 0.0, 0.0, 0.0, 1.645919908316846E9, 0.0, 2022-02-27 10:58:28.316
86.0, -3161.229570058533, -6892.965065594324, -2996.564268656286, -8521.267297418988, -1646.2059791333652, 3169.432660273631, -8159.2584442208345, -7004.209697748387, -3898.1889364944623, -7595.234524635616, -2206.564212627913, -848.5616265012774, -5560.24230244664, -4233.442751579613, -15137.674228867798, -13332.033256534727, 0.012, -0.11, 0.99, 192.0, 0.0, 48.0, 126.0, 72.0, 15.0, 120.0, 0.0, 0.0, 0.0, 1.645919908323809E9, 0.0, 2022-02-27 10:58:28.323
88.0, -3576.145002382398, -7066.883989201068, -3124.751523107472, -8812.778748605102, -1981.6386081741582, 2899.736511675896, -8182.839534621184, -7050.164884348498, -5563.706822837213, -8616.530432287507, -2268.6126552358455, -915.3039354448242, -5644.597786020969, -4336.551348751945, -15499.101936710113, -14245.81727335659, 0.012, -0.11, 0.99, 192.0, 0.0, 0.0, 0.0, 0.0, 0.0, 0.0, 0.0, 0.0, 0.0, 1.645919908332481E9, 0.0, 2022-02-27 10:58:28.332
90.0, -3437.4300762927624, -7047.0132883803, -3105.037284497891, -8610.383702562298, -1849.0927635541873, 2976.2912364353224, -8155.771572085807, -6924.011638642745, -2602.838290076052, -7335.060219175843, -2227.4854454380807, -572.87521038952, -5589.746605127645, -4234.761504502476, -14731.855956537243, -12809.427119425192, 0.012, -0.11, 0.99, 192.0, 0.0, 0.0, 0.0, 0.0, 0.0, 0.0, 0.0, 0.0, 0.0, 1.645919908338888E9, 0.0, 2022-02-27 10:58:28.338
92.0, -3235.191492461144, -6900.564658709128, -3009.0365420623475, -8648.225205925131, -1723.6994771599147, 3133.848683100782, -8184.180639288502, -7074.885913716068, -5678.706548059768, -8325.264850290401, -2240.2482915220608, -1052.1860184891248, -5588.047872549042, -4321.843900900352, -15610.592438053185, -14175.163409133365, 0.012, -0.11, 0.99, 192.0, 0.0, 0.0, 0.0, 0.0, 0.0, 0.0, 0.0, 0.0, 0.0, 1.645919908346301E9, 0.0, 2022-02-27 10:58:28.346
94.0, -3671.586951206559, -7148.691373907492, -3174.908837665181, -8777.731213299181, -2022.9222801831104, 2834.670583566497, -8139.030115488782, -6958.098048937089, -3531.307403005052, -7972.733136741297, -2261.214227821139, -572.4952307337797, -5636.707620228246, -4296.362912221302, -14914.559115714923, -13336.995343803805, 0.012, -0.11, 0.99, 192.0, 0.0, 0.0, 0.0, 0.0, 0.0, 0.0, 0.0, 0.0, 0.0, 1.645919908354322E9, 0.0, 2022-02-27 10:58:28.354
96.0, -3169.5444189959076, -6885.387824223974, -3004.3203239822774, -8530.006829501013, -1641.1544848864658, 3177.948674911103, -8164.779325101295, -6987.155316728988, -3830.0831711391415, -7570.6252539903235, -2224.3338494698824, -834.5694344722551, -5565.539665882548, -4248.530179086945, -15105.21949591869, -13279.506657064756, 0.012, -0.10400000000000001, 0.996, 192.0, 0.0, 48.0, 126.0, 96.0, 15.5, 16.0, 0.0, 0.0, 0.0, 1.645919908361055E9, 0.0, 2022-02-27 10:58:28.361
98.0, -3569.148906367887, -7058.7703059637915, -3118.0907032597906, -8811.012960793134, -1965.2771312328734, 2907.1125873461474, -8188.941560857483, -7053.115314616599, -5637.221710350717, -8630.008534194058, -2273.5523907604684, -917.9637930350058, -5631.969050403721, -4368.939026467684, -15509.629608348563, -14272.237035302764, 0.012, -0.10400000000000001, 0.996, 192.0, 0.0, 0.0, 0.0, 0.0, 0.0, 0.0, 0.0, 0.0, 0.0, 1.645919908368986E9, 0.0, 2022-02-27 10:58:28.368
100.0, -3441.319279827986, -7051.885968671557, -3105.305505431355, -8615.815176464937, -1848.332804242707, 2983.868477805672, -8152.687031350974, -6914.936830393891, -2628.587499688566, -7349.477094349515, -2236.20262577565, -564.5603614521458, -5576.447317176738, -4242.919891228663, -14718.891944753164, -12811.997570037553, 0.012, -0.10400000000000001, 0.996, 192.0, 0.0, 0.0, 0.0, 0.0, 0.0, 0.0, 0.0, 0.0, 0.0, 1.645919908377013E9, 0.0, 2022-02-27 10:58:28.377
102.0, -3230.5199778699853, -6892.428623727396, -3004.8567658492047, -8643.553691333973, -1712.8141776101802, 3143.9293198501255, -8197.077595839215, -7051.908320416012, -5689.837716798511, -8318.916954865093, -2247.289091025483, -1058.176286003147, -5579.442450933749, -4326.448360258146, -15594.56623727873, -14160.210092092764, 0.012, -0.10400000000000001, 0.996, 192.0, 0.0, 0.0, 0.0, 0.0, 0.0, 0.0, 0.0, 0.0, 0.0, 1.645919908383174E9, 0.0, 2022-02-27 10:58:28.383
104.0, -3659.896988856434, -7138.856606347157, -3173.9253609091475, -8771.942111485258, -2012.8192916893115, 2836.123446956092, -8163.66173787853, -6951.124304667032, -3555.5143422501496, -7972.464915807834, -2258.7331841866, -570.2377045437938, -5624.101236355453, -4301.414406468201, -14906.020749332994, -13338.917593826962, 0.012, -0.10400000000000001, 0.996, 192.0, 0.0, 0.0, 0.0, 0.0, 0.0, 0.0, 0.0, 0.0, 0.0, 1.645919908398654E9, 0.0, 2022-02-27 10:58:28.398
106.0, -3169.0303288734353, -6895.6472749289605, -3011.1376060411462, -8525.625887587772, -1643.6802320099155, 3177.1887155996224, -8173.965892072427, -6966.23408391882, -3798.1872318014184, -7546.418314745226, -2222.0763232798963, -828.1321320691267, -5552.9109302653, -4259.504885614501, -15089.908550966806, -13263.52515977921, 0.012, -0.11, 0.992, 192.0, 0.0, 48.0, 126.0, 72.0, 15.5, 0.0, 0.0, 0.0, 0.0, 1.645919908406628E9, 0.0, 2022-02-27 10:58:28.406
108.0, -3575.0721186485434, -7067.3980793235405, -3131.434694699609, -8813.494004427672, -1961.4102794421053, 2911.7170467039405, -8176.3798804736, -7037.960831875901, -5649.425762823315, -8630.746141761081, -2276.8380971953984, -931.5313019193771, -5634.897128927366, -4380.964264984639, -15506.813288547193, -14269.331308523573, 0.012, -0.11, 0.992, 192.0, 0.0, 0.0, 0.0, 0.0, 0.0, 0.0, 0.0, 0.0, 0.0, 1.645919908413239E9, 0.0, 2022-02-27 10:58:28.413
110.0, -3454.372698589885, -7050.6119192376045, -3110.133482233701, -8620.37493233382, -1843.7283448849137, 2992.697416865518, -8136.3032026652345, -6904.587972711083, -2617.098703038538, -7363.98337650101, -2228.826550105399, -580.4748035043244, -5577.833125332967, -4239.4777225825455, -14714.935685984576, -12807.862497313321, 0.012, -0.11, 0.992, 192.0, 0.0, 0.0, 0.0, 0.0, 0.0, 0.0, 0.0, 0.0, 0.0, 1.645919908421377E9, 0.0, 2022-02-27 10:58:28.421
112.0, -3238.901882040725, -6891.467498715819, -3001.8392803477386, -8642.95019423368, -1716.4128084674846, 3151.6406716872066, -8176.04460430677, -7051.528340760272, -5669.251760155173, -8313.619591429186, -2235.3979629752594, -1061.7749168604514, -5580.090651522953, -4314.825453141386, -15579.277644071299, -14153.906900156368, 0.012, -0.11, 0.992, 192.0, 0.0, 0.0, 0.0, 0.0, 0.0, 0.0, 0.0, 0.0, 0.0, 1.645919908429544E9, 0.0, 2022-02-27 10:58:28.429
114.0, -3678.471288498794, -7145.964461083944, -3169.522067251452, -8770.466896351207, -2029.8513209642556, 2839.2079876909243, -8140.639441089564, -6943.144731896488, -3577.0167204161553, -7989.2063724048585, -2254.307538784449, -583.0899576055954, -5629.800931191556, -4307.762301893509, -14905.640769677255, -13351.903957355495, 0.012, -0.11, 0.992, 192.0, 0.0, 0.0, 0.0, 0.0, 0.0, 0.0, 0.0, 0.0, 0.0, 1.645919908436464E9, 0.0, 2022-02-27 10:58:28.436
116.0, -3173.1654015976674, -6894.172059794911, -2998.4194634460764, -8517.534556094952, -1640.2827668527088, 3188.074015149357, -8165.315766968223, -6962.635453061516, -3788.3748159855386, -7552.341527025882, -2212.107445252829, -829.8085129032747, -5547.345345895928, -4256.979138491051, -15079.447934561722, -13259.367735310523, 0.012, -0.10200000000000001, 0.99, 192.0, 0.0, 48.0, 126.0, 104.0, 15.0, 120.0, 0.0, 0.0, 0.0, 1.645919908443909E9, 0.0, 2022-02-27 10:58:28.443
118.0, -3548.60765321346, -7041.850035411124, -3112.0557322568575, -8798.853611809447, -1960.1362300081528, 2925.7092387329626, -8166.52276116881, -7031.188253305942, -5648.084658155997, -8631.617859794838, -2257.928521386209, -923.1046942597263, -5632.773713204112, -4360.400660085757, -15507.2603234363, -14271.499427735738, 0.012, -0.10200000000000001, 0.99, 192.0, 0.0, 0.0, 0.0, 0.0, 0.0, 0.0, 0.0, 0.0, 0.0, 1.645919908451045E9, 0.0, 2022-02-27 10:58:28.451
120.0, -3462.955768460723, -7071.577855536682, -3103.1820897081006, -8616.686894498695, -1853.6748711675252, 2988.9423237970263, -8135.498539864843, -6902.5763157101055, -2602.2794964646696, -7356.987280486498, -2214.5884888873684, -555.9996433257631, -5570.546456640537, -4233.800379490898, -14706.419671347103, -12803.414500166715, 0.012, -0.10200000000000001, 0.99, 192.0, 0.0, 0.0, 0.0, 0.0, 0.0, 0.0, 0.0, 0.0, 0.0, 1.645919908458944E9, 0.0, 2022-02-27 10:58:28.458
122.0, -3243.461637909608, -6911.137033836489, -2998.240649490434, -8639.32921163192, -1719.0279625687556, 3153.3394042658097, -8186.460517222944, -7051.953023904923, -5655.1701611483295, -8328.818777658795, -2231.7993321179547, -1070.0674140533704, -5578.123698010886, -4337.221901085603, -15577.735373703883, -14150.911766399357, 0.012, -0.10200000000000001, 0.99, 192.0, 0.0, 0.0, 0.0, 0.0, 0.0, 0.0, 0.0, 0.0, 0.0, 1.645919908465658E9, 0.0, 2022-02-27 10:58:28.465
124.0, -3679.2312478102745, -7156.9168158670445, -3163.554151481885, -8775.384280131375, -2023.5257772834036, 2847.6122436061196, -8148.171978971002, -6942.004792929268, -3574.7591942261693, -8002.595067333587, -2248.7866579039883, -592.9247251659305, -5621.910765398832, -4314.445473485645, -14913.709749425621, -13362.431628993945, 0.012, -0.10200000000000001, 0.99, 192.0, 0.0, 0.0, 0.0, 0.0, 0.0, 0.0, 0.0, 0.0, 0.0, 1.645919908473595E9, 0.0, 2022-02-27 10:58:28.473
126.0, -3183.424852302653, -6909.840632658081, -2991.8256988317607, -8518.965067740091, -1650.341051857597, 3181.7261197240496, -8148.440199904467, -6960.847313505092, -3760.6139493720475, -7563.316233553438, -2217.4942156665584, -837.0057746178836, -5545.154874939308, -4271.03838575344, -15078.352699083413, -13257.803113198652, 0.008, -0.10400000000000001, 0.992, 192.0, 0.0, 32.0, 126.0, 96.0, 15.5, 0.0, 0.0, 0.0, 0.0, 1.645919908481533E9, 0.0, 2022-02-27 10:58:28.481
128.0, -3569.0371476456107, -7061.631329254071, -3110.8040345673603, -8794.875001296401, -1977.1906110275522, 2926.446846299988, -8176.424583962511, -7027.72373291537, -5649.291652356584, -8645.990031479601, -2271.473678526125, -934.3029182318352, -5624.101236355453, -4372.761174769542, -15505.919218768982, -14271.767648669202, 0.008, -0.10400000000000001, 0.992, 192.0, 0.0, 0.0, 0.0, 0.0, 0.0, 0.0, 0.0, 0.0, 0.0, 1.645919908488623E9, 0.0, 2022-02-27 10:58:28.488
130.0, -3458.641881780849, -7052.042430882744, -3112.726284590517, -8603.94640015917, -1852.6690426670366, 2984.203753972501, -8144.349830669145, -6891.534553949185, -2585.4709846342785, -7351.60051007277, -2220.601108145846, -570.2153527993385, -5571.507581652115, -4249.759525031987, -14706.419671347103, -12804.308569944928, 0.008, -0.10400000000000001, 0.992, 192.0, 0.0, 0.0, 0.0, 0.0, 0.0, 0.0, 0.0, 0.0, 0.0, 1.645919908496453E9, 0.0, 2022-02-27 10:58:28.496
132.0, -3234.4762366385744, -6901.816356398625, -3012.6351729196517, -8625.694647514183, -1706.041599040222, 3176.1381836102228, -8182.168982287524, -7044.845169168136, -5619.832053164489, -8309.97625708297, -2232.0675530514186, -1069.4415652086218, -5566.992529272143, -4346.922558179207, -15578.785905693283, -14138.953583115768, 0.008, -0.10400000000000001, 0.992, 192.0, 0.0, 0.0, 0.0, 0.0, 0.0, 0.0, 0.0, 0.0, 0.0, 1.645919908504152E9, 0.0, 2022-02-27 10:58:28.504
134.0, -3664.412041236406, -7146.344440739685, -3173.5453812534074, -8757.614643289406, -2021.8493964492557, 2839.61031909112, -8147.188502214969, -6947.145694153988, -3568.925388923334, -7999.622285321032, -2241.1423613002735, -588.0967483635841, -5607.628000691891, -4306.957639093118, -14913.061548836416, -13361.537559215732, 0.008, -0.10400000000000001, 0.992, 192.0, 0.0, 0.0, 0.0, 0.0, 0.0, 0.0, 0.0, 0.0, 0.0, 1.6459199085183E9, 0.0, 2022-02-27 10:58:28.518
136.0, -3165.945788138603, -6889.0758620591005, -3002.8898123371378, -8508.884430990747, -1639.8580837080578, 3188.4986982940077, -8153.044659262259, -6937.400333571474, -3787.7713188852454, -7556.8342276613985, -2196.14829971174, -835.0164693613613, -5521.529081050048, -4250.69829829911, -15086.689899765242, -13270.945938938374, 0.008, -0.108, 0.992, 192.0, 0.0, 32.0, 126.0, 80.0, 15.5, 0.0, 0.0, 0.0, 0.0, 1.64591990852583E9, 0.0, 2022-02-27 10:58:28.525
138.0, -3566.7796214556247, -7061.787791465258, -3121.6669823726397, -8794.338559429474, -1958.3480904517282, 2925.888052688605, -8166.925092569005, -7008.4118257059845, -5611.316038527017, -8626.633420781305, -2255.4251260072147, -921.18244423657, -5609.594954203958, -4383.668826063732, -15498.721957054373, -14255.9649653393, 0.008, -0.108, 0.992, 192.0, 0.0, 0.0, 0.0, 0.0, 0.0, 0.0, 0.0, 0.0, 0.0, 1.645919908533839E9, 0.0, 2022-02-27 10:58:28.533
140.0, -3463.179285905276, -7057.518608274295, -3114.3803136802094, -8607.254458338555, -1849.2045222764639, 2984.82960281725, -8124.970868226394, -6886.684225402382, -2565.779097769153, -7361.614091588747, -2218.7682651005107, -562.1687247954279, -5556.95659601171, -4249.893635498719, -14704.09508992375, -12793.91500877321, 0.008, -0.108, 0.992, 192.0, 0.0, 0.0, 0.0, 0.0, 0.0, 0.0, 0.0, 0.0, 0.0, 1.645919908541856E9, 0.0, 2022-02-27 10:58:28.541
142.0, -3224.9543935006136, -6879.822239854603, -3002.599239659219, -8618.273868355021, -1707.1368345185322, 3165.4540497605863, -8162.8347233336835, -7035.211567307898, -5591.668855150802, -8299.11330927769, -2230.860558850832, -1066.044100051415, -5553.425020387772, -4328.012982370017, -15573.756763190839, -14127.710655654748, 0.008, -0.108, 0.992, 192.0, 0.0, 0.0, 0.0, 0.0, 0.0, 0.0, 0.0, 0.0, 0.0, 1.64591990854835E9, 0.0, 2022-02-27 10:58:28.548
144.0, -3657.237131266252, -7125.26674571833, -3166.4822300055303, -8754.999489188134, -2017.7590272139344, 2856.5529413882427, -8141.846435290151, -6927.431455544407, -3575.541505282105, -7999.644637065487, -2241.2094165336393, -591.7847861987098, -5603.247058778651, -4306.734121648565, -14921.421101262702, -13367.393716263023, 0.008, -0.108, 0.992, 192.0, 0.0, 0.0, 0.0, 0.0, 0.0, 0.0, 0.0, 0.0, 0.0, 1.645919908556467E9, 0.0, 2022-02-27 10:58:28.556
146.0, -3162.7271369370387, -6886.863039358025, -2991.378663942655, -8497.932076207648, -1627.0281823907117, 3198.0205414319685, -8151.882368550583, -6940.909557450957, -3676.236114053263, -7522.0772650333965, -2190.7391775535557, -813.0000010728838, -5510.666133244769, -4236.46023708108, -15061.723001208664, -13222.33089474808, 0.01, -0.108, 0.988, 192.0, 0.0, 40.0, 126.0, 80.0, 15.0, 112.0, 0.0, 0.0, 0.0, 1.645919908564395E9, 0.0, 2022-02-27 10:58:28.564
148.0, -3539.286975775597, -7050.67897447097, -3104.4784908865086, -8785.621379091905, -1951.2849392038513, 2942.405991841077, -8134.157435197525, -7022.694590412926, -5663.55206531907, -8641.586737821906, -2235.4203147197145, -928.7596856069191, -5597.949695342743, -4350.990575670073, -15516.335131685155, -14280.820105173601, 0.01, -0.108, 0.988, 192.0, 0.0, 0.0, 0.0, 0.0, 0.0, 0.0, 0.0, 0.0, 0.0, 1.645919908570474E9, 0.0, 2022-02-27 10:58:28.570
150.0, -3449.567073531994, -7049.2037593369205, -3101.058673984847, -8601.577115246906, -1850.3444612436845, 2993.1891552435345, -8109.682275018964, -6895.311998762131, -2566.5167053361783, -7371.292396937895, -2196.7517968120333, -561.3640619950369, -5550.876921519866, -4225.016143919962, -14699.91531371061, -12803.235686211072, 0.01, -0.108, 0.988, 192.0, 0.0, 0.0, 0.0, 0.0, 0.0, 0.0, 0.0, 0.0, 0.0, 1.64591990857807E9, 0.0, 2022-02-27 10:58:28.578
152.0, -3172.405442286187, -6855.034155253667, -2979.0628527477807, -8594.871591910314, -1687.467299397862, 3190.0633204058795, -8166.835685591184, -7017.240764765831, -5545.400744128317, -8262.25528267089, -2206.184232972173, -1056.8351813358286, -5539.678697547758, -4302.889621602252, -15561.396248507053, -14109.65044613486, 0.01, -0.108, 0.988, 192.0, 0.0, 0.0, 0.0, 0.0, 0.0, 0.0, 0.0, 0.0, 0.0, 1.645919908586132E9, 0.0, 2022-02-27 10:58:28.586
154.0, -3639.3557357020068, -7105.932486764489, -3153.808790899371, -8760.341556112953, -2027.616146518725, 2858.4304879224883, -8118.354751867623, -6936.394505070985, -3851.071459182675, -8102.84264121564, -2225.5184919260137, -606.2016613723829, -5578.123698010886, -4312.836147884864, -14985.30238691597, -13493.725775924418, 0.012, -0.108, 0.988, 192.0, 0.0, 56.0, 126.0, 80.0, 15.0, 112.0, 0.0, 0.0, 0.0, 1.64591990859411E9, 0.0, 2022-02-27 10:58:28.594
156.0, -3149.7407734085054, -6870.926245561391, -2985.410748173088, -8492.746471494016, -1647.7482495007814, 3188.2751808494545, -8133.576289841687, -6923.855176431558, -3484.5252018600945, -7463.359232349305, -2172.5895610558464, -759.6240353136105, -5510.487319289126, -4225.843158464809, -15003.273189458036, -13136.299030339604, 0.012, -0.108, 0.988, 192.0, 0.0, 0.0, 0.0, 0.0, 0.0, 0.0, 0.0, 0.0, 0.0, 1.645919908600611E9, 0.0, 2022-02-27 10:58:28.600
158.0, -3499.478518900695, -7005.461395437885, -3085.3230458883104, -8764.25311139263, -1932.6435843281251, 2971.0385764883254, -8154.698688351952, -7004.656732637493, -5588.159631271319, -8585.93089412819, -2219.1705965007063, -909.246612697436, -5587.578485915481, -4347.079020390394, -15505.382776902054, -14241.905718076912, 0.012, -0.108, 0.988, 192.0, 0.0, 0.0, 0.0, 0.0, 0.0, 0.0, 0.0, 0.0, 0.0, 1.645919908608669E9, 0.0, 2022-02-27 10:58:28.608
160.0, -3403.343665998419, -6997.14654650051, -3078.7292812739947, -8582.019338848513, -1843.3707169736288, 2988.2047162300014, -8121.238126902357, -6884.896085845958, -2506.882251129419, -7306.092358361764, -2169.8849999767544, -539.3699454510147, -5532.637898044336, -4221.797492718398, -14685.677252492578, -12773.217293407595, 0.012, -0.108, 0.988, 192.0, 0.0, 0.0, 0.0, 0.0, 0.0, 0.0, 0.0, 0.0, 0.0, 1.645919908616821E9, 0.0, 2022-02-27 10:58:28.616
162.0, -3165.1187735937565, -6830.760160775204, -2966.903503764094, -8594.402205276752, -1703.1358722610323, 3169.3209015513544, -8154.56457788522, -7032.5293579732615, -5521.976115939155, -8228.191224121001, -2178.736290781056, -1026.2803466654238, -5532.213214899685, -4302.554345435422, -15549.259251267822, -14094.160687227331, 0.012, -0.108, 0.988, 192.0, 0.0, 0.0, 0.0, 0.0, 0.0, 0.0, 0.0, 0.0, 0.0, 1.645919908623696E9, 0.0, 2022-02-27 10:58:28.623
164.0, -3611.5501655996045, -7081.099698674643, -3137.492017446997, -8735.709933723205, -2001.7998816728452, 2861.537380401776, -8119.405283857022, -6936.282746348709, -3587.90201996589, -7972.509619296744, -2196.2600584340166, -555.9549398368525, -5574.949750298232, -4287.131641761261, -14910.692263924155, -13363.660974938986, 0.014, -0.109, 0.987, 192.0, 0.0, 64.0, 126.0, 72.0, 15.0, 104.0, 0.0, 0.0, 0.0, 1.64591990863039E9, 0.0, 2022-02-27 10:58:28.630
166.0, -3118.336572448799, -6839.589099835051, -2968.5798845982417, -8477.480230031042, -1640.148656385977, 3196.746491998016, -8138.381914899578, -6957.919234981446, -3632.0243635206657, -7482.782898280967, -2154.6187585137795, -781.5510966242667, -5507.358075065384, -4232.056943423384, -15045.227413800647, -13200.42618518188, 0.014, -0.109, 0.987, 192.0, 0.0, 0.0, 0.0, 0.0, 0.0, 0.0, 0.0, 0.0, 0.0, 1.645919908646289E9, 0.0, 2022-02-27 10:58:28.646
168.0, -3509.022713783111, -6997.817098834169, -3083.534906331886, -8762.666137536304, -1954.2353694719518, 2939.1649888950574, -8173.898836839061, -7016.994895576822, -5638.652221995857, -8599.051368123457, -2204.507852138025, -914.6780866000756, -5595.3568929859275, -4343.502741277545, -15517.318608441188, -14270.180674812875, 0.014, -0.109, 0.987, 192.0, 0.0, 0.0, 0.0, 0.0, 0.0, 0.0, 0.0, 0.0, 0.0, 1.645919908653601E9, 0.0, 2022-02-27 10:58:28.653
170.0, -3427.7517709436147, -7011.205793762898, -3086.150060433157, -8587.428461006697, -1851.618510677637, 2986.103652251202, -8111.492766319843, -6892.607437683039, -2555.586702297533, -7333.7191145085235, -2170.66731103269, -544.1979222533611, -5547.8594360184, -4233.465103324068, -14701.614046289213, -12790.741061060557, 0.014, -0.109, 0.987, 192.0, 0.0, 0.0, 0.0, 0.0, 0.0, 0.0, 0.0, 0.0, 0.0, 1.645919908660995E9, 0.0, 2022-02-27 10:58:28.660
172.0, -3178.0604336333795, -6842.137198702955, -2974.368986412166, -8594.60337097685, -1684.4498138963957, 3174.707671965083, -8175.575217673209, -7046.342736046641, -5547.546511596026, -8239.434151582022, -2184.5700960838913, -1048.2521114649905, -5546.674793562269, -4313.014961840506, -15567.878254399093, -14104.710710610238, 0.014, -0.109, 0.987, 192.0, 0.0, 0.0, 0.0, 0.0, 0.0, 0.0, 0.0, 0.0, 0.0, 1.645919908668923E9, 0.0, 2022-02-27 10:58:28.668
174.0, -3624.313011683585, -7090.666245301515, -3144.2422442724996, -8737.989811657646, -2010.8523381772445, 2853.4907523978654, -8140.661792834019, -6960.623796060539, -3615.439369134828, -7976.644692020976, -2198.1599567127178, -581.5253354937239, -5601.794195389056, -4279.353234690814, -14938.386075304279, -13376.736745445342, 0.015, -0.1085, 0.9884999999999999, 192.0, 0.0, 64.0, 126.0, 80.0, 15.0, 120.0, 0.0, 0.0, 0.0, 1.645919908676126E9, 0.0, 2022-02-27 10:58:28.676
176.0, -3127.500787675475, -6843.880634770469, -2973.92195152306, -8480.095384132312, -1645.9601099443569, 3195.941829197625, -8172.088345538181, -6930.739513723793, -3645.7706863606795, -7475.205656910617, -2149.5896160113357, -795.1633089975487, -5504.3182378194615, -4219.942297928607, -15054.011649371583, -13202.191972993849, 0.015, -0.1085, 0.9884999999999999, 192.0, 0.0, 0.0, 0.0, 0.0, 0.0, 0.0, 0.0, 0.0, 0.0, 1.645919908683645E9, 0.0, 2022-02-27 10:58:28.683
178.0, -3511.436702184284, -7006.713093127381, -3085.7030255440504, -8766.197713160243, -1945.8311135567562, 2952.151352423591, -8159.28079596529, -7015.698494398415, -5664.133210674908, -8614.898754942269, -2206.0054190165306, -935.3758019656899, -5596.876811608889, -4356.869084461819, -15522.2136404769, -14274.427506259384, 0.015, -0.1085, 0.9884999999999999, 192.0, 0.0, 0.0, 0.0, 0.0, 0.0, 0.0, 0.0, 0.0, 0.0, 1.645919908691557E9, 0.0, 2022-02-27 10:58:28.691
180.0, -3421.135654584844, -6998.420595934463, -3087.759386033939, -8583.98629236058, -1848.0645833092433, 2987.9588470409926, -8137.264327676813, -6900.832879642592, -2544.589644025522, -7329.427579573105, -2171.9190087221873, -546.1648757654281, -5540.282194648051, -4233.576862046345, -14695.512020052913, -12790.942226760653, 0.015, -0.1085, 0.9884999999999999, 192.0, 0.0, 0.0, 0.0, 0.0, 0.0, 0.0, 0.0, 0.0, 0.0, 1.645919908698659E9, 0.0, 2022-02-27 10:58:28.698
182.0, -3156.9380351231143, -6815.516271056685, -2970.882114277138, -8590.311836041432, -1690.2612674547754, 3168.784459684427, -8177.497467696366, -7034.161035318499, -5509.682656488736, -8212.902630913572, -2170.443793588137, -1042.7088788400745, -5535.275403890062, -4305.370665236791, -15559.98808860637, -14095.83706806148, 0.015, -0.1085, 0.9884999999999999, 192.0, 0.0, 0.0, 0.0, 0.0, 0.0, 0.0, 0.0, 0.0, 0.0, 1.645919908705761E9, 0.0, 2022-02-27 10:58:28.705
184.0, -3624.2012529613085, -7097.3941203825625, -3145.2257210285334, -8754.150122898833, -2021.1341406266858, 2849.042755251259, -8144.483941135877, -6955.6393570470045, -3617.0933982245206, -8000.806927777163, -2196.438872389659, -599.0267514022293, -5595.736872641668, -4303.001380324528, -14936.150900858749, -13394.908713687506, 0.0165, -0.10925, 0.99125, 192.0, 0.0, 72.0, 126.0, 72.0, 15.5, 8.0, 0.0, 0.0, 0.0, 1.64591990871318E9, 0.0, 2022-02-27 10:58:28.713
186.0, -3126.472607430531, -6856.5540738766285, -2978.4593556474874, -8503.654122788206, -1658.2982728836862, 3170.10321260729, -8175.150534528558, -6979.511020125273, -3593.6464182909035, -7488.0355582279635, -2153.9035026912097, -811.1671580275486, -5518.980982182144, -4250.877112254752, -15062.035925631038, -13208.875144585985, 0.0165, -0.10925, 0.99125, 192.0, 0.0, 0.0, 0.0, 0.0, 0.0, 0.0, 0.0, 0.0, 0.0, 1.645919908721481E9, 0.0, 2022-02-27 10:58:28.721
188.0, -3490.6942833297594, -7002.935648314435, -3086.3288743887992, -8790.494059383162, -1968.6969481345354, 2911.627639726119, -8194.171869060025, -7055.574006506683, -5655.125457659418, -8616.441025309685, -2198.3611224128153, -946.954005593539, -5594.596933674447, -4355.952662939151, -15545.59356517715, -14309.810317732135, 0.0165, -0.10925, 0.99125, 192.0, 0.0, 0.0, 0.0, 0.0, 0.0, 0.0, 0.0, 0.0, 0.0, 1.645919908729319E9, 0.0, 2022-02-27 10:58:28.729
190.0, -3420.219233062176, -7013.262154252787, -3088.362883134232, -8614.809347964449, -1875.2443045668967, 2956.889922248116, -8152.374106928601, -6917.909612406446, -2520.9862018807175, -7347.286623392895, -2164.520581307481, -565.0520998301625, -5554.274386677073, -4228.570071288356, -14711.985255716474, -12814.746834605556, 0.0165, -0.10925, 0.99125, 192.0, 0.0, 0.0, 0.0, 0.0, 0.0, 0.0, 0.0, 0.0, 0.0, 1.645919908735829E9, 0.0, 2022-02-27 10:58:28.735
192.0, -3163.1071165927788, -6834.001163721224, -2974.9724835124593, -8609.824908950915, -1704.0075902947892, 3148.846703630293, -8202.57612497522, -7092.096756946655, -5480.848906141389, -8223.407950807567, -2178.199848914129, -1070.849725109306, -5552.3297849094615, -4331.209281827126, -15564.614899708618, -14112.019731047123, 0.0165, -0.10925, 0.99125, 192.0, 0.0, 0.0, 0.0, 0.0, 0.0, 0.0, 0.0, 0.0, 0.0, 1.645919908744373E9, 0.0, 2022-02-27 10:58:28.744
194.0, -3629.565671630582, -7087.8275737556905, -3158.81558165736, -8763.247282892142, -2037.2050448900516, 2832.2342434208686, -8173.80942986124, -6974.593636345106, -3629.8115408195904, -7999.711692298853, -2188.1016717078296, -608.4815393068242, -5609.662009437324, -4310.980953095073, -14958.010906936039, -13432.660810072519, 0.018250000000000002, -0.109625, 0.988625, 192.0, 0.0, 80.0, 126.0, 72.0, 15.0, 104.0, 0.0, 0.0, 0.0, 1.645919908751839E9, 0.0, 2022-02-27 10:58:28.751
196.0, -3138.3413837362987, -6853.335422675064, -2995.759605855895, -8500.63663728674, -1662.790973519203, 3178.552172011396, -8175.754031628851, -6966.345842641097, -3564.097412120988, -7487.38735763876, -2154.372889324771, -813.7152568954536, -5538.091723691431, -4233.8450829798085, -15055.397457527812, -13200.42618518188, 0.018250000000000002, -0.109625, 0.988625, 192.0, 0.0, 0.0, 0.0, 0.0, 0.0, 0.0, 0.0, 0.0, 0.0, 1.6459199087656E9, 0.0, 2022-02-27 10:58:28.765
198.0, -3496.729254332692, -6980.896828281502, -3094.3755023927097, -8772.031518463078, -1964.29365447684, 2944.015317441859, -8228.615907265652, -7068.538018290761, -5666.368385120438, -8624.241784124588, -2200.059854991419, -943.8471131142513, -5609.550250715048, -4363.820476987419, -15562.17855956299, -14317.16404165793, 0.018250000000000002, -0.109625, 0.988625, 192.0, 0.0, 0.0, 0.0, 0.0, 0.0, 0.0, 0.0, 0.0, 0.0, 1.645919908773517E9, 0.0, 2022-02-27 10:58:28.773
200.0, -3439.39702980483, -7019.945325844923, -3104.7690635644276, -8610.316647328931, -1880.1393366026089, 2969.988044498926, -8118.555917567721, -6909.907687891447, -2518.0581233570724, -7347.420733859627, -2171.04729068843, -572.651692944967, -5560.465819891193, -4238.717763271065, -14710.465337093514, -12816.557325906435, 0.018250000000000002, -0.109625, 0.988625, 192.0, 0.0, 0.0, 0.0, 0.0, 0.0, 0.0, 0.0, 0.0, 0.0, 1.645919908781415E9, 0.0, 2022-02-27 10:58:28.781
202.0, -3187.492869793519, -6855.525893631684, -2991.7139401094846, -8611.054254895957, -1701.9065263159903, 3166.616340472262, -8170.769592615318, -7049.047297125733, -5471.41646998125, -8239.791779493306, -2189.375721141782, -1075.431832722644, -5562.43277340326, -4326.895395147252, -15558.848149639149, -14100.910914052834, 0.018250000000000002, -0.109625, 0.988625, 192.0, 0.0, 0.0, 0.0, 0.0, 0.0, 0.0, 0.0, 0.0, 0.0, 1.645919908788254E9, 0.0, 2022-02-27 10:58:28.788
204.0, -3660.858113868012, -7110.894574033568, -3175.8699626767593, -8774.333748141975, -2027.1691116296188, 2831.407228876022, -8143.858092291128, -6948.0397639322, -3667.2283610377744, -8049.9584138343835, -2223.126855269296, -629.8051035171871, -5624.034181122087, -4324.771979423997, -14959.262604625537, -13436.125330463092, 0.014125000000000002, -0.1078125, 0.9863124999999999, 192.0, 0.0, 40.0, 126.0, 88.0, 15.0, 96.0, 0.0, 0.0, 0.0, 1.645919908796148E9, 0.0, 2022-02-27 10:58:28.796
206.0, -3178.172192355656, -6883.912609089924, -3012.50106245292, -8513.600649070817, -1658.4547350948735, 3163.4423927596085, -8160.398383188056, -6965.630586818527, -3559.3364905520075, -7502.139508979262, -2184.4583373616147, -839.4868182524226, -5549.647575574824, -4256.755621046498, -15052.625841215355, -13207.958723063317, 0.014125000000000002, -0.1078125, 0.9863124999999999, 192.0, 0.0, 0.0, 0.0, 0.0, 0.0, 0.0, 0.0, 0.0, 0.0, 1.645919908804157E9, 0.0, 2022-02-27 10:58:28.804
208.0, -3549.859350902957, -7035.591546963638, -3115.743770091983, -8793.466841395717, -1952.8942648046334, 2926.6480120000856, -8173.720022883418, -7049.941366903945, -5689.681254587324, -8656.540054862506, -2241.120009555818, -994.5632212833431, -5618.289782797073, -4373.319968380924, -15559.339888017164, -14332.966724987833, 0.014125000000000002, -0.1078125, 0.9863124999999999, 192.0, 0.0, 0.0, 0.0, 0.0, 0.0, 0.0, 0.0, 0.0, 0.0, 1.645919908811381E9, 0.0, 2022-02-27 10:58:28.811
210.0, -3489.666103084815, -7056.088096629155, -3127.0537527863685, -8627.929821959713, -1863.979025361422, 2961.024994972348, -8137.487845121365, -6918.17783333991, -2528.921071162352, -7389.397309946694, -2210.0734365073963, -594.3552368110701, -5578.168401499796, -4238.293080126415, -14717.349674385749, -12830.080131301896, 0.014125000000000002, -0.1078125, 0.9863124999999999, 192.0, 0.0, 0.0, 0.0, 0.0, 0.0, 0.0, 0.0, 0.0, 0.0, 1.645919908817845E9, 0.0, 2022-02-27 10:58:28.817
212.0, -3226.094332467834, -6879.576370665595, -3010.6905711520403, -8623.638287024294, -1675.7326335588257, 3155.9322066226255, -8184.00182533286, -7064.849980455635, -5448.193007492186, -8250.900596487594, -2223.417427947215, -1103.2597545695014, -5578.168401499796, -4313.66316242971, -15569.778152677794, -14102.27437046461, 0.014125000000000002, -0.1078125, 0.9863124999999999, 192.0, 0.0, 0.0, 0.0, 0.0, 0.0, 0.0, 0.0, 0.0, 0.0, 1.645919908825794E9, 0.0, 2022-02-27 10:58:28.825
214.0, -3700.264239342718, -7148.601966929671, -3184.743605225516, -8783.49796336865, -2013.9592306565323, 2839.185635946469, -8156.240958719369, -6947.99506044329, -3687.0320066251766, -8067.5045332317995, -2240.2482915220608, -650.324004927159, -5623.1848148327845, -4300.967371579096, -14975.355860633357, -13449.75989458083, 0.013062500000000001, -0.10790625000000001, 0.98515625, 192.0, 0.0, 48.0, 126.0, 80.0, 15.0, 96.0, 0.0, 0.0, 0.0, 1.645919908833816E9, 0.0, 2022-02-27 10:58:28.833
216.0, -3212.9515067281136, -6904.69973143336, -3019.854786378716, -8522.139015452745, -1632.951394671368, 3171.8019451858936, -8140.550034111743, -6940.976612684323, -3557.4589440177615, -7519.260945232028, -2205.916012038709, -847.8687224231628, -5549.200540685719, -4247.770219775465, -15055.50921625009, -13185.5622751191, 0.013062500000000001, -0.10790625000000001, 0.98515625, 192.0, 0.0, 0.0, 0.0, 0.0, 0.0, 0.0, 0.0, 0.0, 0.0, 1.645919908840814E9, 0.0, 2022-02-27 10:58:28.840
218.0, -3559.0459178740884, -7033.088151584644, -3115.788473580894, -8796.21610596372, -1927.100351703209, 2939.276747617334, -8156.66564186402, -7026.114407314588, -5699.493670403203, -8664.921959033247, -2252.1617713167398, -1000.7546544974631, -5619.943811886766, -4366.167410155226, -15563.720829930406, -14319.689788781381, 0.013062500000000001, -0.10790625000000001, 0.98515625, 192.0, 0.0, 0.0, 0.0, 0.0, 0.0, 0.0, 0.0, 0.0, 0.0, 1.645919908848453E9, 0.0, 2022-02-27 10:58:28.848
220.0, -3504.150033491854, -7063.3524135771295, -3126.6737731306284, -8626.096978914378, -1837.425152948517, 2974.5925038567193, -8116.32074312219, -6890.081690559589, -2540.879254445941, -7408.128071800241, -2215.6166691323124, -598.5350130242125, -5574.078032264475, -4229.173568388649, -14712.700511539044, -12813.606895638335, 0.013062500000000001, -0.10790625000000001, 0.98515625, 192.0, 0.0, 0.0, 0.0, 0.0, 0.0, 0.0, 0.0, 0.0, 0.0, 1.645919908856387E9, 0.0, 2022-02-27 10:58:28.856
222.0, -3230.452922636619, -6880.31397823262, -3008.7012658955177, -8615.569307275928, -1655.6831187824152, 3173.34421555331, -8161.09128726617, -7030.852977139113, -5449.1988359926745, -8263.909311760583, -2226.0996372818518, -1096.1966033216243, -5558.275348934573, -4303.202546024626, -15564.681954941983, -14079.654405075838, 0.013062500000000001, -0.10790625000000001, 0.98515625, 192.0, 0.0, 0.0, 0.0, 0.0, 0.0, 0.0, 0.0, 0.0, 0.0, 1.645919908864419E9, 0.0, 2022-02-27 10:58:28.864
224.0, -3692.4187770389053, -7140.220062758931, -3181.144974368212, -8777.708861554725, -1991.8980588791442, 2847.2546156948347, -8108.587039540654, -6929.174891611921, -3695.9280009183885, -8089.74451896483, -2252.854675394854, -652.8050485616981, -5617.887451396877, -4301.548516934934, -14964.872892483818, -13435.454778129433, 0.012, -0.108, 0.992, 192.0, 0.0, 48.0, 126.0, 80.0, 15.5, 0.0, 0.0, 0.0, 0.0, 1.645919908871775E9, 0.0, 2022-02-27 10:58:28.871
226.0, -3206.8941839807253, -6899.871754631014, -3013.9092223536045, -8523.770692797982, -1624.4800835228068, 3175.4452795321085, -8122.311010636212, -6941.356592340064, -3601.7601015281803, -7542.104428065351, -2203.256154448528, -850.3721178021572, -5532.235566644141, -4243.143408673216, -15052.6034894709, -13211.557353920622, 0.012, -0.108, 0.992, 192.0, 0.0, 0.0, 0.0, 0.0, 0.0, 0.0, 0.0, 0.0, 0.0, 1.645919908878035E9, 0.0, 2022-02-27 10:58:28.878
228.0, -3572.300502336085, -7054.925805917479, -3114.112092746746, -8796.238457708176, -1910.8059299952902, 2945.4905325759096, -8152.530569139787, -7027.857843382102, -5666.569550820536, -8679.942331307213, -2261.7059661991557, -989.3776165697118, -5612.701846683246, -4354.008061171539, -15543.98423957637, -14298.075651893098, 0.012, -0.108, 0.992, 192.0, 0.0, 0.0, 0.0, 0.0, 0.0, 0.0, 0.0, 0.0, 0.0, 1.645919908893093E9, 0.0, 2022-02-27 10:58:28.893
230.0, -3499.4338154117845, -7054.165846605998, -3112.748636334972, -8621.85014746787, -1827.590385388182, 2975.464221890476, -8107.000065684327, -6890.036987070678, -2532.3408880640136, -7397.5780484173365, -2224.6244221478014, -597.6409432460002, -5571.127601996374, -4217.841233949809, -14708.00664520343, -12808.890677558265, 0.012, -0.108, 0.992, 192.0, 0.0, 0.0, 0.0, 0.0, 0.0, 0.0, 0.0, 0.0, 0.0, 1.645919908900781E9, 0.0, 2022-02-27 10:58:28.900
232.0, -3238.1195709847893, -6870.389803694464, -2994.016169788381, -8619.682028255706, -1657.4936100832952, 3204.8378234908373, -8151.27887145029, -7031.948212617423, -5469.427164724728, -8263.059945471281, -2228.603032660846, -1092.0838823418478, -5556.040174489042, -4273.251208454515, -15553.439027480965, -14086.292873179063, 0.012, -0.108, 0.992, 192.0, 0.0, 0.0, 0.0, 0.0, 0.0, 0.0, 0.0, 0.0, 0.0, 1.645919908908751E9, 0.0, 2022-02-27 10:58:28.908
234.0, -3693.9163439174113, -7118.874146804113, -3164.6046834712847, -8767.918797483302, -1988.2547245329292, 2852.216702963913, -8137.621955588098, -6928.3478770670745, -3680.2370763107633, -8055.568701692665, -2244.271605524016, -647.3959264035137, -5606.689227424768, -4294.440662198146, -14956.870967968818, -13428.168109437003, 0.016, -0.108, 0.99, 192.0, 0.0, 64.0, 126.0, 80.0, 15.0, 120.0, 0.0, 0.0, 0.0, 1.645919908916624E9, 0.0, 2022-02-27 10:58:28.916
236.0, -3204.1896229016334, -6885.231362012788, -2997.279524478856, -8495.786308739938, -1610.8008159161589, 3182.2178581020667, -8120.254650146324, -6927.185586355399, -3482.379434392385, -7481.553552335925, -2190.7391775535557, -824.2429285339033, -5534.940127723233, -4226.69252475411, -15023.412111212268, -13149.665373523876, 0.016, -0.108, 0.99, 192.0, 0.0, 0.0, 0.0, 0.0, 0.0, 0.0, 0.0, 0.0, 0.0, 1.645919908923392E9, 0.0, 2022-02-27 10:58:28.923
238.0, -3536.7165251632364, -7013.239802508331, -3088.8322697677936, -8765.191884659755, -1896.746682732902, 2976.760623068884, -8144.998031258349, -7011.384607718541, -5700.946533792799, -8646.459418113163, -2235.9791083310974, -983.0297211444046, -5605.3928262463605, -4324.771979423997, -15548.812216378716, -14298.96972167131, 0.016, -0.108, 0.99, 192.0, 0.0, 0.0, 0.0, 0.0, 0.0, 0.0, 0.0, 0.0, 0.0, 1.645919908931307E9, 0.0, 2022-02-27 10:58:28.931
240.0, -3480.8818675138796, -7032.43995099544, -3095.4036826376537, -8597.330283800398, -1827.7691993438245, 2992.2950854653222, -8088.492821275333, -6879.643425898961, -2503.171861549838, -7354.081553707309, -2190.180383942173, -568.4048614984586, -5551.882750020355, -4195.914172639153, -14693.254493862927, -12791.366909905304, 0.016, -0.108, 0.99, 192.0, 0.0, 0.0, 0.0, 0.0, 0.0, 0.0, 0.0, 0.0, 0.0, 1.645919908939364E9, 0.0, 2022-02-27 10:58:28.939
242.0, -3203.8990502237143, -6851.636690096461, -2974.3913381566213, -8586.713205184127, -1641.8697407090356, 3189.035140160935, -8139.343039911157, -7027.947250359924, -5392.291294609463, -8215.517785014843, -2196.14829971174, -1068.8380681083283, -5546.160703439797, -4267.618568851777, -15532.763663859805, -14041.164701123798, 0.016, -0.108, 0.99, 192.0, 0.0, 0.0, 0.0, 0.0, 0.0, 0.0, 0.0, 0.0, 0.0, 1.645919908946575E9, 0.0, 2022-02-27 10:58:28.946
244.0, -3668.681224427369, -7108.5476408657605, -3147.885578618715, -8749.54566354104, -1971.7367853804571, 2868.533476416287, -8100.451004558922, -6921.441188030385, -3726.97457396681, -8063.347108763112, -2220.221128490106, -637.9634902433742, -5611.897183882855, -4270.189019464137, -14963.48708432759, -13441.869728788106, 0.012, -0.108, 0.992, 192.0, 0.0, 48.0, 126.0, 80.0, 15.5, 0.0, 0.0, 0.0, 0.0, 1.645919908952912E9, 0.0, 2022-02-27 10:58:28.952
246.0, -3193.5725442853627, -6868.802829838137, -2982.1250417381575, -8482.621131255763, -1588.2926092496646, 3195.226573375055, -8091.890286432539, -6922.871699675525, -3488.9731990067007, -7456.944281690631, -2179.3621396258045, -827.8862628801182, -5529.016915442577, -4206.240678577505, -15009.643436627799, -13137.997762918207, 0.012, -0.108, 0.992, 192.0, 0.0, 0.0, 0.0, 0.0, 0.0, 0.0, 0.0, 0.0, 0.0, 1.645919908960992E9, 0.0, 2022-02-27 10:58:28.960
248.0, -3528.446379714773, -6997.392415689518, -3070.5485428033526, -8750.283271108065, -1869.5446097307934, 2976.2018294575014, -8142.204063201436, -7039.1678260764875, -5731.568423696569, -8635.082380185411, -2226.0102303040303, -998.2512591184687, -5595.15572728583, -4324.704924190632, -15544.07364655419, -14306.792832230669, 0.012, -0.108, 0.992, 192.0, 0.0, 0.0, 0.0, 0.0, 0.0, 0.0, 0.0, 0.0, 0.0, 1.645919908969032E9, 0.0, 2022-02-27 10:58:28.969
250.0, -3491.6554083413375, -7039.6372127100485, -3082.886705742682, -8594.648074465762, -1818.1803009724977, 2998.464166934987, -8085.095356118126, -6878.8611148430255, -2526.4623792722678, -7360.0718212213305, -2179.7197675370894, -575.2891987906931, -5552.0392122315425, -4196.718835439544, -14687.711261238012, -12800.10644198733, 0.012, -0.108, 0.992, 192.0, 0.0, 0.0, 0.0, 0.0, 0.0, 0.0, 0.0, 0.0, 0.0, 1.645919908976072E9, 0.0, 2022-02-27 10:58:28.976
252.0, -3203.027332189957, -6850.2732336846875, -2955.146486180602, -8576.207885290132, -1621.1273218545107, 3209.6434485487284, -8136.951403254438, -7043.302898800719, -5392.11248065382, -8195.110642327147, -2181.7537762825223, -1087.7699956619736, -5545.736020295146, -4262.544722860423, -15531.154338259023, -14046.573823281984, 0.012, -0.108, 0.992, 192.0, 0.0, 0.0, 0.0, 0.0, 0.0, 0.0, 0.0, 0.0, 0.0, 1.645919908983632E9, 0.0, 2022-02-27 10:58:28.983
254.0, -3689.5801054930816, -7121.489300905383, -3138.296680247388, -8744.516521038595, -1975.2460092599404, 2869.7404706168736, -8108.1847081404585, -6927.006772399756, -3741.7714287962235, -8077.384004281045, -2215.43785517667, -659.5105718982902, -5609.572602459503, -4301.034426812462, -14973.232444910103, -13469.652947146053, 0.012, -0.108, 0.99, 192.0, 0.0, 48.0, 126.0, 80.0, 15.0, 120.0, 0.0, 0.0, 0.0, 1.645919908991732E9, 0.0, 2022-02-27 10:58:28.991
0.0, -3214.6725910511723, -6897.74833890776, -2984.2261057169567, -8491.472422060064, -1611.5607752276392, 3188.7892709719267, -8107.2459348733355, -6926.067999132633, -3473.326977887986, -7478.848991256833, -2176.121136679785, -840.8055711752858, -5533.151988166808, -4235.923795214152, -15013.957323307674, -13149.240690379225, 0.012, -0.108, 0.99, 192.0, 0.0, 0.0, 0.0, 0.0, 0.0, 0.0, 0.0, 0.0, 0.0, 1.645919908998688E9, 0.0, 2022-02-27 10:58:28.998
2.0, -3543.1091240774545, -7017.933668843945, -3079.176316163101, -8765.057774193023, -1885.2802378273295, 2979.8451638037163, -8141.064124234215, -7024.505081713806, -5740.2856040341385, -8641.832607010914, -2231.4864076955805, -1018.7701605284406, -5617.239250807674, -4347.235482601582, -15559.473998483898, -14327.155271429452, 0.012, -0.108, 0.99, 192.0, 0.0, 0.0, 0.0, 0.0, 0.0, 0.0, 0.0, 0.0, 0.0, 1.645919909013278E9, 0.0, 2022-02-27 10:58:29.013
4.0, -3503.8147573250244, -7052.10948611611, -3099.9857902509916, -8604.773414704016, -1821.108379496143, 2980.7615853263837, -8119.002952456827, -6890.975760337801, -2520.472111758246, -7384.2564087219735, -2192.48261362107, -594.0423123886958, -5571.418174674293, -4230.827597478342, -14697.411918331614, -12818.524279418503, 0.012, -0.108, 0.99, 192.0, 0.0, 0.0, 0.0, 0.0, 0.0, 0.0, 0.0, 0.0, 0.0, 1.645919909021218E9, 0.0, 2022-02-27 10:58:29.021
6.0, -3204.30138162391, -6852.776629063682, -2972.089108477725, -8574.397393989253, -1623.2060340888543, 3210.9622014715915, -8140.661792834019, -7039.391343521041, -5384.9822741725775, -8193.05428183726, -2201.2221457030946, -1091.1898125636355, -5557.515389623093, -4287.1986969946265, -15532.383684204066, -14046.640878515349, 0.012, -0.108, 0.99, 192.0, 0.0, 0.0, 0.0, 0.0, 0.0, 0.0, 0.0, 0.0, 0.0, 1.64591990902834E9, 0.0, 2022-02-27 10:58:29.028
8.0, -3680.751166433235, -7117.041303758777, -3151.171285053645, -8748.62924201837, -1960.7173753639909, 2867.0806130266924, -8104.116690649592, -6956.42166810294, -3757.7752778262234, -8063.011832596283, -2222.6798203801895, -655.1743334739606, -5612.098349582952, -4294.686531387154, -14971.44430535368, -13471.083458791192, 0.012, -0.11, 0.988, 192.0, 0.0, 48.0, 126.0, 72.0, 15.0, 112.0, 0.0, 0.0, 0.0, 1.645919909035926E9, 0.0, 2022-02-27 10:58:29.035
10.0, -3208.190585159133, -6884.426699212397, -2994.4408529330317, -8490.108965648289, -1598.0156180877232, 3194.0195791744686, -8108.542336051743, -6911.852289659058, -3517.181100509298, -7490.33778790686, -2185.0394827174523, -847.3322805562354, -5536.1918254127295, -4231.632260278733, -15020.34992222189, -13166.518588843179, 0.012, -0.11, 0.988, 192.0, 0.0, 0.0, 0.0, 0.0, 0.0, 0.0, 0.0, 0.0, 0.0, 1.645919909043986E9, 0.0, 2022-02-27 10:58:29.043
12.0, -3535.2636617736416, -7007.316590227675, -3073.8789527271933, -8755.357117099418, -1868.0470428522879, 2982.3709109271663, -8133.620993330597, -7022.851052624113, -5702.242934971206, -8639.32921163192, -2232.8498641073543, -1003.6380295321977, -5607.404483247338, -4342.586319754877, -15537.748102873338, -14303.797698473658, 0.012, -0.11, 0.988, 192.0, 0.0, 0.0, 0.0, 0.0, 0.0, 0.0, 0.0, 0.0, 0.0, 1.645919909051927E9, 0.0, 2022-02-27 10:58:29.051
14.0, -3499.277353200597, -7043.660526712004, -3091.8944587581705, -8598.291408811976, -1799.5836495856822, 2996.4078064450987, -8070.924350133461, -6873.004957795734, -2494.9911230791954, -7367.626710847225, -2194.4272153886814, -587.7614721967545, -5561.650462347325, -4224.189129375116, -14674.277862820372, -12792.708014572623, 0.012, -0.11, 0.988, 192.0, 0.0, 0.0, 0.0, 0.0, 0.0, 0.0, 0.0, 0.0, 0.0, 1.645919909058462E9, 0.0, 2022-02-27 10:58:29.058
16.0, -3207.0282944474575, -6852.553111619129, -2969.9656927544706, -8581.795821403959, -1599.244964032765, 3214.11379743979, -8120.366408868601, -7004.120290770566, -5370.744212954547, -8178.615054919131, -2205.446625405148, -1095.2354783100461, -5552.95563375421, -4294.284199986959, -15510.143698471034, -14025.406721282807, 0.012, -0.11, 0.988, 192.0, 0.0, 0.0, 0.0, 0.0, 0.0, 0.0, 0.0, 0.0, 0.0, 1.645919909065455E9, 0.0, 2022-02-27 10:58:29.065
18.0, -3692.307018316629, -7117.510690392339, -3147.4161919851535, -8755.893558966347, -1942.5007036329155, 2872.243865995868, -8085.654149729508, -6926.313868321642, -3771.521600666237, -8084.223638084369, -2235.085038552885, -670.2394092368376, -5611.561907716025, -4291.199659252126, -14964.269395383526, -13460.488731919377, 0.014, -0.106, 0.986, 192.0, 0.0, 56.0, 126.0, 88.0, 15.0, 104.0, 0.0, 0.0, 0.0, 1.64591990907402E9, 0.0, 2022-02-27 10:58:29.074
20.0, -3197.6629135206836, -6876.603588653039, -2985.3883964286324, -8485.549209779407, -1580.603609157039, 3207.4753293365634, -8111.984504697861, -6918.8930891624805, -3413.9830963591453, -7443.421476295171, -2185.732386795567, -829.8532163921853, -5513.013066412576, -4216.0530943933845, -14987.49285787259, -13115.891887651907, 0.014, -0.106, 0.986, 192.0, 0.0, 0.0, 0.0, 0.0, 0.0, 0.0, 0.0, 0.0, 0.0, 1.645919909081398E9, 0.0, 2022-02-27 10:58:29.081
22.0, -3523.2384232566865, -7000.789880846725, -3074.7730225054056, -8758.978099701179, -1845.4494292079723, 2992.4515476765096, -8104.586077283154, -7016.3913984765295, -5744.42067675837, -8631.863728983848, -2228.379515216293, -1019.6418785621976, -5590.931247583777, -4357.159657139738, -15556.635326938072, -14318.035759691687, 0.014, -0.106, 0.986, 192.0, 0.0, 0.0, 0.0, 0.0, 0.0, 0.0, 0.0, 0.0, 0.0, 1.645919909088249E9, 0.0, 2022-02-27 10:58:29.088
24.0, -3502.987742780178, -7041.023020866278, -3093.9955227369696, -8608.975542661612, -1796.6108675731264, 3005.996704816426, -8073.159524578992, -6875.441297941363, -2514.548899477589, -7386.715100612057, -2191.633247331768, -587.2697338187378, -5559.459991390704, -4232.548681801401, -14680.402240801126, -12800.978160021086, 0.014, -0.106, 0.986, 192.0, 0.0, 0.0, 0.0, 0.0, 0.0, 0.0, 0.0, 0.0, 0.0, 1.645919909095992E9, 0.0, 2022-02-27 10:58:29.095
26.0, -3197.39469258722, -6838.8291405235705, -2960.5556083387864, -8576.69962366815, -1589.4548999613405, 3232.553986615418, -8118.913545479006, -7014.96088683139, -5328.544119422927, -8162.946482055961, -2193.7119595661115, -1084.3054752714008, -5543.456142360705, -4291.892563330241, -15505.092204224135, -14001.490354715628, 0.014, -0.106, 0.986, 192.0, 0.0, 0.0, 0.0, 0.0, 0.0, 0.0, 0.0, 0.0, 0.0, 1.645919909103969E9, 0.0, 2022-02-27 10:58:29.103
28.0, -3686.696730458347, -7111.945106022967, -3140.3306889928213, -8750.864416463903, -1924.194624924019, 2903.2680872998344, -8075.17118157997, -6917.9543158953575, -3788.5089264522708, -8087.55404800821, -2216.577794143891, -659.7787928317539, -5593.635808662869, -4297.793423866442, -14962.43655233819, -13466.478999433399, 0.014, -0.108, 0.992, 192.0, 0.0, 56.0, 126.0, 80.0, 15.5, 0.0, 0.0, 0.0, 0.0, 1.645919909110829E9, 0.0, 2022-02-27 10:58:29.110
30.0, -3204.8378234908373, -6886.304245746643, -2987.176535985057, -8483.403442311697, -1568.5113154067178, 3240.3100419414095, -8084.044824128727, -6919.764807196237, -3403.522479954062, -7447.891825186232, -2173.1707064116845, -820.4207802320458, -5510.107339633387, -4217.193033360605, -14982.173142692227, -13096.937608353808, 0.014, -0.108, 0.992, 192.0, 0.0, 0.0, 0.0, 0.0, 0.0, 0.0, 0.0, 0.0, 0.0, 1.64591990911883E9, 0.0, 2022-02-27 10:58:29.118
32.0, -3514.8565190859463, -6996.230124977842, -3073.700138771551, -8754.753619999126, -1837.3133942262405, 3051.4825047829754, -8117.438330344955, -7012.792767619225, -5744.443028502826, -8627.549842303973, -2218.7459133560556, -1008.6001168012759, -5584.2033725027295, -4332.818607427908, -15549.169844290001, -14307.39632933096, 0.014, -0.108, 0.992, 192.0, 0.0, 0.0, 0.0, 0.0, 0.0, 0.0, 0.0, 0.0, 0.0, 1.645919909125629E9, 0.0, 2022-02-27 10:58:29.125
34.0, -3491.096614729955, -7034.518663229784, -3083.914885987626, -8600.571286746417, -1781.4563848324283, 3024.794521903339, -8101.501536548321, -6872.513219417718, -2512.5148907321563, -7369.906588781666, -2181.5526105824247, -574.8198121571318, -5546.9877179846435, -4210.286344323915, -14676.66949947709, -12792.663311083712, 0.014, -0.108, 0.992, 192.0, 0.0, 0.0, 0.0, 0.0, 0.0, 0.0, 0.0, 0.0, 0.0, 1.645919909140377E9, 0.0, 2022-02-27 10:58:29.140
36.0, -3202.692056023128, -6844.014745237201, -2957.851047259694, -8575.671443423205, -1584.761033625726, 3239.818303563393, -8112.1186151645925, -7019.319477000175, -5328.253546745008, -8145.199196958447, -2186.67116006269, -1074.336597244334, -5532.436732344238, -4275.329920688859, -15506.723881569373, -14008.44174724123, 0.015, -0.109, 0.991, 192.0, 0.0, 64.0, 126.0, 72.0, 15.0, 120.0, 0.0, 0.0, 0.0, 1.645919909148258E9, 0.0, 2022-02-27 10:58:29.148
38.0, -3689.513050259716, -7114.202632212953, -3136.7767616244273, -8760.654480535326, -1944.7582298229015, 2894.9085348735493, -8081.273207816269, -6942.4294760739185, -3807.9549441283875, -8093.790184711241, -2220.6234598903015, -663.936217300441, -5599.648427921346, -4272.133621231749, -14970.639642553288, -13486.66262467654, 0.015, -0.109, 0.991, 192.0, 0.0, 0.0, 0.0, 0.0, 0.0, 0.0, 0.0, 0.0, 0.0, 1.64591990915633E9, 0.0, 2022-02-27 10:58:29.156
40.0, -3218.4500358641194, -6897.949504607857, -2982.3932626716214, -8494.10992790579, -1586.4374144598742, 3222.361591143798, -8068.935044876939, -6916.590859483584, -3459.4018410923295, -7470.534142319459, -2180.7255960375783, -835.8434839062076, -5517.9975054261095, -4246.853798252797, -14997.372328921836, -13145.97733568875, 0.015, -0.109, 0.991, 192.0, 0.0, 0.0, 0.0, 0.0, 0.0, 0.0, 0.0, 0.0, 0.0, 1.645919909163418E9, 0.0, 2022-02-27 10:58:29.163
42.0, -3533.6766879173147, -7008.657694894993, -3068.8051067358383, -8759.358079356918, -1857.4746677249275, 3009.282411251356, -8104.586077283154, -7023.208680535398, -5718.716170634767, -8636.132912174811, -2227.2172245046168, -1001.693427764586, -5591.4229859617935, -4345.469694789612, -15535.915259828003, -14302.769518228713, 0.015, -0.109, 0.991, 192.0, 0.0, 0.0, 0.0, 0.0, 0.0, 0.0, 0.0, 0.0, 0.0, 1.645919909170982E9, 0.0, 2022-02-27 10:58:29.170
44.0, -3500.7749200791027, -7058.524436774784, -3095.8954210156708, -8606.382740304798, -1788.1172046801098, 3020.2571177789114, -8065.314062275179, -6880.31397823262, -2501.6966464157877, -7367.425545147127, -2192.952000254631, -578.4407947588915, -5553.112095965397, -4219.40585606168, -14678.301176822326, -12794.697319829145, 0.015, -0.109, 0.991, 192.0, 0.0, 0.0, 0.0, 0.0, 0.0, 0.0, 0.0, 0.0, 0.0, 1.645919909178931E9, 0.0, 2022-02-27 10:58:29.178
46.0, -3206.916535725181, -6858.029289010678, -2961.695547306007, -8586.154411572745, -1599.4237779884074, 3221.78044578796, -8093.4102050555, -7017.665447910482, -5349.085372577354, -8175.731679884396, -2194.7848432999663, -1080.6844926696413, -5541.019802215076, -4279.08501375735, -15512.267114194288, -14019.327046790964, 0.0135, -0.1085, 0.9895, 192.0, 0.0, 48.0, 126.0, 80.0, 15.0, 112.0, 0.0, 0.0, 0.0, 1.645919909187047E9, 0.0, 2022-02-27 10:58:29.187
48.0, -3688.440166525861, -7107.586515854182, -3138.7660668809494, -8761.079163679977, -1951.1731804815747, 2890.2146685379353, -8068.68917568793, -6937.199167871377, -3779.2329525033183, -8060.1731610504585, -2205.670142849701, -671.3346447151476, -5595.938038341766, -4292.116080774794, -14967.86802624083, -13478.906569350549, 0.0135, -0.1085, 0.9895, 192.0, 0.0, 0.0, 0.0, 0.0, 0.0, 0.0, 0.0, 0.0, 0.0, 1.645919909193244E9, 0.0, 2022-02-27 10:58:29.193
50.0, -3224.105027211312, -6916.881432161503, -2984.047291761314, -8496.00982618449, -1581.6541411464384, 3211.6327538052506, -8082.010815383293, -6910.89116464748, -3347.620767071339, -7434.704295957601, -2168.8791714762656, -809.5131289378559, -5515.225889113652, -4224.3902950752135, -14967.555101818456, -13089.78505012811, 0.0135, -0.1085, 0.9895, 192.0, 0.0, 0.0, 0.0, 0.0, 0.0, 0.0, 0.0, 0.0, 0.0, 1.645919909200639E9, 0.0, 2022-02-27 10:58:29.200
52.0, -3520.802083111058, -7020.302953756208, -3068.0674991688134, -8756.54175955555, -1842.4319437065058, 3020.4135799900987, -8104.295504605235, -7020.6158781785825, -5750.098019850018, -8640.312688387954, -2216.443683677159, -1009.1812621571139, -5592.920552840299, -4332.304517305436, -15555.405980993031, -14318.795719003168, 0.0135, -0.1085, 0.9895, 192.0, 0.0, 0.0, 0.0, 0.0, 0.0, 0.0, 0.0, 0.0, 0.0, 1.645919909208531E9, 0.0, 2022-02-27 10:58:29.208
54.0, -3505.2005654812538, -7053.003555894323, -3102.176261207612, -8607.992065905579, -1796.074425706199, 3014.043332820336, -8054.093486558615, -6877.363547964519, -2480.618951394433, -7383.921132555143, -2185.8888490067543, -569.3883382544922, -5561.024613502576, -4221.395161318203, -14675.842484932244, -12795.703148329634, 0.0135, -0.1085, 0.9895, 192.0, 0.0, 0.0, 0.0, 0.0, 0.0, 0.0, 0.0, 0.0, 0.0, 1.645919909215767E9, 0.0, 2022-02-27 10:58:29.215
56.0, -3190.040968661424, -6835.588137577551, -2960.466201360965, -8575.380870745286, -1601.4577867338405, 3247.686117611661, -8124.792054270752, -7020.593526434127, -5268.28381637142, -8125.663772304509, -2190.0015699865307, -1071.8332018653396, -5544.394915627828, -4301.302647745925, -15498.856067521105, -13982.089040528423, 0.01475, -0.10825, 0.98775, 192.0, 0.0, 64.0, 126.0, 80.0, 15.0, 104.0, 0.0, 0.0, 0.0, 1.64591990922338E9, 0.0, 2022-02-27 10:58:29.223
58.0, -3678.851268154534, -7101.819765784713, -3141.2247587710335, -8768.187018416766, -1945.8311135567562, 2887.2418865253794, -8087.442289285933, -6933.913461436447, -3825.7469327148124, -8087.509344519299, -2211.414541174715, -667.6689586244772, -5599.179041287785, -4297.011112810506, -14994.757174820565, -13503.739357440396, 0.01475, -0.10825, 0.98775, 192.0, 0.0, 0.0, 0.0, 0.0, 0.0, 0.0, 0.0, 0.0, 0.0, 1.645919909231182E9, 0.0, 2022-02-27 10:58:29.231
60.0, -3203.630829290251, -6887.466536458318, -2987.78003308535, -8500.144898908722, -1587.9796848272902, 3201.1497856557116, -8054.629928425543, -6932.237080602298, -3330.253461629565, -7411.346723001805, -2162.195999884129, -799.8571753331632, -5528.7933979980235, -4217.975344416541, -14972.137209431794, -13092.82488737403, 0.01475, -0.10825, 0.98775, 192.0, 0.0, 0.0, 0.0, 0.0, 0.0, 0.0, 0.0, 0.0, 0.0, 1.645919909239275E9, 0.0, 2022-02-27 10:58:29.239
62.0, -3485.7768995495917, -6972.0455374772, -3066.1005456567464, -8761.928529969278, -1855.686528168503, 3017.4184462330877, -8103.848469716128, -7039.793674921236, -5747.9746041267645, -8607.813251949938, -2207.0335992614746, -1012.8022447588736, -5599.603724432436, -4329.778770181986, -15555.808312393227, -14333.749036043768, 0.01475, -0.10825, 0.98775, 192.0, 0.0, 0.0, 0.0, 0.0, 0.0, 0.0, 0.0, 0.0, 0.0, 1.645919909246202E9, 0.0, 2022-02-27 10:58:29.246
64.0, -3498.830318311491, -7047.907358158513, -3095.8060140378493, -8620.889022456291, -1826.852777821157, 2993.502079665909, -8070.0302803552495, -6900.542306964673, -2479.9036955718634, -7375.27100745094, -2170.7790697549667, -572.651692944967, -5556.286043678051, -4197.5905534733, -14675.797781443332, -12812.735177604578, 0.01475, -0.10825, 0.98775, 192.0, 0.0, 0.0, 0.0, 0.0, 0.0, 0.0, 0.0, 0.0, 0.0, 1.645919909260982E9, 0.0, 2022-02-27 10:58:29.260
66.0, -3173.679491720139, -6855.458838398318, -2958.5886548267194, -8577.548989957451, -1603.760016412737, 3225.557890600907, -8119.964077468405, -7039.816026665691, -5235.873786911224, -8123.428597858978, -2168.2756743759724, -1047.693317853608, -5536.3035841350065, -4274.391147421736, -15494.83275351915, -13987.453459197695, 0.016375, -0.106125, 0.9878750000000001, 192.0, 0.0, 72.0, 126.0, 96.0, 15.0, 112.0, 0.0, 0.0, 0.0, 1.645919909269081E9, 0.0, 2022-02-27 10:58:29.269
68.0, -3670.7822884061684, -7118.36005668164, -3142.6329186717176, -8784.392033146863, -1961.3432242087395, 2881.899819600561, -8080.066213615682, -6962.769563528248, -3964.394803571082, -8152.642327862064, -2206.921840539198, -664.3832521895471, -5612.366570516417, -4281.163725991693, -15035.97379159615, -13583.624492123663, 0.016375, -0.106125, 0.9878750000000001, 192.0, 0.0, 0.0, 0.0, 0.0, 0.0, 0.0, 0.0, 0.0, 0.0, 1.645919909275596E9, 0.0, 2022-02-27 10:58:29.275
70.0, -3217.421855619175, -6894.596742939561, -2985.2989894508114, -8508.035064701446, -1612.6783624504046, 3194.556021041396, -8071.639605956031, -6931.186548612899, -3237.717239584594, -7377.08149875182, -2155.9822149255533, -777.7513000668646, -5518.444540315216, -4214.600231003789, -14946.924441686208, -13064.214654471238, 0.016375, -0.106125, 0.9878750000000001, 192.0, 0.0, 0.0, 0.0, 0.0, 0.0, 0.0, 0.0, 0.0, 0.0, 1.645919909283512E9, 0.0, 2022-02-27 10:58:29.283
72.0, -3506.161690492832, -6996.565401144672, -3049.560254759819, -8757.100553166933, -1859.1286968146203, 3019.3853997451547, -8117.617144300598, -7047.192102335943, -5755.730659452755, -8595.31862679942, -2208.1064829953293, -1004.53209931041, -5595.245134263651, -4325.33077303538, -15572.41565852352, -14329.524556341716, 0.016375, -0.106125, 0.9878750000000001, 192.0, 0.0, 0.0, 0.0, 0.0, 0.0, 0.0, 0.0, 0.0, 0.0, 1.645919909291664E9, 0.0, 2022-02-27 10:58:29.291
74.0, -3519.3045162325525, -7065.386422322563, -3076.337644617277, -8615.65871425375, -1829.6467458780703, 2995.5807919002527, -8083.441327028433, -6901.101100576056, -2501.6072394379667, -7381.238923220507, -2174.5565145679134, -532.5079599032355, -5552.553302354015, -4201.7926814308985, -14686.86189494871, -12817.719616618111, 0.016375, -0.106125, 0.9878750000000001, 192.0, 0.0, 0.0, 0.0, 0.0, 0.0, 0.0, 0.0, 0.0, 0.0, 1.645919909298605E9, 0.0, 2022-02-27 10:58:29.298
76.0, -3197.2605821204884, -6852.709573830316, -2943.143599408102, -8567.513056697018, -1601.2566210337427, 3233.291594182443, -8105.927181950472, -7021.219375278875, -5202.189708017077, -8088.537524764243, -2172.5448575669357, -1032.8964630241946, -5527.161720652785, -4256.085068712839, -15489.200113916411, -13963.961775775168, 0.0141875, -0.1080625, 0.9869375, 192.0, 0.0, 48.0, 126.0, 72.0, 15.0, 104.0, 0.0, 0.0, 0.0, 1.645919909306156E9, 0.0, 2022-02-27 10:58:29.306
78.0, -3703.460538799827, -7122.115149750131, -3127.2996219753772, -8767.270596894097, -1964.6065788992144, 2885.699616157963, -8096.874725446073, -6936.886243449002, -3882.1403839755517, -8077.272245558768, -2202.898526537243, -639.4610571218798, -5596.429776719782, -4260.1977896926155, -15010.06811977245, -13530.33793334221, 0.0141875, -0.1080625, 0.9869375, 192.0, 0.0, 0.0, 0.0, 0.0, 0.0, 0.0, 0.0, 0.0, 0.0, 1.645919909313376E9, 0.0, 2022-02-27 10:58:29.313
80.0, -3305.9794671511017, -6987.870572551557, -2976.984140513437, -8511.63369555875, -1598.5073564657398, 3191.359721584287, -8069.493838488322, -6924.168100853933, -3298.1787083361996, -7407.6810369111345, -2169.9520552101203, -818.8561581201742, -5517.796339726012, -4197.612905217756, -14954.568738289921, -13072.440096430792, 0.0141875, -0.1080625, 0.9869375, 192.0, 0.0, 0.0, 0.0, 0.0, 0.0, 0.0, 0.0, 0.0, 0.0, 1.645919909321304E9, 0.0, 2022-02-27 10:58:29.321
82.0, -3649.503427684716, -7159.7331356684135, -3050.7001937270397, -8764.476628837185, -1842.655461151059, 3023.8333968917605, -8090.370367809578, -7026.159110803499, -5793.080424437574, -8646.459418113163, -2233.922747841209, -1017.9654977280495, -5587.578485915481, -4315.674819430687, -15557.194120549455, -14328.45167260786, 0.0141875, -0.1080625, 0.9869375, 192.0, 0.0, 0.0, 0.0, 0.0, 0.0, 0.0, 0.0, 0.0, 0.0, 1.645919909327888E9, 0.0, 2022-02-27 10:58:29.327
84.0, -3702.789986466168, -7269.3237387327845, -3083.557258076341, -8637.94340347569, -1804.076350221199, 3009.237707762445, -8038.469617184355, -6879.956350321335, -2519.5780419800335, -7439.644031482224, -2202.630305603779, -596.6351147455114, -5540.103380692409, -4173.8530008617645, -14661.649127203123, -12803.481555400082, 0.0141875, -0.1080625, 0.9869375, 192.0, 0.0, 0.0, 0.0, 0.0, 0.0, 0.0, 0.0, 0.0, 0.0, 1.645919909335914E9, 0.0, 2022-02-27 10:58:29.335
86.0, -3406.2717445220646, -7113.554431623749, -2942.5848057967196, -8587.69668194016, -1580.2012777568434, 3246.8591030668144, -8088.492821275333, -6994.397281932507, -5246.84849343878, -8190.841459136183, -2208.3970556732484, -1132.3840775947665, -5515.315296091473, -4265.182228706149, -15467.317756094666, -13960.85488329588, 0.013093750000000001, -0.10803125, 0.98846875, 192.0, 0.0, 48.0, 126.0, 80.0, 15.0, 120.0, 0.0, 0.0, 0.0, 1.645919909343763E9, 0.0, 2022-02-27 10:58:29.343
88.0, -3920.652439672046, -7411.883164868733, -3123.3210114623325, -8782.849762779446, -1935.8175320407788, 2893.5003749728653, -8071.863123400584, -6920.792987441181, -3899.7088551174234, -8221.418645551044, -2240.2035880331505, -728.5327587762785, -5571.932264796766, -4284.315321959892, -14988.25281718407, -13527.05222690728, 0.013093750000000001, -0.10803125, 0.98846875, 192.0, 0.0, 0.0, 0.0, 0.0, 0.0, 0.0, 0.0, 0.0, 0.0, 1.645919909351085E9, 0.0, 2022-02-27 10:58:29.351
90.0, -3453.6127392784047, -7192.277275595341, -2966.0988409637025, -8523.54717535343, -1569.9865305407682, 3202.8485182343147, -8042.403524208489, -6909.952391380357, -3288.2768855424983, -7522.591355155869, -2191.0297502314747, -866.0853941542381, -5490.8177841684565, -4210.867489679753, -14933.982781646584, -13073.423573186825, 0.013093750000000001, -0.10803125, 0.98846875, 192.0, 0.0, 0.0, 0.0, 0.0, 0.0, 0.0, 0.0, 0.0, 0.0, 1.645919909358469E9, 0.0, 2022-02-27 10:58:29.358
92.0, -3736.5411205936816, -7302.963114138021, -3039.9937081329476, -8787.45422213724, -1818.0014870168552, 3020.681800923562, -8087.866972430584, -7029.489520727339, -5764.336081068049, -8745.58940477245, -2233.5874716743797, -1106.880737171261, -5563.438601903749, -4346.721392479109, -15544.543033187752, -14338.688771568392, 0.013093750000000001, -0.10803125, 0.98846875, 192.0, 0.0, 0.0, 0.0, 0.0, 0.0, 0.0, 0.0, 0.0, 0.0, 1.645919909366425E9, 0.0, 2022-02-27 10:58:29.366
94.0, -3714.2564313717407, -7336.200158143063, -3068.872161969204, -8640.960888977157, -1786.0384924457662, 3012.277545008367, -8070.924350133461, -6875.3965944524525, -2458.1107447279387, -7510.208488727629, -2191.0968054648406, -649.5863973601339, -5513.325990834951, -4223.965611930563, -14655.412990500092, -12813.159860749229, 0.013093750000000001, -0.10803125, 0.98846875, 192.0, 0.0, 0.0, 0.0, 0.0, 0.0, 0.0, 0.0, 0.0, 0.0, 1.645919909373551E9, 0.0, 2022-02-27 10:58:29.373
96.0, -3358.550770109984, -7102.780890796291, -2924.278727087823, -8596.771490189016, -1558.1177542350001, 3240.801780319426, -8098.12642313557, -7003.382683203541, -5169.444402390051, -8234.941450946504, -2180.546782081936, -1133.591071795353, -5490.013121368065, -4275.553438133412, -15469.485875306831, -13970.890816556313, 0.013546875, -0.109015625, 0.988234375, 192.0, 0.0, 56.0, 126.0, 72.0, 15.0, 112.0, 0.0, 0.0, 0.0, 1.645919909388077E9, 0.0, 2022-02-27 10:58:29.388
98.0, -3848.6127672925913, -7370.130106226219, -3112.2792497014107, -8793.064509995522, -1920.5065870888934, 2883.2632760123347, -8038.961355562372, -6931.410066057452, -3819.4437407784158, -8230.426398566533, -2208.6205731178015, -736.8029042247421, -5556.822485544978, -4281.476650414068, -14980.362651391346, -13529.376808330633, 0.013546875, -0.109015625, 0.988234375, 192.0, 0.0, 0.0, 0.0, 0.0, 0.0, 0.0, 0.0, 0.0, 0.0, 1.645919909396314E9, 0.0, 2022-02-27 10:58:29.396
100.0, -3352.1805229402216, -7113.554431623749, -2959.0356897158254, -8525.380018398764, -1567.4607834173185, 3188.588105271829, -8058.183855793936, -6923.497548520273, -3199.8980879662145, -7495.813965298411, -2158.351499837816, -869.4605075669895, -5482.547638719993, -4200.16100408566, -14927.724293199099, -13062.560625381546, 0.013546875, -0.109015625, 0.988234375, 192.0, 0.0, 0.0, 0.0, 0.0, 0.0, 0.0, 0.0, 0.0, 0.0, 1.645919909404211E9, 0.0, 2022-02-27 10:58:29.404
102.0, -3621.3849331599395, -7194.80302271879, -3037.8032371763275, -8784.660254080327, -1818.3144114392296, 2995.02199828887, -8093.253742844313, -7013.016285063778, -5693.548106378092, -8708.731378165648, -2192.259096176517, -1069.888600097728, -5550.184017441752, -4311.003304839529, -15549.438065223465, -14341.013352991744, 0.013546875, -0.109015625, 0.988234375, 192.0, 0.0, 0.0, 0.0, 0.0, 0.0, 0.0, 0.0, 0.0, 0.0, 1.645919909410753E9, 0.0, 2022-02-27 10:58:29.410
104.0, -3624.5812326170485, -7224.66495331108, -3080.137441174679, -8643.598394822884, -1797.8402135181682, 2974.9277800235486, -8061.670727928964, -6874.50252467424, -2406.724084225188, -7453.703278744612, -2163.537104551447, -620.1491499124944, -5520.769121738568, -4227.340725343314, -14646.94167935153, -12812.466956671115, 0.013546875, -0.109015625, 0.988234375, 192.0, 0.0, 0.0, 0.0, 0.0, 0.0, 0.0, 0.0, 0.0, 0.0, 1.645919909418829E9, 0.0, 2022-02-27 10:58:29.418
106.0, -3277.257475526032, -7002.198040747409, -2938.2038638834792, -8587.920199384715, -1568.600722384539, 3216.326620140865, -8114.398493099034, -7013.53037518625, -5100.265753300876, -8167.685051880486, -2157.032746914953, -1102.2315743245572, -5491.868316157856, -4266.679795584654, -15452.185625098424, -13961.816008307458, 0.02, -0.108, 0.986, 192.0, 0.0, 80.0, 126.0, 80.0, 15.0, 104.0, 0.0, 0.0, 0.0, 1.645919909426845E9, 0.0, 2022-02-27 10:58:29.426
108.0, -3754.243702202285, -7250.928253046067, -3119.364752693743, -8778.40176563284, -1930.4754651159603, 2870.0757467837034, -8092.31496957719, -6943.167083640944, -3821.9024326684994, -8194.99888360487, -2184.637151317257, -696.6591711830106, -5563.617415859391, -4278.950903290618, -14994.712471331653, -13560.401029634599, 0.02, -0.108, 0.986, 192.0, 0.0, 0.0, 0.0, 0.0, 0.0, 0.0, 0.0, 0.0, 0.0, 1.645919909433273E9, 0.0, 2022-02-27 10:58:29.433
110.0, -3282.487783728574, -7020.749988645314, -2964.310701407278, -8501.35189310931, -1579.731891123282, 3190.353893083798, -8065.850504142107, -6909.684170446893, -3145.8068663843715, -7435.218386080073, -2126.2543947999948, -806.4956434363894, -5469.293054257996, -4200.585687230312, -14918.873002394797, -13060.236043958193, 0.02, -0.108, 0.986, 192.0, 0.0, 0.0, 0.0, 0.0, 0.0, 0.0, 0.0, 0.0, 0.0, 1.645919909440344E9, 0.0, 2022-02-27 10:58:29.440
112.0, -3545.3219467785298, -7110.045207744266, -3037.7808854318723, -8753.032535676068, -1818.3144114392296, 3039.6137284772076, -8103.870821460584, -6999.359369201586, -5692.654036599879, -8652.114409460355, -2176.1434884242403, -1062.1996000051022, -5552.19567444273, -4319.049932843439, -15548.991030334359, -14337.16885294543, 0.02, -0.108, 0.986, 192.0, 0.0, 0.0, 0.0, 0.0, 0.0, 0.0, 0.0, 0.0, 0.0, 1.64591990944838E9, 0.0, 2022-02-27 10:58:29.448
114.0, -3573.887476192412, -7188.589237760215, -3077.343473117766, -8625.337019602897, -1798.4660623629168, 3005.683780394051, -8039.631907896031, -6849.468570884296, -2387.1663078267943, -7431.105665100296, -2146.28155783195, -568.8518963875647, -5518.422188570761, -4193.746053426988, -14648.483949718948, -12807.661331613224, 0.02, -0.108, 0.986, 192.0, 0.0, 0.0, 0.0, 0.0, 0.0, 0.0, 0.0, 0.0, 0.0, 1.64591990945672E9, 0.0, 2022-02-27 10:58:29.456
116.0, -3227.9271755131695, -6954.387659357508, -2929.374924823633, -8568.161257286221, -1558.7883065686592, 3246.2109024776105, -8070.767887922274, -6984.450755649896, -5073.600122165695, -8128.591850828154, -2146.952110165609, -1067.9663500745714, -5497.0986243603975, -4263.818772294375, -15436.740569679807, -13939.017228963046, 0.014, -0.11, 0.99, 192.0, 0.0, 56.0, 126.0, 72.0, 15.0, 120.0, 0.0, 0.0, 0.0, 1.6459199094631E9, 0.0, 2022-02-27 10:58:29.463
118.0, -3717.8774139735, -7192.836069206724, -3100.499880373464, -8759.067506678999, -1920.037200455332, 2908.610154224653, -8029.908899057973, -6896.228420284799, -3826.685705981935, -8169.070860036714, -2171.695491277634, -681.258819253304, -5553.4473721322265, -4277.98977827904, -14978.999194979573, -13553.226119664445, 0.014, -0.11, 0.99, 192.0, 0.0, 0.0, 0.0, 0.0, 0.0, 0.0, 0.0, 0.0, 0.0, 1.645919909470977E9, 0.0, 2022-02-27 10:58:29.470
120.0, -3258.4820101835744, -6996.207773233387, -2948.1056866771805, -8484.811602212381, -1549.8476087865365, 3242.098181497834, -8020.789387320207, -6854.050678497634, -3119.297697460377, -7406.742263644012, -2121.381714508738, -780.8805442906075, -5474.523362460538, -4181.474945721024, -14897.594141673344, -13035.58206982399, 0.014, -0.11, 0.99, 192.0, 0.0, 0.0, 0.0, 0.0, 0.0, 0.0, 0.0, 0.0, 0.0, 1.645919909479015E9, 0.0, 2022-02-27 10:58:29.479
122.0, -3530.502740204661, -7075.936445705467, -3021.7099811685066, -8741.677849492771, -1774.6838062624702, 3055.2599495959225, -8056.820399382163, -6969.363328142564, -5683.422766139837, -8635.261194141054, -2167.9851016980533, -1041.9042160396834, -5541.198616170718, -4308.879889116274, -15536.496405183841, -14327.55760282965, 0.014, -0.11, 0.99, 192.0, 0.0, 0.0, 0.0, 0.0, 0.0, 0.0, 0.0, 0.0, 0.0, 1.645919909486053E9, 0.0, 2022-02-27 10:58:29.486
124.0, -3559.157676596365, -7149.9877750859, -3066.905208457137, -8612.887097941291, -1761.071593889188, 3024.861577136705, -8013.659180838965, -6835.1634544329, -2385.0652438479956, -7403.344798486805, -2140.47010427357, -574.3951290124809, -5509.257973344085, -4203.111434353761, -14638.403312969604, -12807.996607780053, 0.014, -0.11, 0.99, 192.0, 0.0, 0.0, 0.0, 0.0, 0.0, 0.0, 0.0, 0.0, 0.0, 1.645919909493715E9, 0.0, 2022-02-27 10:58:29.493
126.0, -3211.6774572941613, -6939.501397550273, -2921.060075886259, -8555.063135035412, -1531.2509573997208, 3280.520830216507, -8052.059477813182, -6960.847313505092, -5034.261051924354, -8106.620086028587, -2139.7548484510003, -1044.20644571858, -5493.701159203191, -4269.049080496917, -15430.705598676874, -13920.889964209791, 0.014, -0.108, 0.988, 192.0, 0.0, 56.0, 126.0, 80.0, 15.0, 112.0, 0.0, 0.0, 0.0, 1.645919909508693E9, 0.0, 2022-02-27 10:58:29.508
128.0, -3710.2554691142404, -7202.492022811416, -3100.142252462179, -8764.789553259558, -1913.9575259634885, 2930.693677746496, -8043.2081870088805, -6907.717216934827, -3890.879916057577, -8205.303037798767, -2170.443793588137, -671.7146243708878, -5557.515389623093, -4291.490231930045, -15005.754233092575, -13580.741117088928, 0.014, -0.108, 0.988, 192.0, 0.0, 0.0, 0.0, 0.0, 0.0, 0.0, 0.0, 0.0, 0.0, 1.64591990951579E9, 0.0, 2022-02-27 10:58:29.515
130.0, -3258.392603205753, -6985.836563806125, -2953.4030501130883, -8496.121584906768, -1558.6318443574721, 3236.2867279394545, -8040.570681163154, -6896.518992962718, -3074.7059672720397, -7412.933696858132, -2123.8851098877326, -773.7950412982752, -5479.910132874266, -4213.370885058747, -14898.152935284726, -13033.81628201202, 0.014, -0.108, 0.988, 192.0, 0.0, 0.0, 0.0, 0.0, 0.0, 0.0, 0.0, 0.0, 0.0, 1.645919909523344E9, 0.0, 2022-02-27 10:58:29.523
132.0, -3525.987687824689, -7076.897570717046, -3024.280431780867, -8740.716724481194, -1792.9675332269114, 3061.0937548987577, -8074.522980990766, -7004.813194848681, -5674.035033468608, -8639.61978430984, -2179.116270436796, -1030.3260124118344, -5552.083915720453, -4346.274357590003, -15551.248556524344, -14339.627544835514, 0.014, -0.108, 0.988, 192.0, 0.0, 0.0, 0.0, 0.0, 0.0, 0.0, 0.0, 0.0, 0.0, 1.645919909531296E9, 0.0, 2022-02-27 10:58:29.531
134.0, -3577.7096244942695, -7164.985795615411, -3070.2579701254335, -8618.095054399379, -1783.1327656665762, 3024.1910248030454, -8032.3452392036015, -6862.879617557481, -2395.1905840862496, -7419.862737639277, -2154.417592813682, -544.7343641202884, -5521.059694416487, -4232.660440523678, -14652.149635809617, -12820.558288163935, 0.014, -0.108, 0.988, 192.0, 0.0, 0.0, 0.0, 0.0, 0.0, 0.0, 0.0, 0.0, 0.0, 1.645919909538326E9, 0.0, 2022-02-27 10:58:29.538
136.0, -3215.9019369962143, -6944.999926686279, -2930.4254568130323, -8569.390603231264, -1552.507466376718, 3269.769641133504, -8078.121611848071, -6994.062005765678, -5024.359229130653, -8088.783393953252, -2159.5584940384024, -1051.5378178999208, -5502.70891221868, -4266.590388606834, -15443.334334294123, -13927.036693935, 0.018000000000000002, -0.11, 0.988, 192.0, 0.0, 72.0, 126.0, 72.0, 15.0, 112.0, 0.0, 0.0, 0.0, 1.64591990954589E9, 0.0, 2022-02-27 10:58:29.545
138.0, -3717.0056959397434, -7213.511432827882, -3106.5124996319414, -8764.364870114907, -1928.8661395151782, 2912.0523228707702, -8063.235350040835, -6921.4188362859295, -3864.0578227112082, -8190.57323820272, -2193.1084624658183, -676.4978976843236, -5576.357910198916, -4314.512528719011, -15012.415052940256, -13580.696413600019, 0.018000000000000002, -0.11, 0.988, 192.0, 0.0, 0.0, 0.0, 0.0, 0.0, 0.0, 0.0, 0.0, 0.0, 1.645919909554883E9, 0.0, 2022-02-27 10:58:29.554
140.0, -3260.918350329203, -7002.354502958597, -2954.9676722249596, -8495.786308739938, -1563.6162833710055, 3233.1798354601665, -8040.101294529592, -6894.082652817089, -3079.623351052207, -7411.994923591009, -2136.670307716168, -778.3995006560684, -5478.971359607143, -4230.939356200619, -14910.625208690788, -13041.952316993753, 0.018000000000000002, -0.11, 0.988, 192.0, 0.0, 0.0, 0.0, 0.0, 0.0, 0.0, 0.0, 0.0, 0.0, 1.64591990956085E9, 0.0, 2022-02-27 10:58:29.560
142.0, -3521.6738011448147, -7078.529248062283, -3016.703190410518, -8742.68367799326, -1795.716797794914, 3077.0305486953916, -8061.1119343175815, -7007.651866394504, -5676.091393958497, -8633.808330751459, -2181.507907093514, -1038.5067508824768, -5552.732116309657, -4348.509532035534, -15554.735428659373, -14345.21548094934, 0.018000000000000002, -0.11, 0.988, 192.0, 0.0, 0.0, 0.0, 0.0, 0.0, 0.0, 0.0, 0.0, 0.0, 1.645919909568071E9, 0.0, 2022-02-27 10:58:29.568
144.0, -3559.872932418935, -7146.74677213988, -3061.3843275766767, -8615.993990420578, -1781.9928266993556, 3042.9664901455035, -8015.290858184202, -6850.250881940232, -2381.1983920572275, -7423.28255454094, -2151.154238123207, -565.7003004193665, -5521.037342672032, -4199.9151348966525, -14652.462560231992, -12817.026712539997, 0.018000000000000002, -0.11, 0.988, 192.0, 0.0, 0.0, 0.0, 0.0, 0.0, 0.0, 0.0, 0.0, 0.0, 1.645919909575626E9, 0.0, 2022-02-27 10:58:29.575
146.0, -3192.0302739179465, -6916.0320658722, -2913.4604827714543, -8545.407181430719, -1549.1100012195113, 3295.429443768197, -8060.30727151719, -6977.90169452449, -4994.542002027274, -8080.759117693797, -2142.99585139702, -1054.7788208459403, -5494.639932470314, -4256.934435002141, -15431.107930077069, -13911.569286771928, 0.016, -0.112, 0.99, 192.0, 0.0, 64.0, 126.0, 64.0, 15.0, 120.0, 0.0, 0.0, 0.0, 1.645919909583582E9, 0.0, 2022-02-27 10:58:29.583
148.0, -3686.58497173607, -7174.239417819908, -3092.8108802808383, -8749.63507051886, -1912.1917381515193, 2941.5789772962307, -8045.063381798671, -6921.329429308108, -3864.4825058558595, -8156.911511053027, -2163.6265115292686, -671.804031348709, -5563.349194925928, -4278.593275379333, -15010.917486061751, -13582.484553156442, 0.016, -0.112, 0.99, 192.0, 0.0, 0.0, 0.0, 0.0, 0.0, 0.0, 0.0, 0.0, 0.0, 1.645919909591441E9, 0.0, 2022-02-27 10:58:29.591
150.0, -3259.8901700842584, -6987.781165573736, -2956.889922248116, -8489.863096459281, -1578.279027733687, 3229.424742391675, -8038.514320673266, -6884.247885256754, -3073.8342492382826, -7386.111603511764, -2121.605231953291, -781.0817099907053, -5490.6389702128145, -4214.264954836959, -14910.513449968512, -13035.760883779632, 0.016, -0.112, 0.99, 192.0, 0.0, 0.0, 0.0, 0.0, 0.0, 0.0, 0.0, 0.0, 0.0, 1.645919909598168E9, 0.0, 2022-02-27 10:58:29.598
152.0, -3512.308420218041, -7073.254236370831, -3021.307649768311, -8741.96842217069, -1794.6886175499699, 3063.4406880665647, -8089.588056753642, -7018.090131055133, -5691.000007510186, -8629.94147896069, -2174.1765349121733, -1044.7652393299627, -5564.667947848791, -4342.519264521511, -15570.851036411648, -14351.988059519299, 0.016, -0.112, 0.99, 192.0, 0.0, 0.0, 0.0, 0.0, 0.0, 0.0, 0.0, 0.0, 0.0, 1.645919909606179E9, 0.0, 2022-02-27 10:58:29.606
154.0, -3569.9088656793674, -7164.002318859377, -3070.012100936425, -8632.37781910632, -1806.624449089104, 3021.2629462794002, -8039.587204407121, -6865.472419914297, -2388.596819471934, -7427.395275520716, -2146.4380200431374, -561.9452073508749, -5537.510578335593, -4222.26687935196, -14664.800723171322, -12835.936288349187, 0.016, -0.112, 0.99, 192.0, 0.0, 0.0, 0.0, 0.0, 0.0, 0.0, 0.0, 0.0, 0.0, 1.645919909614177E9, 0.0, 2022-02-27 10:58:29.614
156.0, -3211.230422405055, -6928.079656133611, -2919.4954537743874, -8570.664652665217, -1548.6182628414945, 3286.354635519342, -8066.7445739203185, -6983.087299238122, -4988.8199554467155, -8080.937931649439, -2150.28252008945, -1085.4230624941663, -5508.386255310328, -4274.8158305663865, -15436.271183046245, -13914.162089128744, 0.014, -0.108, 0.992, 192.0, 0.0, 56.0, 126.0, 80.0, 15.5, 0.0, 0.0, 0.0, 0.0, 1.645919909621382E9, 0.0, 2022-02-27 10:58:29.621
158.0, -3714.59170753857, -7193.640732007115, -3108.61356361074, -8775.45133536474, -1923.5687760792705, 2934.96286093746, -8056.775695893252, -6951.571339556139, -3905.050922042242, -8188.203953290457, -2184.8383170173547, -722.7213052178986, -5577.34138695495, -4315.496005475045, -15021.758082122575, -13604.009283066904, 0.014, -0.108, 0.992, 192.0, 0.0, 0.0, 0.0, 0.0, 0.0, 0.0, 0.0, 0.0, 0.0, 1.645919909635939E9, 0.0, 2022-02-27 10:58:29.635
160.0, -3267.9591498326245, -7006.601334405105, -2966.948207253004, -8497.149765151711, -1564.6221118714943, 3234.4091814052085, -8037.664954383965, -6894.46263247283, -3056.6234060076963, -7394.806432104878, -2139.061944372886, -781.2381722018924, -5499.154984850286, -4230.067638166862, -14909.775842401486, -13033.168081422817, 0.014, -0.108, 0.992, 192.0, 0.0, 0.0, 0.0, 0.0, 0.0, 0.0, 0.0, 0.0, 0.0, 1.645919909643907E9, 0.0, 2022-02-27 10:58:29.643
162.0, -3512.3307719624963, -7077.523419561794, -3029.5777952167746, -8740.649669247827, -1788.3854256135735, 3077.1646591621234, -8067.862161143084, -7011.138738529532, -5726.092246305018, -8652.829665282925, -2187.319360651894, -1045.7710678304516, -5574.748584598135, -4347.235482601582, -15574.784943435783, -14354.536158387204, 0.014, -0.108, 0.992, 192.0, 0.0, 0.0, 0.0, 0.0, 0.0, 0.0, 0.0, 0.0, 0.0, 1.645919909650376E9, 0.0, 2022-02-27 10:58:29.650
164.0, -3583.118746652454, -7169.031461361821, -3083.780775520894, -8636.51289183055, -1798.1307861960872, 3018.916013111593, -8024.231555966325, -6866.165323992411, -2416.268279107604, -7457.436020068649, -2163.4700493180812, -580.2065825708607, -5546.808904029001, -4235.230891136038, -14663.392563270638, -12833.097616803363, 0.014, -0.108, 0.992, 192.0, 0.0, 0.0, 0.0, 0.0, 0.0, 0.0, 0.0, 0.0, 0.0, 1.645919909658474E9, 0.0, 2022-02-27 10:58:29.658
166.0, -3197.484099565041, -6941.960089440357, -2925.6421834995967, -8555.398411202243, -1540.0351929706567, 3283.717129673616, -8065.828152397651, -6999.918162812968, -4966.803487158238, -8083.866010173084, -2157.2562643595056, -1078.5834286908423, -5517.058732158987, -4290.305589473915, -15433.253697544778, -13895.230161575098, 0.014, -0.108, 0.994, 192.0, 0.0, 56.0, 126.0, 80.0, 15.5, 8.0, 0.0, 0.0, 0.0, 1.645919909666567E9, 0.0, 2022-02-27 10:58:29.666
168.0, -3703.6393527554696, -7200.033330921332, -3110.848738056271, -8782.112155212422, -1925.200453424508, 2924.1222648766357, -8055.278129014747, -6946.452790075874, -4019.424798420048, -8256.466180856965, -2183.9665989835976, -731.4608372999236, -5584.2033725027295, -4323.050895100939, -15061.36537329738, -13653.540748779864, 0.014, -0.108, 0.994, 192.0, 0.0, 0.0, 0.0, 0.0, 0.0, 0.0, 0.0, 0.0, 0.0, 1.645919909673477E9, 0.0, 2022-02-27 10:58:29.673
170.0, -3263.7570218750266, -6997.615933134071, -2967.01526248637, -8504.078805932857, -1577.0720335331005, 3219.0982364533234, -8037.799064850697, -6920.860042674547, -2982.192096971524, -7388.726757613034, -2136.4020867827044, -798.8066433437638, -5500.786662195524, -4236.46023708108, -14884.227798489072, -12993.314921059004, 0.014, -0.108, 0.994, 192.0, 0.0, 0.0, 0.0, 0.0, 0.0, 0.0, 0.0, 0.0, 0.0, 1.64591990968131E9, 0.0, 2022-02-27 10:58:29.681
172.0, -3453.2774631115753, -7049.047297125733, -3008.5224519398753, -8730.613735987394, -1756.0648031311994, 3107.6747903436176, -8087.1740683524695, -7029.757741660803, -5821.802416062644, -8665.324290433442, -2183.7654332835, -1092.396806764222, -5565.271444949084, -4371.755346269053, -15603.976321694414, -14397.004472852288, 0.014, -0.108, 0.994, 192.0, 0.0, 0.0, 0.0, 0.0, 0.0, 0.0, 0.0, 0.0, 0.0, 1.645919909688223E9, 0.0, 2022-02-27 10:58:29.688
174.0, -3611.661924321881, -7183.783612702324, -3099.0246652394135, -8667.850037556891, -1841.202597761464, 2995.893716322627, -8038.760189862274, -6871.574446150595, -2533.6596409868766, -7560.276396307516, -2167.9403982091426, -581.681797704911, -5551.659232575802, -4262.0753362268615, -14687.867723449199, -12912.312199152972, 0.015, -0.109, 0.992, 192.0, 0.0, 64.0, 126.0, 72.0, 15.0, 120.0, 0.0, 0.0, 0.0, 1.645919909696174E9, 0.0, 2022-02-27 10:58:29.696
176.0, -3187.0234831599573, -6937.020353915734, -2930.4254568130323, -8556.515998425008, -1539.9681377372906, 3284.678254685194, -8067.5045332317995, -6995.067834266167, -4794.85151706356, -7997.275352153225, -2160.4749155610702, -1078.8292978798506, -5518.131615892842, -4295.13356627626, -15397.155630249457, -13809.243000655533, 0.015, -0.109, 0.992, 192.0, 0.0, 0.0, 0.0, 0.0, 0.0, 0.0, 0.0, 0.0, 0.0, 1.645919909704568E9, 0.0, 2022-02-27 10:58:29.704
178.0, -3701.5159370322153, -7198.669874509558, -3117.107226503757, -8794.964408274223, -1923.0546859567985, 2918.5343287628093, -8058.720297660863, -6935.746304481781, -4187.196992301582, -8294.642960386629, -2195.7236165670893, -765.9719307389178, -5585.365663214406, -4327.051857358439, -15111.27681866608, -13721.132424012712, 0.015, -0.109, 0.992, 192.0, 0.0, 0.0, 0.0, 0.0, 0.0, 0.0, 0.0, 0.0, 0.0, 1.645919909710769E9, 0.0, 2022-02-27 10:58:29.710
180.0, -3284.3429785183644, -7018.850090366614, -2987.4894604074316, -8512.371303125776, -1597.859155876536, 3194.1536896412003, -8040.63773639652, -6892.115699305022, -2835.2293771778795, -7343.799751257868, -2149.6790229891567, -785.4179484150349, -5507.782758210034, -4267.462106640591, -14846.341591637325, -12923.756292314089, 0.015, -0.109, 0.992, 192.0, 0.0, 0.0, 0.0, 0.0, 0.0, 0.0, 0.0, 0.0, 0.0, 1.645919909718783E9, 0.0, 2022-02-27 10:58:29.718
182.0, -3505.6923038592704, -7095.605980826138, -3044.3299465572773, -8747.802227473525, -1805.3727513996068, 3050.946062916048, -8086.034129385249, -7006.288409982731, -5659.752268761667, -8608.997894406068, -2193.3543316548266, -1078.8740013687614, -5581.185887001263, -4380.159602184249, -15568.1241235881, -14308.044529920166, 0.015, -0.109, 0.992, 192.0, 0.0, 0.0, 0.0, 0.0, 0.0, 0.0, 0.0, 0.0, 0.0, 1.645919909726808E9, 0.0, 2022-02-27 10:58:29.726
184.0, -3561.862237675457, -7171.557208485271, -3100.075197228813, -8635.507063330062, -1813.620545103615, 2989.7693383418728, -8043.856387598084, -6866.657062370427, -2373.8670198758864, -7428.915194143677, -2167.471011575581, -605.7322747388214, -5555.347270410928, -4264.51167637249, -14666.611214472201, -12805.627322867791, 0.0155, -0.1075, 0.991, 192.0, 0.0, 64.0, 126.0, 88.0, 15.0, 120.0, 0.0, 0.0, 0.0, 1.645919909733357E9, 0.0, 2022-02-27 10:58:29.733
186.0, -3193.8631169632813, -6944.776409241726, -2942.540102307809, -8561.478085694085, -1553.7144605773046, 3258.4373066946637, -8071.706661189397, -6982.863781793569, -4941.523664179285, -8060.731954661841, -2163.38064234026, -1106.880737171261, -5533.28609863354, -4316.94886886464, -15441.523842993241, -13874.331280509386, 0.0155, -0.1075, 0.991, 192.0, 0.0, 0.0, 0.0, 0.0, 0.0, 0.0, 0.0, 0.0, 0.0, 1.645919909741369E9, 0.0, 2022-02-27 10:58:29.741
188.0, -3707.953239435344, -7218.250002652408, -3125.466778930042, -8786.515448870117, -1931.7271628054575, 2891.2428487828793, -8053.333527247135, -6930.560699768151, -3968.1275448951183, -8214.780177447818, -2189.9792182420756, -748.3587561081358, -5595.759224386123, -4342.496912777056, -15051.709419692686, -13609.776033136373, 0.0155, -0.1075, 0.991, 192.0, 0.0, 0.0, 0.0, 0.0, 0.0, 0.0, 0.0, 0.0, 0.0, 1.645919909755576E9, 0.0, 2022-02-27 10:58:29.755
190.0, -3269.7025859001383, -7021.420540978974, -2992.2280302319564, -8525.156500954212, -1595.60162968655, 3184.9000674367035, -8061.335451762135, -6919.0719031181225, -3034.271661552389, -7397.958028073076, -2145.119267120274, -838.637451963121, -5511.314333833973, -4268.311472929892, -14916.19079306016, -13007.396520065848, 0.0155, -0.1075, 0.991, 192.0, 0.0, 0.0, 0.0, 0.0, 0.0, 0.0, 0.0, 0.0, 0.0, 1.645919909763471E9, 0.0, 2022-02-27 10:58:29.763
192.0, -3497.1315857328877, -7080.719719018904, -3047.7721152033946, -8769.416364361807, -1805.2833444217856, 3041.759495944917, -8101.948571437428, -7033.736352173848, -5747.549920982114, -8659.356374663876, -2190.538011853458, -1112.0663418848924, -5580.984721301165, -4393.078910479416, -15600.89178095958, -14364.862664325556, 0.0155, -0.1075, 0.991, 192.0, 0.0, 0.0, 0.0, 0.0, 0.0, 0.0, 0.0, 0.0, 0.0, 1.645919909771295E9, 0.0, 2022-02-27 10:58:29.771
194.0, -3562.3316243090185, -7165.298720037785, -3097.6835605720953, -8655.958909506668, -1824.0588097642435, 2978.1911347140235, -8064.64350994152, -6896.742510407271, -2409.071017392995, -7453.055078155408, -2153.0094329129975, -626.228824404338, -5548.552340096515, -4271.775993320464, -14677.250644832928, -12836.293916260473, 0.01575, -0.10575000000000001, 0.9895, 192.0, 0.0, 64.0, 126.0, 96.0, 15.0, 112.0, 0.0, 0.0, 0.0, 1.645919909778994E9, 0.0, 2022-02-27 10:58:29.778
196.0, -3199.3839978437422, -6953.0912581791, -2953.224236157446, -8584.589789460873, -1567.1925624838548, 3246.613233877806, -8079.149792093014, -7002.555668658694, -4971.854981405138, -8079.93210314895, -2147.6226624992687, -1124.136283890758, -5523.786607240035, -4322.581508467378, -15442.328505793634, -13893.017338874024, 0.01575, -0.10575000000000001, 0.9895, 192.0, 0.0, 0.0, 0.0, 0.0, 0.0, 0.0, 0.0, 0.0, 0.0, 1.645919909785574E9, 0.0, 2022-02-27 10:58:29.785
198.0, -3710.7472074922575, -7218.987610219433, -3133.4687034450417, -8789.957617516235, -1947.9321775355552, 2896.7860814077953, -8068.979748365849, -6946.162217397955, -4004.3373709127154, -8235.097913157691, -2181.6196658157905, -765.4354888719904, -5597.1226807978965, -4343.279223832992, -15054.97277438316, -13624.237611798957, 0.01575, -0.10575000000000001, 0.9895, 192.0, 0.0, 0.0, 0.0, 0.0, 0.0, 0.0, 0.0, 0.0, 0.0, 1.6459199097937E9, 0.0, 2022-02-27 10:58:29.793
200.0, -3272.7647748905156, -7020.213546778387, -2992.630361632152, -8520.082654962856, -1579.3966149564524, 3195.159518141689, -8038.894300329006, -6907.046664601167, -3016.3232107547774, -7387.117432012253, -2125.963822122076, -826.8580826351741, -5506.665170987269, -4236.12496091425, -14901.32688299738, -12993.76195594811, 0.01575, -0.10575000000000001, 0.9895, 192.0, 0.0, 0.0, 0.0, 0.0, 0.0, 0.0, 0.0, 0.0, 0.0, 1.645919909801634E9, 0.0, 2022-02-27 10:58:29.801
202.0, -3494.0246932536, -7072.091945659155, -3041.8936064116488, -8757.391125844852, -1799.4271873744951, 3052.331871072277, -8093.544315522232, -7023.096921813121, -5758.591682743035, -8650.795656537492, -2172.2319331445615, -1113.9662401635933, -5569.317110695495, -4373.051747447461, -15585.625539496607, -14352.41274266395, 0.01575, -0.10575000000000001, 0.9895, 192.0, 0.0, 0.0, 0.0, 0.0, 0.0, 0.0, 0.0, 0.0, 0.0, 1.645919909808741E9, 0.0, 2022-02-27 10:58:29.808
204.0, -3556.184894583809, -7156.156856555564, -3095.4036826376537, -8649.119275703344, -1823.723533597414, 2974.1901724565237, -8076.802858925207, -6899.335312764087, -2422.6832297662772, -7444.874339684766, -2136.5585489938917, -624.7312575258323, -5529.463950331682, -4228.704181755088, -14670.634528474156, -12832.896451103265, 0.014875, -0.106875, 0.98775, 192.0, 0.0, 56.0, 126.0, 80.0, 15.0, 104.0, 0.0, 0.0, 0.0, 1.645919909815285E9, 0.0, 2022-02-27 10:58:29.815
206.0, -3198.1546518987006, -6934.136978881, -2943.769448252851, -8563.959129328625, -1554.4967716332403, 3249.898940312736, -8052.528864446744, -6994.285523210231, -4928.78316983976, -8040.5036259297885, -2137.0502873719083, -1112.0663418848924, -5506.575764009448, -4296.988761066051, -15422.167232294945, -13864.250643760044, 0.014875, -0.106875, 0.98775, 192.0, 0.0, 0.0, 0.0, 0.0, 0.0, 0.0, 0.0, 0.0, 0.0, 1.64591990982335E9, 0.0, 2022-02-27 10:58:29.823
208.0, -3712.4235883264055, -7207.543517058315, -3123.7233428625277, -8786.224876192198, -1933.068267472776, 2893.8803546286053, -8082.144925850025, -6942.273013862731, -4041.128342286151, -8242.898671972594, -2184.793613528444, -772.9903784978842, -5589.321921982994, -4317.351200264836, -15055.576271483455, -13631.390170024655, 0.014875, -0.106875, 0.98775, 192.0, 0.0, 0.0, 0.0, 0.0, 0.0, 0.0, 0.0, 0.0, 0.0, 1.645919909831321E9, 0.0, 2022-02-27 10:58:29.831
210.0, -3260.6948328846497, -7005.483747182339, -2979.6439981036187, -8511.030198458457, -1579.1060422785333, 3179.58035225634, -8044.750457376297, -6931.946507924379, -3014.020981075881, -7398.047435050898, -2124.890938388221, -818.766751142353, -5491.063653357465, -4227.720704999055, -14887.42409794618, -12984.888313399353, 0.014875, -0.106875, 0.98775, 192.0, 0.0, 0.0, 0.0, 0.0, 0.0, 0.0, 0.0, 0.0, 0.0, 1.645919909838348E9, 0.0, 2022-02-27 10:58:29.838
212.0, -3483.8546495264354, -7067.152210134532, -3028.728428927473, -8750.126808896877, -1771.9121899500121, 3054.276472839889, -8067.862161143084, -7008.076549539155, -5764.850171190521, -8642.749028533583, -2167.6945290201343, -1101.0692836128812, -5549.580520341458, -4348.5765872689, -15573.913225402026, -14344.902556526966, 0.014875, -0.106875, 0.98775, 192.0, 0.0, 0.0, 0.0, 0.0, 0.0, 0.0, 0.0, 0.0, 0.0, 1.645919909846062E9, 0.0, 2022-02-27 10:58:29.846
214.0, -3560.8117056860574, -7151.731211153414, -3076.7399760174726, -8647.845226269392, -1796.3426466396627, 2994.865536077683, -8040.2130532518695, -6861.873789056992, -2444.140904443372, -7468.120153918285, -2145.2086740980953, -622.0713999356509, -5529.061618931487, -4232.794550990409, -14650.830882886754, -12814.880945072287, 0.0134375, -0.10743749999999999, 0.988875, 192.0, 0.0, 48.0, 126.0, 80.0, 15.0, 120.0, 0.0, 0.0, 0.0, 1.645919909853941E9, 0.0, 2022-02-27 10:58:29.853
216.0, -3176.1828870991335, -6922.1787955974105, -2925.597480010686, -8560.494608938052, -1532.279137644665, 3253.519922914496, -8053.78056213624, -6989.010511518778, -4916.042675500235, -8042.716448630864, -2132.2670140584723, -1105.5172807594872, -5484.402833509784, -4258.677871069654, -15401.62597914052, -13830.946544521636, 0.0134375, -0.10743749999999999, 0.988875, 192.0, 0.0, 0.0, 0.0, 0.0, 0.0, 0.0, 0.0, 0.0, 0.0, 1.645919909860835E9, 0.0, 2022-02-27 10:58:29.860
218.0, -3687.2555240697297, -7181.883714423623, -3103.2267931970114, -8774.423155119795, -1916.7738457648572, 2891.309904016245, -8069.0915070881265, -6951.638394789505, -4057.579226205257, -8251.526445332342, -2171.1814011551623, -755.9807009673955, -5567.8865990503555, -4303.537822191456, -15043.863957388874, -13632.932440392071, 0.0134375, -0.10743749999999999, 0.988875, 192.0, 0.0, 0.0, 0.0, 0.0, 0.0, 0.0, 0.0, 0.0, 0.0, 1.645919909867568E9, 0.0, 2022-02-27 10:58:29.867
220.0, -3260.001928806535, -6984.406052160985, -2970.882114277138, -8508.437396101643, -1578.0331585446786, 3176.3840527992315, -8037.620250895054, -6890.752242893249, -2999.6711611355736, -7371.784135315912, -2116.3972754952047, -799.6783613775208, -5484.939275376711, -4209.414626290158, -14861.697240078121, -12967.65511842431, 0.0134375, -0.10743749999999999, 0.988875, 192.0, 0.0, 0.0, 0.0, 0.0, 0.0, 0.0, 0.0, 0.0, 0.0, 1.645919909883519E9, 0.0, 2022-02-27 10:58:29.883
222.0, -3466.3085301290193, -7037.20087256442, -3017.306687510811, -8746.192901872742, -1776.1143179076098, 3046.9674524030033, -8087.799917197218, -7029.19894804942, -5766.213627602295, -8628.555670804462, -2161.7489649950226, -1101.5833737353532, -5547.501808107115, -4328.258851559026, -15568.74997243285, -14336.163024444942, 0.0134375, -0.10743749999999999, 0.988875, 192.0, 0.0, 0.0, 0.0, 0.0, 0.0, 0.0, 0.0, 0.0, 0.0, 1.645919909890777E9, 0.0, 2022-02-27 10:58:29.890
224.0, -3550.9322346368117, -7145.204501772464, -3074.683615527584, -8646.99585998009, -1804.4563298769392, 2972.379681155644, -8044.817512609663, -6885.477231201796, -2439.4693898522128, -7455.849046212322, -2125.3379732773274, -589.2143355863495, -5522.0431711725205, -4210.599268746289, -14648.215728785484, -12826.63796265578, 0.012718750000000001, -0.10971875, 0.9894375, 192.0, 0.0, 48.0, 126.0, 64.0, 15.0, 120.0, 0.0, 0.0, 0.0, 1.645919909898124E9, 0.0, 2022-02-27 10:58:29.898
226.0, -3162.168343325656, -6909.125376835511, -2918.1767008515244, -8557.79004785896, -1531.9662132222907, 3247.7531728450267, -8082.256684572302, -7006.444872193918, -4882.559762306186, -8016.430797151423, -2115.9502406060983, -1076.8399926233283, -5486.816821910957, -4250.944167488118, -15387.969063278326, -13828.197279953632, 0.012718750000000001, -0.10971875, 0.9894375, 192.0, 0.0, 0.0, 0.0, 0.0, 0.0, 0.0, 0.0, 0.0, 0.0, 1.64591990990614E9, 0.0, 2022-02-27 10:58:29.906
228.0, -3685.2215153242964, -7171.981891629922, -3106.914831032137, -8784.59319884696, -1914.449264341505, 2885.163174291036, -8070.320853033168, -6960.176761171432, -4078.1428311041395, -8241.468160327455, -2162.598331284324, -739.351003092647, -5566.4784391496705, -4290.640865640744, -15049.608355713888, -13646.008210898426, 0.012718750000000001, -0.10971875, 0.9894375, 192.0, 0.0, 0.0, 0.0, 0.0, 0.0, 0.0, 0.0, 0.0, 0.0, 1.645919909914268E9, 0.0, 2022-02-27 10:58:29.914
230.0, -3245.2497774660324, -6972.201999688387, -2967.149372953102, -8508.482099590552, -1568.8689433180027, 3175.981721399036, -8065.3364140196345, -6913.327504793108, -2984.628437117152, -7370.085402737308, -2111.055208570386, -783.2945326917807, -5478.65843518477, -4182.324312010326, -14860.84787378882, -12969.37620274737, 0.012718750000000001, -0.10971875, 0.9894375, 192.0, 0.0, 0.0, 0.0, 0.0, 0.0, 0.0, 0.0, 0.0, 0.0, 1.645919909920825E9, 0.0, 2022-02-27 10:58:29.920
232.0, -3449.3435560874414, -7023.029866579755, -3003.40390245961, -8739.934413425257, -1790.3076756367298, 3028.16963531609, -8117.4159786005, -7043.995802878833, -5749.427467516359, -8620.486691056096, -2152.607101512802, -1077.0635100678815, -5531.09562767692, -4318.513490976512, -15570.314594544721, -14344.366114660039, 0.012718750000000001, -0.10971875, 0.9894375, 192.0, 0.0, 0.0, 0.0, 0.0, 0.0, 0.0, 0.0, 0.0, 0.0, 1.645919909928776E9, 0.0, 2022-02-27 10:58:29.928
234.0, -3535.800103640569, -7115.633143858093, -3073.074289926802, -8642.771380278038, -1821.778931829802, 2950.3855646116217, -8069.583245466143, -6903.828013399603, -2431.333354870481, -7457.8607032132995, -2126.7237814335563, -576.5185447357351, -5515.628220513848, -4193.880163893719, -14650.964993353486, -12837.8808901168, 0.011359375000000001, -0.11085937500000001, 0.98971875, 192.0, 0.0, 40.0, 126.0, 64.0, 15.0, 120.0, 0.0, 0.0, 0.0, 1.645919909935911E9, 0.0, 2022-02-27 10:58:29.935
236.0, -3142.9011396051815, -6866.031213525679, -2914.9356979055046, -8552.760905356516, -1543.7679342946929, 3226.809588290404, -8101.79210922624, -7029.400113749518, -4854.620081737052, -8004.852593523574, -2113.446845227104, -1059.8303150928398, -5477.809068895468, -4236.8402167368195, -15385.175095221413, -13838.099102747334, 0.011359375000000001, -0.11085937500000001, 0.98971875, 192.0, 0.0, 0.0, 0.0, 0.0, 0.0, 0.0, 0.0, 0.0, 0.0, 1.645919909943964E9, 0.0, 2022-02-27 10:58:29.943
238.0, -3651.2692154966853, -7134.721533622925, -3091.5815343357963, -8778.424117377295, -1915.388037608628, 2868.533476416287, -8077.182838580948, -6958.94741522639, -4062.094278585229, -8229.331163088222, -2144.1581421086958, -734.8806542015856, -5547.948842996221, -4265.3610426617915, -15046.747332423609, -13659.821588971805, 0.011359375000000001, -0.11085937500000001, 0.98971875, 192.0, 0.0, 0.0, 0.0, 0.0, 0.0, 0.0, 0.0, 0.0, 0.0, 1.645919909950365E9, 0.0, 2022-02-27 10:58:29.950
240.0, -3214.4714253510747, -6936.349801582075, -2954.4312303580323, -8499.429643086152, -1567.7290043507821, 3162.2130468145665, -8055.88162611504, -6919.60834498505, -2960.5779600832416, -7347.711306537546, -2091.4303769386265, -776.320788421725, -5460.8887983428, -4168.220361259027, -14854.678792319155, -12971.56667370399, 0.011359375000000001, -0.11085937500000001, 0.98971875, 192.0, 0.0, 0.0, 0.0, 0.0, 0.0, 0.0, 0.0, 0.0, 0.0, 1.645919909958429E9, 0.0, 2022-02-27 10:58:29.958
242.0, -3420.286288295542, -6990.932761541934, -3002.9345158260485, -8730.390218542841, -1758.1882188544535, 3031.1647690731015, -8096.181821367958, -7050.209587837409, -5737.670449932868, -8598.80549893445, -2133.1387320922295, -1052.3201289558565, -5515.7623309805795, -4284.740005104542, -15562.513835729818, -14339.202861690863, 0.011359375000000001, -0.11085937500000001, 0.98971875, 192.0, 0.0, 0.0, 0.0, 0.0, 0.0, 0.0, 0.0, 0.0, 0.0, 1.645919909966476E9, 0.0, 2022-02-27 10:58:29.966
244.0, -3517.3822662093958, -7099.651646572548, -3066.2570078679337, -8643.866615756348, -1791.4699663484057, 2944.7082215199734, -8046.78446612173, -6904.118586077522, -2419.978668687185, -7443.644993739724, -2104.059112555875, -554.3009107471598, -5493.701159203191, -4181.273780020926, -14640.191452526029, -12838.797311639466, 0.014, -0.112, 0.99, 192.0, 0.0, 56.0, 126.0, 64.0, 15.0, 120.0, 0.0, 0.0, 0.0, 1.645919909973127E9, 0.0, 2022-02-27 10:58:29.973
246.0, -3122.4045899396647, -6852.217835452299, -2904.8550611561614, -8543.239062218556, -1510.7097042452938, 3233.1574837157114, -8077.451059514411, -7004.835546593135, -4819.52784294222, -7979.192790888881, -2100.1699090206516, -1052.7448121005073, -5464.956815833666, -4226.983097432029, -15371.562882848131, -13817.267276914989, 0.014, -0.112, 0.99, 192.0, 0.0, 0.0, 0.0, 0.0, 0.0, 0.0, 0.0, 0.0, 0.0, 1.645919909981205E9, 0.0, 2022-02-27 10:58:29.981
248.0, -3638.305203712607, -7118.494167148372, -3080.293903385866, -8773.104402196932, -1894.8020809652903, 2868.3323107161896, -8062.765963407274, -6958.410973359463, -4086.792956208343, -8225.844290953195, -2136.4691420160702, -718.09449411565, -5530.358020109895, -4262.0753362268615, -15049.586003969433, -13671.019812943914, 0.014, -0.112, 0.99, 192.0, 0.0, 0.0, 0.0, 0.0, 0.0, 0.0, 0.0, 0.0, 0.0, 1.645919909989086E9, 0.0, 2022-02-27 10:58:29.989
250.0, -3213.197375917122, -6923.385789797997, -2949.8714744891495, -8500.211954142089, -1570.9476555523463, 3158.6144159572623, -8056.619233682065, -6921.2400223302875, -2918.735494462907, -7335.26138487594, -2088.636408881713, -757.7911922682754, -5435.452513152661, -4177.496335207979, -14841.334800879336, -12965.397592234325, 0.014, -0.112, 0.99, 192.0, 0.0, 0.0, 0.0, 0.0, 0.0, 0.0, 0.0, 0.0, 0.0, 1.645919910002795E9, 0.0, 2022-02-27 10:58:30.002
