%OpenBCI Raw EEG Data
%Number of channels = 16
%Sample Rate = 125 Hz
%Board = OpenBCI_GUI$BoardCytonSerialDaisy
Sample Index, EXG Channel 0, EXG Channel 1, EXG Channel 2, EXG Channel 3, EXG Channel 4, EXG Channel 5, EXG Channel 6, EXG Channel 7, EXG Channel 8, EXG Channel 9, EXG Channel 10, EXG Channel 11, EXG Channel 12, EXG Channel 13, EXG Channel 14, EXG Channel 15, Accel Channel 0, Accel Channel 1, Accel Channel 2, Other, Other, Other, Other, Other, Other, Other, Analog Channel 0, Analog Channel 1, Analog Channel 2, Timestamp, Other, Timestamp (Formatted)
170.0, -3520.824434855513, -6593.250524193111, -1346.0220510985914, -10286.004577398846, -867.6947197550202, 511.4526166263362, -5269.535514060916, -2859.0339850227815, -2444.632642821389, -7221.558060831793, -3911.912907590021, -2473.5110966576453, -4960.343833010654, -3766.8500860750783, -10905.01378834412, -13322.10908199657, 0.0, 0.0, 0.0, 192.0, 0.0, 0.0, 0.0, 0.0, 0.0, 0.0, 0.0, 0.0, 0.0, 1.645920447701011E9, 0.0, 2022-02-27 11:07:27.701
172.0, -3286.354635519342, -6424.763074489007, -1256.5927215329077, -10180.817267992172, -690.8030141357201, 650.7486880718099, -5312.048532014911, -2953.6712710465517, -4669.324120202556, -7816.002704620684, -3919.5572041937357, -2837.308089412223, -4947.759800882316, -3876.91007577301, -11479.140696423137, -14210.836793284036, 0.0, 0.0, 0.0, 192.0, 0.0, 0.0, 0.0, 0.0, 0.0, 0.0, 0.0, 0.0, 0.0, 1.645920447701014E9, 0.0, 2022-02-27 11:07:27.701
0.0, -1536.63772781345, -3079.0645574408245, -721.4249040394908, -5101.785671923837, -343.7698297226226, 348.3966408248712, -2629.3921624889567, -1399.5321273245963, -1325.4360944552534, -3710.5460417921595, -1966.3276632222728, -1224.4062095172656, -2488.687931142799, -1894.1091768871759, -5461.045260553988, -6745.28708997811, 0.014, -0.112, 0.996, 192.0, 0.0, 56.0, 126.0, 64.0, 15.5, 16.0, 0.0, 0.0, 0.0, 1.645920447810934E9, 0.0, 2022-02-27 11:07:27.810
2.0, -3446.5272362860724, -6331.668058832653, -1565.6502921164385, -10412.448395782518, -1011.8411197472955, 500.16498567640616, -5240.746467202481, -2831.9436707429495, -4628.621593549442, -8084.000120639816, -4051.8795313691535, -2676.733157245297, -4700.750672906718, -3753.304928935162, -11358.575386831211, -14412.315417804173, 0.014, -0.112, 0.996, 192.0, 0.0, 0.0, 0.0, 0.0, 0.0, 0.0, 0.0, 0.0, 0.0, 1.64592044781841E9, 0.0, 2022-02-27 11:07:27.818
4.0, -3343.262176902554, -6321.386256383212, -1547.2324546852656, -10338.28530767981, -908.7772260638745, 550.3446519785705, -5230.911699642146, -2723.291840945702, -2316.4900918591134, -7171.6466154630925, -4008.1371674701177, -2435.7366485281764, -4676.387271450433, -3617.6521918359035, -10854.05181098602, -13310.30736092417, 0.014, -0.112, 0.996, 192.0, 0.0, 0.0, 0.0, 0.0, 0.0, 0.0, 0.0, 0.0, 0.0, 1.645920447825159E9, 0.0, 2022-02-27 11:07:27.825
6.0, -3199.071073421368, -6197.691702567542, -1480.1325178304337, -10278.852019173148, -809.379018471124, 642.5008943678015, -5268.194409393598, -2835.341135900156, -4742.41432457141, -7914.663304646409, -4021.1905862320173, -2777.964207883383, -4668.139477746425, -3745.727687564813, -11448.116475119172, -14338.107626212553, 0.014, -0.112, 0.996, 192.0, 0.0, 0.0, 0.0, 0.0, 0.0, 0.0, 0.0, 0.0, 0.0, 1.645920447832994E9, 0.0, 2022-02-27 11:07:27.832
8.0, -3520.869138344424, -6406.591106246842, -1606.9339641253907, -10442.243271141442, -1071.0732425538592, 447.6607379508898, -5214.326705256308, -2778.6571119614973, -2983.6449603611186, -7580.9517599286755, -4045.509284199391, -2446.107857955439, -4699.968361850782, -3668.077727327076, -10960.200245404274, -13715.633894876706, 0.016, -0.10400000000000001, 0.994, 192.0, 0.0, 64.0, 126.0, 96.0, 15.5, 8.0, 0.0, 0.0, 0.0, 1.645920447841002E9, 0.0, 2022-02-27 11:07:27.841
10.0, -3162.9283026371363, -6215.863670809707, -1482.5688579760622, -10251.247614770844, -761.5909888256775, 647.5747403591562, -5251.94469117459, -2781.227562573858, -3302.1126153603336, -7386.290417467406, -4007.958353514475, -2626.2182147763033, -4668.87708531345, -3664.076765069576, -11125.91607879592, -13665.565987296819, 0.016, -0.10400000000000001, 0.994, 192.0, 0.0, 0.0, 0.0, 0.0, 0.0, 0.0, 0.0, 0.0, 0.0, 1.64592044784875E9, 0.0, 2022-02-27 11:07:27.848
12.0, -3455.9149689573014, -6337.6583263466755, -1575.283893976676, -10425.278297099865, -1019.2171954175468, 493.90649722892016, -5254.0234034089335, -2850.2273977073905, -4677.6613208843855, -8103.759062738307, -4061.021394851374, -2700.850689512574, -4705.131614819958, -3755.718917336335, -11380.211875463949, -14438.936345450444, 0.016, -0.10400000000000001, 0.994, 192.0, 0.0, 0.0, 0.0, 0.0, 0.0, 0.0, 0.0, 0.0, 0.0, 1.645920447855637E9, 0.0, 2022-02-27 11:07:27.855
14.0, -3359.914226521758, -6335.557262367876, -1559.794135069148, -10348.075371751234, -928.1114850177152, 535.0784105155958, -5235.873786911224, -2731.5619863941656, -2322.9273942622417, -7187.829278448735, -4017.2790309523384, -2453.2157126922266, -4683.338663976034, -3629.900947797412, -10855.012935997598, -13319.315113939658, 0.016, -0.10400000000000001, 0.994, 192.0, 0.0, 0.0, 0.0, 0.0, 0.0, 0.0, 0.0, 0.0, 0.0, 1.645920447863634E9, 0.0, 2022-02-27 11:07:27.863
16.0, -3197.5735065428626, -6199.412786890601, -1486.3686545334645, -10284.149382609055, -805.5345184248113, 639.2375396773267, -5263.031156424422, -2846.7181738279073, -4725.2705365741895, -7908.3154092211025, -4023.001077532897, -2787.798975443718, -4669.6817481138405, -3745.54887360917, -11441.41095178258, -14327.35643712955, 0.016, -0.10400000000000001, 0.993, 192.0, 0.0, 64.0, 126.0, 96.0, 15.5, 0.0, 0.0, 0.0, 0.0, 1.645920447877833E9, 0.0, 2022-02-27 11:07:27.877
18.0, -3520.086827288488, -6402.880716667261, -1613.0359903616895, -10444.657259542617, -1063.5407046724206, 445.76083967218875, -5230.688182197593, -2791.442309789933, -3041.98301338947, -7602.7894142615105, -4042.7600196313883, -2453.327471414503, -4696.54854494912, -3678.5830472210705, -10966.011698962653, -13750.212043549067, 0.016, -0.10400000000000001, 0.993, 192.0, 0.0, 0.0, 0.0, 0.0, 0.0, 0.0, 0.0, 0.0, 0.0, 1.645920447885247E9, 0.0, 2022-02-27 11:07:27.885
20.0, -3154.4122879996644, -6207.101786983227, -1488.9167534013693, -10242.910414089014, -765.8154685277306, 649.3181764266702, -5262.539418046405, -2755.4112977279783, -3257.967920061102, -7369.370146914738, -3997.6318475761236, -2621.099665296038, -4661.903341043394, -3674.403271007928, -11109.509898365724, -13651.104408634235, 0.016, -0.10400000000000001, 0.993, 192.0, 0.0, 0.0, 0.0, 0.0, 0.0, 0.0, 0.0, 0.0, 0.0, 1.645920447893348E9, 0.0, 2022-02-27 11:07:27.893
22.0, -3431.640974478838, -6319.843986015795, -1571.8417253305586, -10411.353160304208, -1013.4504453480776, 493.0124274507079, -5229.436484508095, -2855.792982076762, -4700.638914184441, -8102.954399937917, -4041.217749263972, -2699.1743086784254, -4688.3454547340225, -3763.5643796401478, -11373.796924805276, -14448.547595566226, 0.016, -0.10400000000000001, 0.993, 192.0, 0.0, 0.0, 0.0, 0.0, 0.0, 0.0, 0.0, 0.0, 0.0, 1.645920447900555E9, 0.0, 2022-02-27 11:07:27.900
24.0, -3359.355432910375, -6340.340535681312, -1567.7290043507821, -10348.231833962422, -932.1795025085811, 522.6061371095344, -5240.433542780107, -2726.0858090026154, -2300.016856195552, -7189.371548816151, -4006.7960628027995, -2440.1622939303275, -4672.296902215112, -3631.4208664203725, -10842.272441658073, -13322.511413396765, 0.016, -0.10400000000000001, 0.993, 192.0, 0.0, 0.0, 0.0, 0.0, 0.0, 0.0, 0.0, 0.0, 0.0, 1.645920447907832E9, 0.0, 2022-02-27 11:07:27.907
26.0, -3192.9913989295246, -6208.889926539651, -1492.090701114023, -10280.55075175175, -800.3265619667247, 617.1540161554833, -5259.454877311573, -2835.1846736889693, -4689.418338467877, -7898.726510849776, -4022.5987461327013, -2793.968056913383, -4663.892646299916, -3759.7198795938352, -11426.368227764158, -14316.873468980011, 0.016, -0.10500000000000001, 0.9924999999999999, 192.0, 0.0, 64.0, 126.0, 88.0, 15.5, 0.0, 0.0, 0.0, 0.0, 1.645920447915883E9, 0.0, 2022-02-27 11:07:27.915
28.0, -3524.445417457273, -6417.185833118658, -1616.5899177300832, -10443.182044408566, -1062.2890069829234, 432.8862348659319, -5231.649307209171, -2779.729995695352, -3082.75259527595, -7622.07896972644, -4045.844560366221, -2467.699643099266, -4697.912001360894, -3703.728759733291, -10971.465524609748, -13770.932110659136, 0.016, -0.10500000000000001, 0.9924999999999999, 192.0, 0.0, 0.0, 0.0, 0.0, 0.0, 0.0, 0.0, 0.0, 0.0, 1.645920447924049E9, 0.0, 2022-02-27 11:07:27.924
30.0, -3165.4764015050414, -6234.259156496425, -1494.0800063705453, -10252.02992582678, -772.900971520063, 626.452341848891, -5241.595833491782, -2756.886512862028, -3212.2586026499994, -7361.122353210731, -4002.5939348452016, -2623.692467652854, -4665.233750967235, -3690.9435619048554, -11093.550752824636, -13638.609783483718, 0.016, -0.10500000000000001, 0.9924999999999999, 192.0, 0.0, 0.0, 0.0, 0.0, 0.0, 0.0, 0.0, 0.0, 0.0, 1.645920447930033E9, 0.0, 2022-02-27 11:07:27.930
32.0, -3440.0452303940333, -6341.324012437345, -1577.2955509776534, -10419.332733074752, -1012.824596503329, 490.2631628827051, -5240.835874180302, -2855.0330227652817, -4744.135408894469, -8108.721150007385, -4053.7347261589443, -2727.8515968145844, -4700.482451973254, -3790.431176475427, -11384.771631332831, -14463.322098651184, 0.016, -0.10500000000000001, 0.9924999999999999, 192.0, 0.0, 0.0, 0.0, 0.0, 0.0, 0.0, 0.0, 0.0, 0.0, 1.64592044793751E9, 0.0, 2022-02-27 11:07:27.937
34.0, -3371.5594853829725, -6354.1539137546915, -1569.5618473961172, -10363.833351592226, -937.7897903668631, 513.5760323495904, -5218.662943680638, -2737.5299021637325, -2309.136367933317, -7202.04498792231, -4012.160481472073, -2447.6277765784, -4684.098623287514, -3642.5520351591153, -10842.38420038035, -13329.73102685583, 0.016, -0.10500000000000001, 0.9924999999999999, 192.0, 0.0, 0.0, 0.0, 0.0, 0.0, 0.0, 0.0, 0.0, 0.0, 1.645920447945511E9, 0.0, 2022-02-27 11:07:27.945
36.0, -3191.337369839832, -6215.729560342975, -1486.927448144847, -10281.1766005965, -801.6006114006772, 630.0286209617402, -5261.08655465681, -2813.570536800687, -4665.814896323072, -7893.362092180502, -4022.7328565994335, -2801.500594794821, -4674.5544284050975, -3764.3466906960834, -11422.680189929031, -14302.523649039704, 0.017, -0.10350000000000001, 0.99225, 192.0, 0.0, 72.0, 126.0, 104.0, 15.5, 0.0, 0.0, 0.0, 0.0, 1.645920447953602E9, 0.0, 2022-02-27 11:07:27.953
38.0, -3528.312269248041, -6426.953545445627, -1619.3168305536308, -10449.820512511793, -1065.3735477177559, 450.87938915245405, -5217.120673313221, -2763.8826088765395, -3135.52506393493, -7651.247996240616, -4044.3469934877153, -2479.143736260383, -4702.762329907695, -3698.7890242086683, -10984.764812560656, -13789.528762045951, 0.017, -0.10350000000000001, 0.99225, 192.0, 0.0, 0.0, 0.0, 0.0, 0.0, 0.0, 0.0, 0.0, 0.0, 1.645920447960178E9, 0.0, 2022-02-27 11:07:27.960
40.0, -3180.1838493566333, -6250.017136337417, -1498.2597825836876, -10259.78598115277, -764.7872882827864, 634.3872111305251, -5244.993298648989, -2737.5969573970983, -3178.2168958445664, -7360.7870770439, -4006.4607866359697, -2619.80326411763, -4670.866390569972, -3669.754108161224, -11085.548828309635, -13613.17349829358, 0.017, -0.10350000000000001, 0.99225, 192.0, 0.0, 0.0, 0.0, 0.0, 0.0, 0.0, 0.0, 0.0, 0.0, 1.645920447968224E9, 0.0, 2022-02-27 11:07:27.968
42.0, -3433.0714861239776, -6341.435771159622, -1570.7688415967039, -10417.67870398506, -997.9830381850051, 488.49737507073587, -5231.738714186992, -2849.5568453737314, -4779.361758156033, -8132.905737508027, -4058.093316327729, -2731.9866695388164, -4703.611696196997, -3794.2086212883737, -11396.081614027216, -14473.514494122803, 0.017, -0.10350000000000001, 0.99225, 192.0, 0.0, 0.0, 0.0, 0.0, 0.0, 0.0, 0.0, 0.0, 0.0, 1.645920447976279E9, 0.0, 2022-02-27 11:07:27.976
44.0, -3384.702311122693, -6376.21508553208, -1577.3849579554746, -10373.221084263454, -938.0803630447821, 505.4399973678586, -5220.808711148347, -2720.766093822252, -2308.085835943918, -7217.579450318748, -4019.7824263313328, -2453.9309685147964, -4684.903286087905, -3646.240072994241, -10838.38323812285, -13334.000210046794, 0.017, -0.10350000000000001, 0.99225, 192.0, 0.0, 0.0, 0.0, 0.0, 0.0, 0.0, 0.0, 0.0, 0.0, 1.64592044798327E9, 0.0, 2022-02-27 11:07:27.983
46.0, -3181.100270879301, -6224.156168002626, -1490.995465635713, -10286.138687865578, -793.6210386301326, 623.6583737919776, -5267.590912293304, -2840.0126504913155, -4640.356259388478, -7887.193010710837, -4025.280955467338, -2804.473376807377, -4678.153059262402, -3746.7782195542122, -11419.886221872119, -14290.677224478392, 0.0165, -0.10175000000000001, 0.9901249999999999, 192.0, 0.0, 64.0, 126.0, 112.0, 15.0, 112.0, 0.0, 0.0, 0.0, 1.645920447997817E9, 0.0, 2022-02-27 11:07:27.997
48.0, -3516.7564173646474, -6425.813606478407, -1610.309077538142, -10452.659184057617, -1054.465896423566, 417.24001374721695, -5202.592039417272, -2784.7814899422515, -3180.0944423788123, -7671.453973228214, -4037.864987595676, -2487.8385648534972, -4701.823556640573, -3704.555774278137, -10999.427556923338, -13825.02333224098, 0.0165, -0.10175000000000001, 0.9901249999999999, 192.0, 0.0, 0.0, 0.0, 0.0, 0.0, 0.0, 0.0, 0.0, 0.0, 1.645920448005831E9, 0.0, 2022-02-27 11:07:28.005
50.0, -3176.4064045436867, -6247.357278747235, -1492.6494947254057, -10253.102809560634, -757.0088812123396, 641.3833071450362, -5222.216871049031, -2740.7932568542074, -3135.90504359067, -7349.410039116149, -3999.5988010881906, -2624.094799053049, -4667.670091112864, -3668.5024104717268, -11074.037679915153, -13596.722614374474, 0.0165, -0.10175000000000001, 0.9901249999999999, 192.0, 0.0, 0.0, 0.0, 0.0, 0.0, 0.0, 0.0, 0.0, 0.0, 1.645920448012451E9, 0.0, 2022-02-27 11:07:28.012
52.0, -3428.444675021729, -6338.664154847164, -1570.7241381077931, -10409.25209632541, -978.1793925976029, 510.98322999277474, -5229.011801363445, -2823.4947113388434, -4805.3344852130995, -8126.691952549452, -4052.348918002715, -2747.476428446344, -4691.429995468855, -3760.0551557606645, -11399.434375695513, -14472.91099702251, 0.0165, -0.10175000000000001, 0.9901249999999999, 192.0, 0.0, 0.0, 0.0, 0.0, 0.0, 0.0, 0.0, 0.0, 0.0, 1.645920448020383E9, 0.0, 2022-02-27 11:07:28.020
54.0, -3390.29024723652, -6370.02365231796, -1576.0438532881562, -10371.678813896038, -939.7790956233855, 508.70335205833345, -5207.956458086545, -2719.804968810674, -2316.1548156922836, -7216.059531695787, -4022.6881531105228, -2452.9251400143075, -4690.044187312626, -3622.8825000384454, -10837.779741022558, -13323.629000619532, 0.0165, -0.10175000000000001, 0.9901249999999999, 192.0, 0.0, 0.0, 0.0, 0.0, 0.0, 0.0, 0.0, 0.0, 0.0, 1.645920448028361E9, 0.0, 2022-02-27 11:07:28.028
56.0, -3181.3461400683095, -6212.712074841509, -1487.4415382673192, -10280.304882562743, -788.6589513610544, 633.8284175191424, -5245.015650393445, -2820.5889845596535, -4602.1794798588135, -7867.255254656703, -4017.2119757189726, -2799.958324427405, -4670.39700393641, -3741.9055392629552, -11412.286628757314, -14266.514988722205, 0.013250000000000001, -0.103875, 0.9910625, 192.0, 0.0, 40.0, 126.0, 88.0, 15.5, 0.0, 0.0, 0.0, 0.0, 1.645920448035694E9, 0.0, 2022-02-27 11:07:28.035
58.0, -3530.256871015653, -6421.8349959653615, -1617.3498770415638, -10460.281128916875, -1066.491134940521, 442.4974849817139, -5221.613373948739, -2782.5016120078103, -3266.55098993194, -7703.662836988311, -4051.298386013316, -2505.6082016954665, -4704.192841552835, -3685.6461984689477, -11011.877478584944, -13850.929004064681, 0.013250000000000001, -0.103875, 0.9910625, 192.0, 0.0, 0.0, 0.0, 0.0, 0.0, 0.0, 0.0, 0.0, 0.0, 1.64592044804303E9, 0.0, 2022-02-27 11:07:28.043
60.0, -3183.0225209024575, -6245.077400812794, -1499.3326663175424, -10261.194141053456, -767.9835877398954, 633.7837140302317, -5246.893196927691, -2744.5930534116096, -3097.504746616453, -7335.484902320493, -4001.0069609888747, -2617.746903627742, -4663.713832344274, -3656.8795033549673, -11071.7130984918, -13585.010300279893, 0.013250000000000001, -0.103875, 0.9910625, 192.0, 0.0, 0.0, 0.0, 0.0, 0.0, 0.0, 0.0, 0.0, 0.0, 1.645920448050085E9, 0.0, 2022-02-27 11:07:28.050
62.0, -3421.537985985039, -6329.857567531773, -1567.2596177172206, -10407.15103234661, -983.9908461559828, 511.7431893042552, -5211.420978477118, -2863.3031682137453, -4850.172084590446, -8135.967926498405, -4055.0087755928967, -2758.6299489295425, -4699.07429207257, -3777.109536780064, -11415.125300303138, -14489.048956519242, 0.013250000000000001, -0.103875, 0.9910625, 192.0, 0.0, 0.0, 0.0, 0.0, 0.0, 0.0, 0.0, 0.0, 0.0, 1.645920448057946E9, 0.0, 2022-02-27 11:07:28.057
64.0, -3401.421415975263, -6380.193696045125, -1578.1225655224998, -10371.81292436277, -938.9073775896285, 515.9900207507635, -5194.008969546434, -2706.0139424817494, -2317.0265337260407, -7224.910822500089, -4019.648315864601, -2448.1865701897827, -4678.890666829428, -3624.313011683585, -10831.409493852794, -13334.78252110273, 0.013250000000000001, -0.103875, 0.9910625, 192.0, 0.0, 0.0, 0.0, 0.0, 0.0, 0.0, 0.0, 0.0, 0.0, 1.645920448065324E9, 0.0, 2022-02-27 11:07:28.065
66.0, -3181.234381346033, -6215.237821964958, -1484.8040324215929, -10275.611016227129, -769.4588028739456, 647.6641473369774, -5240.9923363914895, -2790.145908611525, -4579.939494125783, -7854.581815550544, -4026.0856182677294, -2801.0312081612597, -4662.909169543883, -3723.8453297430674, -11396.707462871966, -14235.736636607247, 0.014625, -0.1019375, 0.99053125, 192.0, 0.0, 64.0, 126.0, 112.0, 15.0, 120.0, 0.0, 0.0, 0.0, 1.645920448072802E9, 0.0, 2022-02-27 11:07:28.072
68.0, -3523.5960511679714, -6408.133376614258, -1611.5607752276392, -10449.887567745158, -1056.432849935633, 443.7268309267558, -5194.545411413362, -2765.0448995882157, -3296.770548435515, -7704.311037577515, -4046.716278399978, -2501.9872190937067, -4689.97713207926, -3689.200125837341, -11016.280772242639, -13854.482931433075, 0.014625, -0.1019375, 0.99053125, 192.0, 0.0, 0.0, 0.0, 0.0, 0.0, 0.0, 0.0, 0.0, 0.0, 1.645920448080723E9, 0.0, 2022-02-27 11:07:28.080
70.0, -3184.229515103044, -6243.1551507896365, -1501.6572477408945, -10258.757800907828, -755.1313346780938, 643.1490949570054, -5210.83983312128, -2734.355954451079, -3066.301711356844, -7314.720131721513, -3995.843708019699, -2608.001543045228, -4648.268776925656, -3653.5714451755816, -11043.974583622765, -13557.91998600006, 0.014625, -0.1019375, 0.99053125, 192.0, 0.0, 0.0, 0.0, 0.0, 0.0, 0.0, 0.0, 0.0, 0.0, 1.645920448088786E9, 0.0, 2022-02-27 11:07:28.088
72.0, -3417.0452853495226, -6324.8060732848735, -1574.7027486208378, -10399.998474120912, -967.6070174702428, 519.8568725415316, -5216.830100635302, -2844.728868571385, -4870.4898203003195, -8134.4256561309885, -4047.8562173671985, -2747.7893528687187, -4679.270646485168, -3766.98419654181, -11408.017445566351, -14486.7690785848, 0.014625, -0.1019375, 0.99053125, 192.0, 0.0, 0.0, 0.0, 0.0, 0.0, 0.0, 0.0, 0.0, 0.0, 1.645920448095423E9, 0.0, 2022-02-27 11:07:28.095
74.0, -3404.8188811324694, -6374.918684353672, -1588.627885416494, -10370.874151095648, -935.4205054546005, 514.4030468944368, -5199.775719615904, -2727.7174863478526, -2324.5814233519345, -7233.046857481821, -4022.1070077546847, -2446.4207823778133, -4674.017986538171, -3631.6220321204705, -10824.972191449666, -13333.73198911333, 0.014625, -0.1019375, 0.99053125, 192.0, 0.0, 0.0, 0.0, 0.0, 0.0, 0.0, 0.0, 0.0, 0.0, 1.645920448103347E9, 0.0, 2022-02-27 11:07:28.103
76.0, -3179.9826836565358, -6216.489519654456, -1492.1354046029335, -10266.245635300354, -761.4121748700351, 658.6835573534438, -5234.912661899646, -2812.4529495779216, -4545.651918131342, -7835.247556596703, -4022.1517112435954, -2798.214888359891, -4655.3989834069, -3735.5352920931928, -11383.721099343431, -14223.599639368016, 0.0173125, -0.10396875, 0.9882656249999999, 192.0, 0.0, 80.0, 126.0, 88.0, 15.0, 104.0, 0.0, 0.0, 0.0, 1.645920448111267E9, 0.0, 2022-02-27 11:07:28.111
78.0, -3534.8166268845353, -6429.971030947093, -1622.826054433114, -10451.429838112574, -1051.6048731332867, 449.1359530849401, -5199.485146937985, -2784.5579724976988, -3358.126086965333, -7733.614174558423, -4046.716278399978, -2514.2136233107594, -4687.07140530007, -3698.4760997862936, -11015.118481530963, -13884.836600403381, 0.0173125, -0.10396875, 0.9882656249999999, 192.0, 0.0, 0.0, 0.0, 0.0, 0.0, 0.0, 0.0, 0.0, 0.0, 1.64592044812493E9, 0.0, 2022-02-27 11:07:28.124
80.0, -3192.6337710182397, -6260.678918442598, -1511.961401934791, -10258.17665555199, -765.2119714274373, 639.7069263108881, -5214.8184436343245, -2741.128533021037, -3020.1230073121797, -7312.104977620242, -3998.7941382877993, -2605.6993133663314, -4647.128837958436, -3657.661814410903, -11024.930897346843, -13543.68192478203, 0.0173125, -0.10396875, 0.9882656249999999, 192.0, 0.0, 0.0, 0.0, 0.0, 0.0, 0.0, 0.0, 0.0, 0.0, 1.64592044813285E9, 0.0, 2022-02-27 11:07:28.132
82.0, -3413.379599258852, -6325.409570385167, -1572.8028503421367, -10393.069433339768, -963.9636831240277, 533.6031953815456, -5213.499690711462, -2845.891159283061, -4904.889155017037, -8135.409132887022, -4052.706545914, -2766.989501355827, -4672.3192539595675, -3769.4652401763487, -11407.525707188333, -14492.20055248744, 0.0173125, -0.10396875, 0.9882656249999999, 192.0, 0.0, 0.0, 0.0, 0.0, 0.0, 0.0, 0.0, 0.0, 0.0, 1.645920448141109E9, 0.0, 2022-02-27 11:07:28.141
84.0, -3423.0132011190894, -6383.546457713421, -1594.3946354859634, -10373.355194730186, -951.0443748288602, 514.6042125945345, -5194.6795218800935, -2736.8593498300734, -2342.373411938359, -7238.500683128916, -4027.2702607238607, -2450.19822719076, -4662.775059077151, -3629.588023375037, -10818.333723346439, -13340.906899083484, 0.0173125, -0.10396875, 0.9882656249999999, 192.0, 0.0, 0.0, 0.0, 0.0, 0.0, 0.0, 0.0, 0.0, 0.0, 1.64592044814765E9, 0.0, 2022-02-27 11:07:28.147
86.0, -3178.9992069005025, -6211.996819018939, -1496.8069191940929, -10260.590643953163, -760.6969190474653, 663.7574033447985, -5228.542414729884, -2813.637592034053, -4511.520804348088, -7806.078530082528, -4028.7901793468213, -2798.863088949095, -4648.022907736648, -3733.367172881028, -11369.885369525597, -14199.52681058965, 0.018000000000000002, -0.108, 0.984, 192.0, 0.0, 72.0, 126.0, 80.0, 15.0, 96.0, 0.0, 0.0, 0.0, 1.645920448155663E9, 0.0, 2022-02-27 11:07:28.155
88.0, -3536.2918420185856, -6421.477368054077, -1626.5587957571502, -10446.758323521415, -1051.850742322295, 456.9367118998423, -5188.59984738825, -2787.6201614880756, -3417.4923202386285, -7740.945546739763, -4057.780391905355, -2525.613012982966, -4681.148193019413, -3693.9610474063215, -11020.505251944693, -13901.84627793387, 0.018000000000000002, -0.108, 0.984, 192.0, 0.0, 0.0, 0.0, 0.0, 0.0, 0.0, 0.0, 0.0, 0.0, 1.645920448163604E9, 0.0, 2022-02-27 11:07:28.163
90.0, -3196.9476576981137, -6257.236749796481, -1515.8506054700144, -10255.717963661906, -761.7250992924094, 646.4348013919356, -5209.454024965051, -2738.893358575506, -3006.399036216621, -7292.547201221848, -4004.516184868358, -2603.5758976430775, -4640.378611132934, -3642.619090392481, -11012.503327429691, -13528.929773441527, 0.018000000000000002, -0.108, 0.984, 192.0, 0.0, 0.0, 0.0, 0.0, 0.0, 0.0, 0.0, 0.0, 0.0, 1.645920448170706E9, 0.0, 2022-02-27 11:07:28.170
92.0, -3394.4029682162964, -6311.953820223072, -1566.9019898059357, -10382.072375067757, -946.1046393042374, 550.4564107008471, -5238.108961356755, -2848.796886062251, -4920.155396480012, -8122.959211225416, -4043.0505923093074, -2767.414184500478, -4662.886817799427, -3755.718917336335, -11406.63163741012, -14493.742822854856, 0.018000000000000002, -0.108, 0.984, 192.0, 0.0, 0.0, 0.0, 0.0, 0.0, 0.0, 0.0, 0.0, 0.0, 1.64592044817727E9, 0.0, 2022-02-27 11:07:28.177
94.0, -3411.8596806358914, -6375.924512854161, -1590.2372110172762, -10367.588444660718, -935.4652089435112, 531.2339104692829, -5195.841812591769, -2742.4025824549894, -2330.616394354867, -7226.721313800969, -4004.8514610351876, -2435.334317127981, -4653.521436872654, -3609.42674987635, -10808.320141830462, -13332.524994912745, 0.018000000000000002, -0.108, 0.984, 192.0, 0.0, 0.0, 0.0, 0.0, 0.0, 0.0, 0.0, 0.0, 0.0, 1.645920448185287E9, 0.0, 2022-02-27 11:07:28.185
96.0, -3172.494849264008, -6211.549784129833, -1495.6893319713274, -10254.376858994587, -743.6425380280659, 670.7534993593097, -5223.982658861, -2811.536528055254, -4473.209914351692, -7787.079547295517, -4009.388865159615, -2785.608504487098, -4641.853826266984, -3712.7365127487797, -11356.519026341322, -14172.95058643229, 0.014, -0.11, 0.984, 192.0, 0.0, 56.0, 126.0, 72.0, 15.0, 96.0, 0.0, 0.0, 0.0, 1.645920448193331E9, 0.0, 2022-02-27 11:07:28.193
98.0, -3542.5279787216164, -6423.533728543965, -1626.5811475016055, -10448.837035755758, -1038.3279369268344, 458.6354444784456, -5194.947742813557, -2830.2002346754357, -3480.099556457944, -7754.87068353542, -4044.3022899988046, -2528.8093124400752, -4672.900399315405, -3681.1534978334307, -11038.61016495349, -13928.780130002515, 0.014, -0.11, 0.984, 192.0, 0.0, 0.0, 0.0, 0.0, 0.0, 0.0, 0.0, 0.0, 0.0, 1.645920448200358E9, 0.0, 2022-02-27 11:07:28.200
100.0, -3222.518053354985, -6271.117183103226, -1528.5240445761735, -10270.51481849132, -759.6016835691552, 639.9751472443518, -5188.21986773251, -2752.997309326805, -2951.793724512306, -7278.666767915102, -4000.135242955118, -2611.9578018138172, -4641.049163466592, -3629.3868576749396, -11005.484879670725, -13510.690749965997, 0.014, -0.11, 0.984, 192.0, 0.0, 0.0, 0.0, 0.0, 0.0, 0.0, 0.0, 0.0, 0.0, 1.645920448207796E9, 0.0, 2022-02-27 11:07:28.207
102.0, -3409.378637001352, -6328.225890186535, -1580.8047748571366, -10394.231724051444, -936.7839618663743, 546.5001519322577, -5222.216871049031, -2823.628821805575, -4956.320519008698, -8137.934880010472, -4049.1079150566957, -2790.2576673338017, -4669.838210325028, -3760.301024949673, -11419.953277105484, -14500.425994446994, 0.014, -0.11, 0.984, 192.0, 0.0, 0.0, 0.0, 0.0, 0.0, 0.0, 0.0, 0.0, 0.0, 1.645920448216082E9, 0.0, 2022-02-27 11:07:28.216
104.0, -3443.710916484704, -6403.953600401116, -1610.3537810270527, -10386.118040814166, -938.8850258451731, 513.620735838501, -5191.617332889716, -2737.641660886009, -2357.572598167968, -7247.620194866681, -4014.552118128791, -2451.3158144135255, -4659.556407875587, -3620.6920290818252, -10815.539755289527, -13353.06624806717, 0.014, -0.11, 0.984, 192.0, 0.0, 0.0, 0.0, 0.0, 0.0, 0.0, 0.0, 0.0, 0.0, 1.64592044822396E9, 0.0, 2022-02-27 11:07:28.223
106.0, -3194.198393130111, -6244.540958945866, -1511.3355530900424, -10264.882178888582, -735.2829856017811, 670.1723540034717, -5253.129333630721, -2777.9865596278382, -4436.776570889541, -7779.345843713981, -4018.3742664306483, -2794.951533669416, -4645.564215846564, -3726.8628152445335, -11349.254709393348, -14157.70669671377, 0.016, -0.10400000000000001, 0.986, 192.0, 0.0, 64.0, 126.0, 96.0, 15.0, 104.0, 0.0, 0.0, 0.0, 1.645920448230626E9, 0.0, 2022-02-27 11:07:28.230
108.0, -3567.6513394893814, -6456.301385915445, -1639.0534209076668, -10457.844788771246, -1038.3502886712895, 458.14370610042886, -5191.773795100903, -2770.4540217463996, -3540.315156020541, -7787.615989162445, -4049.4878947124357, -2543.784981225131, -4679.561219163086, -3691.725872960791, -11055.306918061606, -13951.020115735546, 0.016, -0.10400000000000001, 0.986, 192.0, 0.0, 0.0, 0.0, 0.0, 0.0, 0.0, 0.0, 0.0, 0.0, 1.645920448245689E9, 0.0, 2022-02-27 11:07:28.245
110.0, -3257.654995638728, -6314.479567346521, -1529.8427974990366, -10282.093022119168, -757.6570818015435, 632.8002372741983, -5162.135381953166, -2697.4308726109116, -2928.525558534331, -7286.266361029907, -4006.930173269531, -2604.3358569545576, -4656.49421888521, -3642.239110736741, -10983.513114871159, -13488.964854355438, 0.016, -0.10400000000000001, 0.986, 192.0, 0.0, 0.0, 0.0, 0.0, 0.0, 0.0, 0.0, 0.0, 0.0, 1.645920448252748E9, 0.0, 2022-02-27 11:07:28.252
112.0, -3438.391201304341, -6353.796285843407, -1567.9972252842458, -10404.82645092326, -920.7354093474638, 546.6789658879002, -5185.895286309157, -2826.89217649605, -4974.425432017498, -8140.2371096893685, -4050.1807987905504, -2808.5637460426983, -4675.4037946944, -3764.9948912852874, -11410.610247923167, -14502.705872381435, 0.016, -0.10400000000000001, 0.986, 192.0, 0.0, 0.0, 0.0, 0.0, 0.0, 0.0, 0.0, 0.0, 0.0, 1.645920448260163E9, 0.0, 2022-02-27 11:07:28.260
114.0, -3493.778824064592, -6452.032202724481, -1598.8649843770247, -10404.044139867323, -939.1979502675474, 511.85494802653176, -5179.189762972565, -2708.807910538663, -2374.1575925538054, -7272.654148656625, -4029.706600869489, -2472.4829164127013, -4667.200704479302, -3621.921375026867, -10801.502859771594, -13353.625041678553, 0.016, -0.10400000000000001, 0.986, 192.0, 0.0, 0.0, 0.0, 0.0, 0.0, 0.0, 0.0, 0.0, 0.0, 1.645920448268259E9, 0.0, 2022-02-27 11:07:28.268
116.0, -3247.283786211465, -6299.392139839189, -1498.6621139838833, -10276.683899960983, -743.5978345391553, 665.8137638346868, -5221.32280127082, -2771.772774669263, -4421.39857070429, -7785.581980417011, -4028.834882835732, -2813.548185056232, -4655.264872940168, -3724.046495443165, -11336.402456331547, -14142.351048272974, 0.008, -0.106, 0.99, 192.0, 0.0, 32.0, 126.0, 88.0, 15.0, 120.0, 0.0, 0.0, 0.0, 1.645920448276106E9, 0.0, 2022-02-27 11:07:28.276
118.0, -3638.662831623892, -6522.954287881171, -1632.794932460181, -10468.797143554348, -1047.9838905315269, 451.48288625274733, -5183.682463608082, -2772.3315682806456, -3608.7114940537804, -7824.9657541472625, -4072.7113572015, -2579.9054002649073, -4698.135518805447, -3707.8414807130675, -11055.75395295071, -13974.310633457975, 0.008, -0.106, 0.99, 192.0, 0.0, 0.0, 0.0, 0.0, 0.0, 0.0, 0.0, 0.0, 0.0, 1.645920448282826E9, 0.0, 2022-02-27 11:07:28.282
120.0, -3340.7587815235597, -6401.025521877471, -1533.150855678422, -10285.736356465382, -771.8057360417529, 629.9168622394636, -5194.523059668906, -2728.1198177480483, -2925.0386863993035, -7295.609390212226, -4023.3363536997267, -2618.3727524724904, -4659.757573575685, -3645.3460032160287, -10982.820210793045, -13485.388575242589, 0.008, -0.106, 0.99, 192.0, 0.0, 0.0, 0.0, 0.0, 0.0, 0.0, 0.0, 0.0, 0.0, 1.645920448290889E9, 0.0, 2022-02-27 11:07:28.290
122.0, -3542.1703508103315, -6465.443249397666, -1576.1556120104328, -10404.82645092326, -917.6508686126315, 551.8422188570761, -5221.658077437649, -2822.2653653938014, -5021.453502351464, -8170.367261215122, -4074.7230142024773, -2834.1788451884804, -4684.344492476523, -3764.4137459294498, -11427.530518475833, -14516.742767899368, 0.008, -0.106, 0.99, 192.0, 0.0, 0.0, 0.0, 0.0, 0.0, 0.0, 0.0, 0.0, 0.0, 1.645920448297945E9, 0.0, 2022-02-27 11:07:28.297
124.0, -3623.396590160917, -6575.503239095598, -1613.5500804841615, -10409.945000403524, -937.7674386224078, 510.782064292677, -5179.837963561769, -2720.8778525445287, -2437.81536076252, -7309.78039619689, -4067.704566443511, -2497.136890546905, -4681.997559308715, -3622.5472238716156, -10807.113147629876, -13368.26543429678, 0.008, -0.106, 0.99, 192.0, 0.0, 0.0, 0.0, 0.0, 0.0, 0.0, 0.0, 0.0, 0.0, 1.645920448305829E9, 0.0, 2022-02-27 11:07:28.305
126.0, -3366.3738806693414, -6414.4142168062, -1502.0819308855453, -10278.561446495229, -722.4977877733455, 676.386138962047, -5208.291734253376, -2789.7212254668743, -4425.310125983969, -7789.605294418967, -4069.0456711108295, -2838.7386010573628, -4659.4670008977655, -3704.1310911334863, -11321.739711968865, -14122.79327187458, 0.01, -0.106, 0.992, 192.0, 0.0, 40.0, 126.0, 88.0, 15.5, 0.0, 0.0, 0.0, 0.0, 1.645920448312445E9, 0.0, 2022-02-27 11:07:28.312
128.0, -3751.561492867648, -6633.014277579103, -1631.2303103483093, -10479.50362914844, -1033.8575880357728, 465.8774096819651, -5179.3015216948415, -2775.0137776152824, -3713.608230782537, -7877.000615239217, -4106.8201192402985, -2625.748828142742, -4698.850774628017, -3668.8600383830117, -11065.387554810948, -14003.479659972152, 0.01, -0.106, 0.992, 192.0, 0.0, 0.0, 0.0, 0.0, 0.0, 0.0, 0.0, 0.0, 0.0, 1.645920448320654E9, 0.0, 2022-02-27 11:07:28.320
130.0, -3442.638032750849, -6490.656017143252, -1530.4462945993298, -10291.99484491287, -763.96027373794, 637.1811791874385, -5206.481242952495, -2712.3618379070567, -2927.832654456217, -7307.165242095619, -4053.220636036472, -2647.2735580532026, -4659.757573575685, -3627.4646076517834, -10962.234254149706, -13464.690859876975, 0.01, -0.106, 0.992, 192.0, 0.0, 0.0, 0.0, 0.0, 0.0, 0.0, 0.0, 0.0, 0.0, 1.645920448327936E9, 0.0, 2022-02-27 11:07:28.327
132.0, -3585.666845520359, -6511.979581353615, -1567.0361002726675, -10386.878000125647, -913.6946098440421, 562.7051666623553, -5233.258632809953, -2832.793037032251, -5079.210410023977, -8158.722002353908, -4097.253572613427, -2847.2769674392903, -4687.227867511257, -3756.3224144366286, -11428.73751267642, -14511.132480041086, 0.01, -0.106, 0.992, 192.0, 0.0, 0.0, 0.0, 0.0, 0.0, 0.0, 0.0, 0.0, 0.0, 1.645920448335776E9, 0.0, 2022-02-27 11:07:28.335
134.0, -3635.0642007665874, -6576.374957129355, -1608.2750687927091, -10402.099538099712, -946.0152323264161, 514.5148056167133, -5199.641609149171, -2729.1032945040815, -2465.017433764629, -7317.02236140041, -4066.631682709656, -2494.164108534349, -4682.109318030992, -3593.244086890708, -10812.61167676588, -13375.88737915604, 0.01, -0.106, 0.992, 192.0, 0.0, 0.0, 0.0, 0.0, 0.0, 0.0, 0.0, 0.0, 0.0, 1.645920448343827E9, 0.0, 2022-02-27 11:07:28.343
136.0, -3344.290357147498, -6389.447318249621, -1493.3647505479755, -10268.45845800143, -725.6493837415438, 678.0401680517398, -5223.155644316154, -2794.951533669416, -4379.600808572866, -7753.3507649124585, -4049.353784245704, -2819.2925833812455, -4664.116163744469, -3679.0077303657213, -11318.610467745122, -14103.660178620838, 0.016, -0.10400000000000001, 0.988, 192.0, 0.0, 64.0, 126.0, 96.0, 15.0, 112.0, 0.0, 0.0, 0.0, 1.645920448350422E9, 0.0, 2022-02-27 11:07:28.350
138.0, -3707.394445823961, -6592.736434070639, -1632.8843394380021, -10467.433687142575, -1038.5067508824768, 460.6918049683339, -5194.411300946629, -2795.1303476250587, -3763.1843999844077, -7870.406850624901, -4090.7939184658435, -2605.6322581329655, -4709.020818355181, -3677.510163487216, -11082.732508508267, -14023.059788115, 0.016, -0.10400000000000001, 0.988, 192.0, 0.0, 0.0, 0.0, 0.0, 0.0, 0.0, 0.0, 0.0, 0.0, 1.645920448358424E9, 0.0, 2022-02-27 11:07:28.358
140.0, -3378.220305230654, -6438.352935117833, -1535.4977888462292, -10289.312635578231, -777.3713204111243, 623.613670303067, -5218.46177798054, -2741.575567910143, -2884.917305102027, -7282.466564472505, -4038.312022484782, -2617.098703038538, -4672.92275105986, -3611.4831103662386, -10973.924216499832, -13463.416810443023, 0.016, -0.10400000000000001, 0.988, 192.0, 0.0, 0.0, 0.0, 0.0, 0.0, 0.0, 0.0, 0.0, 0.0, 1.645920448373577E9, 0.0, 2022-02-27 11:07:28.373
142.0, -3493.152975219843, -6436.765961261507, -1565.0020915272346, -10383.257017523887, -903.636324839154, 564.9179893634307, -5228.073028096322, -2849.065106995715, -5058.512694658362, -8152.597624373153, -4071.6608252121005, -2837.7998277902398, -4692.301713502612, -3734.9764984818103, -11446.93183266304, -14522.889497624577, 0.016, -0.10400000000000001, 0.988, 192.0, 0.0, 0.0, 0.0, 0.0, 0.0, 0.0, 0.0, 0.0, 0.0, 1.64592044838005E9, 0.0, 2022-02-27 11:07:28.380
144.0, -3565.9079034218676, -6522.462549503154, -1618.8697956645246, -10408.000398635913, -961.8626191452288, 504.94825898984186, -5210.392798232174, -2742.849617344096, -2446.823113778009, -7294.558858222826, -4045.509284199391, -2483.1670502623383, -4694.022797825671, -3581.5317727961274, -10822.692313515225, -13396.428632310466, 0.016, -0.10400000000000001, 0.988, 192.0, 0.0, 0.0, 0.0, 0.0, 0.0, 0.0, 0.0, 0.0, 0.0, 1.6459204483885E9, 0.0, 2022-02-27 11:07:28.388
146.0, -3268.719109144105, -6333.9032332781835, -1506.5299280321512, -10267.206760311934, -732.8913489450633, 681.3035227422146, -5254.8504179537795, -2808.340228598145, -4299.827432611875, -7701.606476498423, -4034.959260816486, -2817.2585746358127, -4675.761422605685, -3678.8736198989895, -11324.064293392217, -14083.320091166508, 0.014, -0.106, 0.984, 192.0, 0.0, 56.0, 126.0, 88.0, 15.0, 96.0, 0.0, 0.0, 0.0, 1.645920448396051E9, 0.0, 2022-02-27 11:07:28.396
148.0, -3632.404343176406, -6522.1496250807795, -1638.2040546183653, -10473.312195934319, -1052.275425466946, 451.3934792749261, -5224.072065838822, -2811.8494524776283, -3781.5798856711253, -7872.329100648058, -4074.3653862911924, -2598.4349964183566, -4721.582498739064, -3678.6501024544364, -11111.454500133337, -14054.06165767451, 0.014, -0.106, 0.984, 192.0, 0.0, 0.0, 0.0, 0.0, 0.0, 0.0, 0.0, 0.0, 0.0, 1.645920448403108E9, 0.0, 2022-02-27 11:07:28.403
150.0, -3301.1514903487555, -6358.311338223379, -1538.314108647598, -10300.354397339153, -792.2128787294482, 613.8236062316425, -5236.142007844688, -2756.9759198398497, -2820.5442810707427, -7248.156636733608, -4012.4734058944473, -2589.3825399139573, -4680.991730808226, -3594.048749691099, -10975.444135122792, -13456.979508039894, 0.014, -0.106, 0.984, 192.0, 0.0, 0.0, 0.0, 0.0, 0.0, 0.0, 0.0, 0.0, 0.0, 1.645920448410657E9, 0.0, 2022-02-27 11:07:28.410
152.0, -3402.516651453573, -6350.8682073197615, -1558.6318443574721, -10390.901314127603, -912.0182290098941, 554.9491113363638, -5254.224569109031, -2872.2662177403236, -5030.349496644676, -8129.754141539829, -4037.932042829042, -2819.5384525702543, -4697.4426147273325, -3740.989117740288, -11458.487684546433, -14528.298619782761, 0.014, -0.106, 0.984, 192.0, 0.0, 0.0, 0.0, 0.0, 0.0, 0.0, 0.0, 0.0, 0.0, 1.645920448418722E9, 0.0, 2022-02-27 11:07:28.418
154.0, -3472.7905360210584, -6427.780559990473, -1605.1458245689662, -10418.572773763273, -973.0384913728824, 489.5479070601353, -5241.75229570297, -2769.917579879472, -2411.1944331162495, -7287.20513429703, -4008.964182014964, -2448.208921934238, -4691.497050702221, -3596.5744968145486, -10829.710761274191, -13409.862030728107, 0.014, -0.10500000000000001, 0.986, 192.0, 0.0, 56.0, 126.0, 96.0, 15.0, 112.0, 0.0, 0.0, 0.0, 1.645920448425762E9, 0.0, 2022-02-27 11:07:28.425
156.0, -3164.269407304455, -6230.1240837721925, -1488.7155877012715, -10268.503161490342, -733.3607355786247, 664.5173626562789, -5281.247828155498, -2825.863996251106, -4216.254260093482, -7678.941807620741, -3990.412234117059, -2769.2023240569024, -4670.687576614329, -3677.018425109199, -11321.315028824214, -14077.955672497234, 0.014, -0.10500000000000001, 0.986, 192.0, 0.0, 0.0, 0.0, 0.0, 0.0, 0.0, 0.0, 0.0, 0.0, 1.645920448432325E9, 0.0, 2022-02-27 11:07:28.432
158.0, -3538.929347864312, -6437.570624061897, -1619.048609620167, -10472.105201733733, -1049.4591056655772, 442.92216812636474, -5244.903891671168, -2832.9271474989832, -3779.009435058765, -7852.391344593924, -4032.6570311375895, -2571.3446821385246, -4708.327914277067, -3674.403271007928, -11127.771273585711, -14084.012995244622, 0.014, -0.10500000000000001, 0.986, 192.0, 0.0, 0.0, 0.0, 0.0, 0.0, 0.0, 0.0, 0.0, 0.0, 1.645920448440279E9, 0.0, 2022-02-27 11:07:28.440
160.0, -3244.400411176731, -6298.5651252943435, -1525.9759457082685, -10303.2824758628, -798.4713671769342, 593.6623327329556, -5246.781438205414, -2761.5803791976427, -2737.775771352741, -7219.769921275369, -3982.4103096020594, -2558.783001754642, -4672.609826637487, -3600.933086983334, -10965.02822220662, -13448.910528291528, 0.014, -0.10500000000000001, 0.986, 192.0, 0.0, 0.0, 0.0, 0.0, 0.0, 0.0, 0.0, 0.0, 0.0, 1.645920448448331E9, 0.0, 2022-02-27 11:07:28.448
162.0, -3343.37393562483, -6297.983979938505, -1548.282986674665, -10381.267712267365, -913.0017057659276, 542.5662449081236, -5270.653101283682, -2874.389633463578, -5007.528365555807, -8097.947609179928, -4022.978725788442, -2801.120615139081, -4697.979056594259, -3734.820036270623, -11467.115457906182, -14533.573631474213, 0.014, -0.10500000000000001, 0.986, 192.0, 0.0, 0.0, 0.0, 0.0, 0.0, 0.0, 0.0, 0.0, 0.0, 1.645920448455446E9, 0.0, 2022-02-27 11:07:28.455
164.0, -3434.8819774248577, -6393.314170040389, -1599.1108535660333, -10415.73410221745, -990.0258171589157, 470.81714520658795, -5245.730906216015, -2777.673635205464, -2415.664782007311, -7287.853334886234, -4002.2139551894616, -2422.5491192995455, -4693.151079791914, -3594.9651712137666, -10841.221909668673, -13432.504347861332, 0.013000000000000001, -0.10350000000000001, 0.985, 192.0, 0.0, 48.0, 126.0, 104.0, 15.0, 96.0, 0.0, 0.0, 0.0, 1.645920448462973E9, 0.0, 2022-02-27 11:07:28.462
166.0, -3126.3832004527094, -6195.65769382211, -1480.4677939972632, -10264.79277191076, -731.8631687001191, 669.32298771417, -5275.101098430288, -2822.8465107496395, -4131.831721285787, -7640.921490302264, -3979.839858989699, -2743.9448528224057, -4662.193913721313, -3665.6190354369924, -11310.161508341016, -14050.753599495125, 0.013000000000000001, -0.10350000000000001, 0.985, 192.0, 0.0, 0.0, 0.0, 0.0, 0.0, 0.0, 0.0, 0.0, 0.0, 1.645920448470827E9, 0.0, 2022-02-27 11:07:28.470
168.0, -3500.260829956631, -6394.096481096325, -1613.885356650991, -10466.87489353119, -1052.2977772114011, 445.78319141664406, -5275.61518855276, -2841.0855342251702, -3817.5661942441698, -7859.543902819622, -4024.2751269668493, -2559.520609321667, -4704.8410421420385, -3666.9377883598554, -11146.144407527972, -14109.248114734664, 0.013000000000000001, -0.10350000000000001, 0.985, 192.0, 0.0, 0.0, 0.0, 0.0, 0.0, 0.0, 0.0, 0.0, 0.0, 1.645920448479008E9, 0.0, 2022-02-27 11:07:28.479
170.0, -3216.5054340965075, -6269.753726691452, -1530.3345358770534, -10302.880144462604, -805.3780562136241, 589.3484460530814, -5273.759993762969, -2792.1352138680477, -2690.747701018775, -7199.921572199056, -3977.2470566328834, -2538.64408000041, -4673.883876071439, -3597.4462148483058, -10967.643376307891, -13442.316763677212, 0.013000000000000001, -0.10350000000000001, 0.985, 192.0, 0.0, 0.0, 0.0, 0.0, 0.0, 0.0, 0.0, 0.0, 0.0, 1.645920448492502E9, 0.0, 2022-02-27 11:07:28.492
172.0, -3314.2719643440205, -6273.330005804301, -1550.182884953366, -10377.982005832435, -910.7888830648521, 545.069640287118, -5280.577275821838, -2876.3789387201, -4995.4584235499415, -8089.699815475919, -4016.474368151947, -2791.039978389738, -4692.212306524791, -3736.5187688492265, -11474.759754509898, -14534.981791374898, 0.013000000000000001, -0.10350000000000001, 0.985, 192.0, 0.0, 0.0, 0.0, 0.0, 0.0, 0.0, 0.0, 0.0, 0.0, 1.645920448500511E9, 0.0, 2022-02-27 11:07:28.500
174.0, -3433.4067622908074, -6388.776765915963, -1605.7046181803487, -10415.48823302844, -985.7566339679521, 468.4031568054148, -5250.7376969740035, -2798.483109293355, -2418.9728401866964, -7299.722111192002, -4003.152728456584, -2428.651145535844, -4695.945047848827, -3605.3810841299396, -10844.306450403506, -13441.445045643455, 0.0115, -0.10475000000000001, 0.9844999999999999, 192.0, 0.0, 40.0, 126.0, 88.0, 15.0, 96.0, 0.0, 0.0, 0.0, 1.645920448507744E9, 0.0, 2022-02-27 11:07:28.507
176.0, -3131.389991210698, -6204.017246248394, -1494.5493930041068, -10259.830684641682, -735.1712268795046, 656.1354584855388, -5277.850362998291, -2813.861109478606, -4105.590773295256, -7636.406437922292, -3987.752376526878, -2741.6873266324196, -4668.653567868897, -3679.208896065819, -11307.054615861729, -14047.132616893367, 0.0115, -0.10475000000000001, 0.9844999999999999, 192.0, 0.0, 0.0, 0.0, 0.0, 0.0, 0.0, 0.0, 0.0, 0.0, 1.645920448515271E9, 0.0, 2022-02-27 11:07:28.515
178.0, -3504.21708872522, -6396.354007286312, -1619.562699742639, -10459.476466116485, -1041.434829406122, 454.2097990762948, -5260.527761045428, -2826.154568929025, -3873.6914245714456, -7876.1512489499155, -4033.8193218492656, -2575.6362170739435, -4708.327914277067, -3678.6277507099812, -11163.601119947567, -14136.69605692578, 0.0115, -0.10475000000000001, 0.9844999999999999, 192.0, 0.0, 0.0, 0.0, 0.0, 0.0, 0.0, 0.0, 0.0, 0.0, 1.645920448523108E9, 0.0, 2022-02-27 11:07:28.523
180.0, -3240.5335593859627, -6295.838212470796, -1534.0002219677237, -10299.527382794307, -803.8134341017526, 598.713826979855, -5250.938862674101, -2749.7563063807856, -2660.9528256598505, -7196.993493675411, -3983.4384898470034, -2537.9511759222955, -4669.279416713645, -3586.918543209856, -10958.255643636661, -13432.772568794797, 0.0115, -0.10475000000000001, 0.9844999999999999, 192.0, 0.0, 0.0, 0.0, 0.0, 0.0, 0.0, 0.0, 0.0, 0.0, 1.645920448531411E9, 0.0, 2022-02-27 11:07:28.531
182.0, -3317.8482434568696, -6284.036491398393, -1539.4540476148186, -10367.633148149627, -902.4069788941121, 561.0511375726626, -5266.406269837174, -2868.533476416287, -5003.9073829540475, -8095.868896945584, -4029.0807520247404, -2807.9155454534944, -4694.760405392695, -3737.345783394073, -11480.705318535009, -14530.600849461658, 0.0115, -0.10475000000000001, 0.9844999999999999, 192.0, 0.0, 0.0, 0.0, 0.0, 0.0, 0.0, 0.0, 0.0, 0.0, 1.645920448537867E9, 0.0, 2022-02-27 11:07:28.537
184.0, -3459.155971903321, -6409.630943492764, -1603.0447605901672, -10418.528070274362, -993.6467997606754, 473.4546510523142, -5246.0438306383885, -2770.4093182574893, -2445.1243811994054, -7316.776492211401, -4010.4393971490144, -2433.7473432716542, -4691.161774535391, -3604.576421329549, -10850.654345828814, -13451.659792859531, 0.01175, -0.105375, 0.98625, 192.0, 0.0, 48.0, 126.0, 88.0, 15.0, 112.0, 0.0, 0.0, 0.0, 1.645920448544838E9, 0.0, 2022-02-27 11:07:28.544
186.0, -3152.8029623988823, -6218.858804566718, -1485.9886748777242, -10256.120295062101, -738.546340292256, 675.9838075618514, -5286.656950313682, -2811.804748988718, -4073.8512961687206, -7636.697010600211, -4003.510356367869, -2741.597919654598, -4673.4368411823325, -3674.9173611304, -11300.66201694751, -14013.336779276942, 0.01175, -0.105375, 0.98625, 192.0, 0.0, 0.0, 0.0, 0.0, 0.0, 0.0, 0.0, 0.0, 0.0, 1.645920448552871E9, 0.0, 2022-02-27 11:07:28.552
188.0, -3526.993516325178, -6410.368551059789, -1612.7901211726812, -10468.573626109795, -1055.0693935238594, 454.4109647763926, -5244.590967248794, -2864.6219211366083, -3954.4482772884703, -7904.068577774594, -4049.7561156458996, -2591.125975981471, -4712.619449212486, -3691.211782838319, -11181.929550400919, -14162.244100838197, 0.01175, -0.105375, 0.98625, 192.0, 0.0, 0.0, 0.0, 0.0, 0.0, 0.0, 0.0, 0.0, 0.0, 1.645920448560837E9, 0.0, 2022-02-27 11:07:28.560
190.0, -3270.619007422806, -6315.865375502751, -1532.7038207893158, -10316.80528125826, -819.8619866206631, 602.7818444707209, -5235.069124110833, -2743.6542801444866, -2654.3367093010797, -7212.684418283036, -4001.2528301778834, -2546.467190559768, -4686.892591344427, -3611.930145255345, -10948.77850398761, -13423.116615190103, 0.01175, -0.105375, 0.98625, 192.0, 0.0, 0.0, 0.0, 0.0, 0.0, 0.0, 0.0, 0.0, 0.0, 1.645920448567356E9, 0.0, 2022-02-27 11:07:28.567
192.0, -3337.428371599719, -6298.67688401662, -1535.4307336128634, -10371.120020284656, -895.2097171795032, 586.3980157849808, -5263.142915146699, -2868.0864415271813, -5030.952993744969, -8095.019530656283, -4037.954394573497, -2814.50931006781, -4704.952800864316, -3750.2427399447847, -11479.051289445317, -14517.413320233027, 0.01175, -0.105375, 0.98625, 192.0, 0.0, 0.0, 0.0, 0.0, 0.0, 0.0, 0.0, 0.0, 0.0, 1.645920448575475E9, 0.0, 2022-02-27 11:07:28.575
194.0, -3485.5086786161282, -6428.182891390668, -1609.6161734600275, -10429.011038423901, -1003.3027533653682, 495.8063955076213, -5226.910737384646, -2760.149867552503, -2503.194213294293, -7347.197216415074, -4035.294536983316, -2444.7667532881205, -4705.958629364804, -3623.7765698166577, -10853.62712784137, -13458.119447007115, 0.011875, -0.1046875, 0.9841249999999999, 192.0, 0.0, 48.0, 126.0, 96.0, 15.0, 88.0, 0.0, 0.0, 0.0, 1.645920448583474E9, 0.0, 2022-02-27 11:07:28.583
196.0, -3169.9020469071925, -6237.544862931355, -1492.4036255363972, -10269.017251612813, -748.2246456414039, 669.904133070008, -5260.706575001071, -2796.538507525743, -4054.964072103986, -7626.996353506608, -4019.4918536534137, -2743.6989836333973, -4678.3542249625, -3688.3284078035845, -11291.810726143209, -13987.654624897794, 0.011875, -0.1046875, 0.9841249999999999, 192.0, 0.0, 0.0, 0.0, 0.0, 0.0, 0.0, 0.0, 0.0, 0.0, 1.645920448590464E9, 0.0, 2022-02-27 11:07:28.590
198.0, -3546.573644468027, -6437.570624061897, -1618.3780572865078, -10478.967187281512, -1063.4512976945994, 450.18648507433954, -5229.101208341266, -2834.603528333131, -4024.900975811598, -7940.948956125851, -4072.0408048678405, -2612.1813192583704, -4727.818635442095, -3719.6655535299246, -11194.155954617972, -14177.353880089984, 0.011875, -0.1046875, 0.9841249999999999, 192.0, 0.0, 0.0, 0.0, 0.0, 0.0, 0.0, 0.0, 0.0, 0.0, 1.645920448598193E9, 0.0, 2022-02-27 11:07:28.598
200.0, -3285.6393796967723, -6329.008201242471, -1541.3315941490644, -10323.957839483957, -834.860007150174, 589.326094308626, -5247.049659138877, -2759.3005012632016, -2641.61856670601, -7216.908897985089, -4016.0273332628412, -2546.489542304223, -4690.290056501634, -3615.931107512845, -10947.571509787025, -13410.80080399523, 0.011875, -0.1046875, 0.9841249999999999, 192.0, 0.0, 0.0, 0.0, 0.0, 0.0, 0.0, 0.0, 0.0, 0.0, 1.645920448606147E9, 0.0, 2022-02-27 11:07:28.606
202.0, -3338.9929937115903, -6295.704102004064, -1542.0692017160895, -10375.43390696453, -904.0163044948941, 568.8295446431094, -5236.1196561002325, -2845.0194412493042, -5037.144426959089, -8100.0263214142715, -4057.445115738525, -2828.166225930003, -4702.069425829581, -3746.465295131838, -11481.688795291042, -14516.407491732538, 0.011875, -0.1046875, 0.9841249999999999, 192.0, 0.0, 0.0, 0.0, 0.0, 0.0, 0.0, 0.0, 0.0, 0.0, 1.645920448619677E9, 0.0, 2022-02-27 11:07:28.619
204.0, -3488.6602745843265, -6419.599821519831, -1609.8843943934912, -10435.962430949501, -1024.0898757088037, 463.4634212807919, -5237.684278212104, -2765.670748432964, -2515.0853413445166, -7354.640347318691, -4038.4237812070587, -2443.7832765320873, -4707.389141009944, -3616.512252868683, -10855.035287742054, -13475.307938493246, 0.0119375, -0.10534375, 0.9850625, 192.0, 0.0, 48.0, 126.0, 88.0, 15.0, 104.0, 0.0, 0.0, 0.0, 1.645920448627769E9, 0.0, 2022-02-27 11:07:28.627
206.0, -3159.5531892243853, -6225.296106969847, -1482.0100643646795, -10264.658661444028, -745.5647880512224, 655.2860921962372, -5260.170133134143, -2807.021475675282, -3994.8825830081205, -7601.135385171818, -4011.22170820495, -2740.905015576484, -4678.264817984679, -3681.667587955903, -11280.724260893378, -13973.327156701942, 0.0119375, -0.10534375, 0.9850625, 192.0, 0.0, 0.0, 0.0, 0.0, 0.0, 0.0, 0.0, 0.0, 0.0, 1.645920448635825E9, 0.0, 2022-02-27 11:07:28.635
208.0, -3529.31809774853, -6414.704789484119, -1607.9174408814242, -10473.200437212043, -1063.4289459501442, 446.6102059614904, -5232.968060132034, -2822.645345049542, -4081.003854394419, -7948.436790518379, -4056.8863221271426, -2613.7235896257866, -4715.949859136326, -3715.4857773167823, -11201.68849249941, -14204.198325180809, 0.0119375, -0.10534375, 0.9850625, 192.0, 0.0, 0.0, 0.0, 0.0, 0.0, 0.0, 0.0, 0.0, 0.0, 1.645920448642824E9, 0.0, 2022-02-27 11:07:28.642
210.0, -3286.3099320304314, -6327.465930875055, -1537.0847627025562, -10330.350438398176, -835.5976147171992, 573.4116522564474, -5233.884481654702, -2749.7563063807856, -2601.9218685533847, -7205.66597052407, -4010.7970250602993, -2541.594510268511, -4686.1773355218575, -3618.0545232360987, -10926.963201399232, -13394.84165845414, 0.0119375, -0.10534375, 0.9850625, 192.0, 0.0, 0.0, 0.0, 0.0, 0.0, 0.0, 0.0, 0.0, 0.0, 1.645920448650492E9, 0.0, 2022-02-27 11:07:28.650
212.0, -3325.7607609940483, -6293.513631047444, -1538.157646436411, -10374.33867148622, -896.506118357911, 555.5973119255676, -5272.7541652624805, -2870.7462991173625, -5030.66242106705, -8097.075891146171, -4050.001984834908, -2830.0437724642484, -4699.78954789514, -3757.3505946815726, -11478.26897838938, -14521.190765045974, 0.0119375, -0.10534375, 0.9850625, 192.0, 0.0, 0.0, 0.0, 0.0, 0.0, 0.0, 0.0, 0.0, 0.0, 1.645920448658432E9, 0.0, 2022-02-27 11:07:28.658
214.0, -3493.0412164975664, -6429.658106524719, -1617.5286909972062, -10447.562986321806, -1031.6671170791528, 436.86484537897655, -5244.389801548696, -2778.970036383872, -2550.2669871171697, -7384.211705233062, -4044.168179532073, -2464.1904192197826, -4719.2802690601675, -3630.4820931532495, -10867.57461638148, -13503.068805106737, 0.01396875, -0.104671875, 0.98653125, 192.0, 0.0, 64.0, 126.0, 96.0, 15.0, 112.0, 0.0, 0.0, 0.0, 1.645920448666424E9, 0.0, 2022-02-27 11:07:28.666
216.0, -3158.4132502571647, -6232.158092517626, -1495.1975935933106, -10271.766516180816, -760.6969190474653, 640.2433681778155, -5275.905761230679, -2809.0107809318047, -3960.4385448024923, -7601.224792149639, -4024.096313011207, -2754.293710505213, -4694.022797825671, -3686.6520269694365, -11273.482295689857, -13963.648851352795, 0.01396875, -0.104671875, 0.98653125, 192.0, 0.0, 0.0, 0.0, 0.0, 0.0, 0.0, 0.0, 0.0, 0.0, 1.645920448672517E9, 0.0, 2022-02-27 11:07:28.672
218.0, -3530.4803884602056, -6419.55511803092, -1617.8639671640358, -10471.993443011457, -1066.2452657515128, 444.5091419826916, -5263.388784335707, -2845.153551716036, -4127.786055539376, -7968.799229717163, -4069.4256507665696, -2646.737116186275, -4734.971193667793, -3725.678172788402, -11219.256963641283, -14231.690970860836, 0.01396875, -0.104671875, 0.98653125, 192.0, 0.0, 0.0, 0.0, 0.0, 0.0, 0.0, 0.0, 0.0, 0.0, 1.645920448679983E9, 0.0, 2022-02-27 11:07:28.679
220.0, -3283.7618331625263, -6321.654477316675, -1544.9749284952795, -10319.241621403888, -864.3419580867242, 567.3766812535144, -5270.206066394576, -2766.408355999989, -2583.012292744195, -7197.507583797883, -4013.233365205928, -2545.3048998480917, -4697.219097282779, -3613.2936016671183, -10927.54434675507, -13393.008815408804, 0.01396875, -0.104671875, 0.98653125, 192.0, 0.0, 0.0, 0.0, 0.0, 0.0, 0.0, 0.0, 0.0, 0.0, 1.645920448688154E9, 0.0, 2022-02-27 11:07:28.688
222.0, -3307.3652753073306, -6281.95777916405, -1533.217910911788, -10357.284290466821, -889.4876705989445, 565.9014661194642, -5255.297452842886, -2868.1087932716364, -5027.890804754592, -8077.719280447875, -4045.2410632659276, -2836.615185334109, -4703.07525433007, -3751.3156236786394, -11480.146524923626, -14514.105262053641, 0.01396875, -0.104671875, 0.98653125, 192.0, 0.0, 0.0, 0.0, 0.0, 0.0, 0.0, 0.0, 0.0, 0.0, 1.645920448696057E9, 0.0, 2022-02-27 11:07:28.696
224.0, -3492.8176990530133, -6428.205243135124, -1615.3829235294968, -10438.73404726196, -1033.723477569041, 441.33519427003796, -5229.660001952649, -2778.746518939319, -2590.835403303552, -7395.097004782797, -4045.1740080325617, -2464.816268064531, -4718.453254515321, -3628.984526274744, -10866.099401247431, -13518.133880869615, 0.014, -0.106, 0.984, 192.0, 0.0, 56.0, 126.0, 88.0, 15.0, 96.0, 0.0, 0.0, 0.0, 1.645920448702556E9, 0.0, 2022-02-27 11:07:28.702
226.0, -3144.9575000950695, -6220.512833656411, -1489.609657479484, -10263.339908521166, -760.3169393917251, 640.355126900092, -5290.680264315637, -2821.1030746821257, -3904.8274045976887, -7570.491143523592, -4021.8164350767656, -2754.584283183132, -4691.251181513212, -3687.590800236559, -11257.254929215303, -13937.229089406621, 0.014, -0.106, 0.984, 192.0, 0.0, 0.0, 0.0, 0.0, 0.0, 0.0, 0.0, 0.0, 0.0, 1.645920448710743E9, 0.0, 2022-02-27 11:07:28.710
228.0, -3511.5484609065606, -6403.081882367359, -1609.7502839267593, -10469.110067976722, -1061.2608267379794, 444.79971466061056, -5251.520008029939, -2845.891159283061, -4221.864547951764, -7988.781689260208, -4069.7832786778545, -2662.1151163715263, -4722.297754561634, -3722.2583558867404, -11241.228728440848, -14272.706421936326, 0.014, -0.106, 0.984, 192.0, 0.0, 0.0, 0.0, 0.0, 0.0, 0.0, 0.0, 0.0, 0.0, 1.645920448718646E9, 0.0, 2022-02-27 11:07:28.718
230.0, -3285.997007608057, -6322.950878495083, -1547.5453791076397, -10332.362095399154, -871.9862546904392, 558.7489078937659, -5238.600699734771, -2752.0138325707717, -2543.4273533138457, -7199.921572199056, -4019.380094931137, -2554.424411585857, -4699.409568239399, -3618.52390986966, -10908.724177923701, -13382.592902492632, 0.014, -0.106, 0.984, 192.0, 0.0, 0.0, 0.0, 0.0, 0.0, 0.0, 0.0, 0.0, 0.0, 1.645920448725616E9, 0.0, 2022-02-27 11:07:28.725
232.0, -3286.645208197261, -6267.987938879483, -1528.0323061981567, -10356.010241032869, -889.0629874542938, 574.7527569237658, -5273.9835112075225, -2873.830839852195, -5009.629429534606, -8067.593940209621, -4047.766810389377, -2842.247824936846, -4706.003332853715, -3747.4487718878713, -11474.111553920693, -14502.05767179223, 0.014, -0.106, 0.984, 192.0, 0.0, 0.0, 0.0, 0.0, 0.0, 0.0, 0.0, 0.0, 0.0, 1.645920448740449E9, 0.0, 2022-02-27 11:07:28.740
234.0, -3484.5252018600945, -6421.74558898754, -1609.504414737751, -10444.299631631331, -1026.4144571321556, 453.5839502315462, -5233.0127636209445, -2793.699835979919, -2599.910211552407, -7404.529440942936, -4044.6375661656343, -2465.5091721426456, -4710.1831090668575, -3623.5307006276494, -10867.708726848214, -13525.10762513967, 0.01, -0.106, 0.984, 192.0, 0.0, 40.0, 126.0, 88.0, 15.0, 96.0, 0.0, 0.0, 0.0, 1.645920448748389E9, 0.0, 2022-02-27 11:07:28.748
236.0, -3139.5707296813407, -6220.244612722947, -1488.536773745629, -10262.334080020677, -752.9855672103844, 652.0450892502176, -5281.292531644408, -2801.187670372447, -3874.227866438373, -7567.674823722223, -4020.967068787464, -2746.4482482014, -4681.997559308715, -3674.827954152579, -11241.36283890758, -13908.283580336998, 0.01, -0.106, 0.984, 192.0, 0.0, 0.0, 0.0, 0.0, 0.0, 0.0, 0.0, 0.0, 0.0, 1.645920448754899E9, 0.0, 2022-02-27 11:07:28.754
238.0, -3505.893469559368, -6400.287914310446, -1615.4946822517732, -10470.0711929883, -1069.8662483532726, 443.5033134822027, -5247.854321939269, -2855.547112887754, -4231.922832956652, -7996.090709697093, -4069.0680228552847, -2658.0247471362054, -4722.968306895293, -3727.2874983891847, -11239.574699351157, -14263.609261943015, 0.01, -0.106, 0.984, 192.0, 0.0, 0.0, 0.0, 0.0, 0.0, 0.0, 0.0, 0.0, 0.0, 1.645920448762979E9, 0.0, 2022-02-27 11:07:28.762
240.0, -3283.5383157179735, -6319.866337760251, -1555.5026001337292, -10330.015162231346, -873.1038419132045, 570.0588905881514, -5254.895121442691, -2747.699945890897, -2551.1834086398376, -7203.296685611807, -4020.989420531919, -2552.0551266735947, -4695.2744955151675, -3610.8125580325795, -10909.193564557263, -13370.567663975677, 0.01, -0.106, 0.984, 192.0, 0.0, 0.0, 0.0, 0.0, 0.0, 0.0, 0.0, 0.0, 0.0, 1.645920448770921E9, 0.0, 2022-02-27 11:07:28.770
242.0, -3284.1418128182668, -6268.591435979776, -1541.5104081047068, -10352.925700298036, -891.3652171331903, 577.8372976585982, -5274.229380396531, -2854.921264043005, -5020.09004593969, -8077.808687425696, -4050.7619441463885, -2845.0194412493042, -4704.282248530656, -3727.175739666908, -11476.793763255331, -14485.9197122955, 0.01, -0.106, 0.984, 192.0, 0.0, 0.0, 0.0, 0.0, 0.0, 0.0, 0.0, 0.0, 0.0, 1.645920448777993E9, 0.0, 2022-02-27 11:07:28.777
244.0, -3486.73802456117, -6420.806815720417, -1624.3012695671644, -10441.080980429768, -1043.6700038516526, 450.0970780965183, -5258.069069155344, -2774.9243706374614, -2640.4786277387893, -7426.255336553495, -4050.091391812729, -2465.2409512091817, -4718.654420215419, -3638.081686268054, -10875.397726940839, -13534.942392700004, 0.014, -0.106, 0.986, 192.0, 0.0, 56.0, 126.0, 88.0, 15.0, 104.0, 0.0, 0.0, 0.0, 1.645920448785672E9, 0.0, 2022-02-27 11:07:28.785
246.0, -3142.7670291384497, -6221.451606923533, -1498.5056517726962, -10262.110562576123, -753.3878986105799, 652.581531117145, -5269.088479171811, -2801.6123535170977, -3831.8936624400217, -7559.985823629597, -4019.4918536534137, -2735.9429283074055, -4681.796393608617, -3673.4421459963496, -11230.902222502496, -13890.089260350378, 0.014, -0.106, 0.986, 192.0, 0.0, 0.0, 0.0, 0.0, 0.0, 0.0, 0.0, 0.0, 0.0, 1.645920448792608E9, 0.0, 2022-02-27 11:07:28.792
248.0, -3502.1607282353316, -6388.776765915963, -1614.9805921293012, -10465.042050485856, -1059.629149392742, 451.460534508292, -5267.7026710155815, -2854.1389529870694, -4300.050950056428, -8023.449244910389, -4075.773546191877, -2677.3366543455904, -4725.896385418938, -3727.1086844335423, -11251.152902979005, -14284.843419175557, 0.014, -0.106, 0.986, 192.0, 0.0, 0.0, 0.0, 0.0, 0.0, 0.0, 0.0, 0.0, 0.0, 1.645920448801145E9, 0.0, 2022-02-27 11:07:28.801
250.0, -3293.9542286341466, -6317.139424936703, -1560.799963569637, -10335.446636133986, -874.8249262362631, 565.7673556527324, -5263.411136080163, -2739.832131842629, -2519.0863036020164, -7189.148031371597, -4022.2411182214164, -2531.491521774712, -4687.4066814668995, -3597.5579735705824, -10906.667817433812, -13366.07496334016, 0.014, -0.106, 0.986, 192.0, 0.0, 0.0, 0.0, 0.0, 0.0, 0.0, 0.0, 0.0, 0.0, 1.645920448807745E9, 0.0, 2022-02-27 11:07:28.807
252.0, -3279.805574393937, -6258.197874808058, -1541.1304284489668, -10349.483531651918, -880.122289672171, 586.3533122960702, -5270.071955927844, -2844.6171098491086, -5013.473929580919, -8061.156637806492, -4056.0593075822962, -2845.868807538606, -4702.40470199641, -3748.856931788556, -11479.878303990163, -14475.839075546155, 0.014, -0.106, 0.986, 192.0, 0.0, 0.0, 0.0, 0.0, 0.0, 0.0, 0.0, 0.0, 0.0, 1.645920448815194E9, 0.0, 2022-02-27 11:07:28.815
254.0, -3495.388149665374, -6431.89328097025, -1633.0631533936446, -10447.138303177155, -1048.855608565284, 449.6723949518675, -5242.936938159101, -2768.8223444011624, -2683.908067215451, -7442.505054772503, -4057.0874878272402, -2470.8065355785534, -4719.727303949274, -3631.7114390982915, -10888.115869535908, -13555.438942365521, 0.012, -0.10400000000000001, 0.99, 192.0, 0.0, 48.0, 126.0, 96.0, 15.0, 120.0, 0.0, 0.0, 0.0, 1.645920448823311E9, 0.0, 2022-02-27 11:07:28.823
0.0, -3139.794247125894, -6226.592508148255, -1503.7583117196932, -10258.26606252981, -752.8738084881078, 658.840019564631, -5273.245903640497, -2792.31402782369, -3794.633304433025, -7538.125817552307, -4027.1137985126734, -2725.7281810913305, -4684.098623287514, -3671.29637852864, -11223.190870665416, -13867.804571128438, 0.012, -0.10400000000000001, 0.99, 192.0, 0.0, 0.0, 0.0, 0.0, 0.0, 0.0, 0.0, 0.0, 0.0, 1.645920448831265E9, 0.0, 2022-02-27 11:07:28.831
2.0, -3495.768129321114, -6393.940018885139, -1620.2556038207538, -10456.906015504124, -1052.4095359336777, 457.8978369114205, -5260.661871512159, -2844.862979038117, -4334.673802217699, -8019.604744864077, -4074.991235135941, -2659.3658518035236, -4715.480472502765, -3722.9736117093103, -11258.193702482427, -14295.661663491925, 0.012, -0.10400000000000001, 0.99, 192.0, 0.0, 0.0, 0.0, 0.0, 0.0, 0.0, 0.0, 0.0, 0.0, 1.645920448837799E9, 0.0, 2022-02-27 11:07:28.837
4.0, -3301.7326357045936, -6321.766236038952, -1568.2430944732541, -10336.05013323428, -862.0397284078275, 564.1580300519503, -5252.570540019338, -2738.2451579863023, -2508.759797663665, -7187.739871470913, -4022.8222635772545, -2532.3408880640136, -4679.784736607639, -3596.373331114451, -10891.11100329292, -13353.893262612017, 0.012, -0.10400000000000001, 0.99, 192.0, 0.0, 0.0, 0.0, 0.0, 0.0, 0.0, 0.0, 0.0, 0.0, 1.64592044884585E9, 0.0, 2022-02-27 11:07:28.845
6.0, -3279.8279261383923, -6279.342625062779, -1541.4880563602517, -10344.946127527492, -856.6529579940985, 589.2366873308048, -5279.28087464343, -2862.9008368135496, -4997.760653228838, -8049.667841156464, -4052.997118591919, -2853.915435542516, -4688.144289033925, -3739.0668677171316, -11466.824885228263, -14463.836188773656, 0.012, -0.10400000000000001, 0.99, 192.0, 0.0, 0.0, 0.0, 0.0, 0.0, 0.0, 0.0, 0.0, 0.0, 1.645920448853866E9, 0.0, 2022-02-27 11:07:28.853
8.0, -3509.8720800724127, -6442.666821797708, -1632.6384702489938, -10447.518282832896, -1030.5718816008427, 447.6383862064345, -5252.481133041517, -2785.1391178535364, -2719.2685269437466, -7458.218331124584, -4058.89797912812, -2469.4654309112348, -4703.49993747472, -3626.7493518292135, -10884.606645656426, -13567.665346582575, 0.012, -0.1, 0.994, 192.0, 0.0, 48.0, 126.0, 112.0, 15.5, 8.0, 0.0, 0.0, 0.0, 1.645920448867434E9, 0.0, 2022-02-27 11:07:28.867
10.0, -3164.582331726829, -6247.893720614162, -1506.4628727987854, -10262.17761780949, -737.6969740029543, 650.7263363273545, -5264.215798880554, -2791.4646615343886, -3752.1649899679414, -7525.340619723871, -4030.6677258810673, -2728.544500892699, -4668.2735882131565, -3662.3333290020623, -11209.846879225599, -13841.36245743781, 0.012, -0.1, 0.994, 192.0, 0.0, 0.0, 0.0, 0.0, 0.0, 0.0, 0.0, 0.0, 0.0, 1.645920448875467E9, 0.0, 2022-02-27 11:07:28.875
12.0, -3530.346277993474, -6431.55800480342, -1620.9932113877787, -10464.840884785759, -1046.821599819851, 457.2943398111272, -5259.924263945135, -2839.766781302307, -4387.446270876679, -8044.482236442833, -4086.5247352748797, -2689.7195207738305, -4709.914888133394, -3723.5547570651484, -11272.454115444913, -14312.291361366673, 0.012, -0.1, 0.994, 192.0, 0.0, 0.0, 0.0, 0.0, 0.0, 0.0, 0.0, 0.0, 0.0, 1.645920448883628E9, 0.0, 2022-02-27 11:07:28.883
14.0, -3363.9598922681685, -6391.347216528323, -1571.3052834636312, -10349.461179907463, -873.9532082025062, 554.3903177249811, -5257.0408889104, -2746.3588412235786, -2512.8054634100754, -7210.963333959978, -4049.1526185456064, -2550.065821417072, -4686.937294833338, -3609.0020667316994, -10891.759203882124, -13352.529806200244, 0.012, -0.1, 0.994, 192.0, 0.0, 0.0, 0.0, 0.0, 0.0, 0.0, 0.0, 0.0, 0.0, 1.645920448890077E9, 0.0, 2022-02-27 11:07:28.890
16.0, -3338.9482902226796, -6330.9080995211725, -1536.8388935135476, -10348.835331062715, -854.2389695929253, 593.9976088997852, -5281.09136594431, -2858.6540053670415, -5014.8820894816035, -8055.255777270291, -4079.059252626807, -2881.028101566804, -4685.484431443743, -3743.0231264857207, -11470.803495741307, -14460.058743960708, 0.012, -0.1, 0.994, 192.0, 0.0, 0.0, 0.0, 0.0, 0.0, 0.0, 0.0, 0.0, 0.0, 1.645920448898005E9, 0.0, 2022-02-27 11:07:28.898
18.0, -3605.850470763501, -6535.1806920982235, -1642.8085139761586, -10465.31027141932, -1043.3570794292784, 442.5421884706245, -5240.187673591098, -2754.316062249668, -2785.519097509277, -7502.497136890547, -4087.217639352994, -2506.166995306849, -4703.969324108282, -3633.790151332635, -10898.464727218716, -13590.419422438077, 0.014, -0.10400000000000001, 0.99, 192.0, 0.0, 56.0, 126.0, 96.0, 15.0, 120.0, 0.0, 0.0, 0.0, 1.645920448906201E9, 0.0, 2022-02-27 11:07:28.906
20.0, -3283.9406471181687, -6362.7816871144405, -1523.6066607960058, -10278.472039517408, -744.8942357175632, 644.4454961354132, -5270.89897047269, -2780.4899550068326, -3756.143600480986, -7545.747762411566, -4074.18657233555, -2769.4928967348214, -4680.678806385852, -3668.34594826054, -11208.08109141363, -13828.197279953632, 0.014, -0.10400000000000001, 0.99, 192.0, 0.0, 0.0, 0.0, 0.0, 0.0, 0.0, 0.0, 0.0, 0.0, 1.64592044891325E9, 0.0, 2022-02-27 11:07:28.913
22.0, -3665.6413871814475, -6563.232131389634, -1628.5928045025832, -10472.999271511946, -1047.3803934312336, 453.8968746539205, -5252.9058161861685, -2833.3294788991784, -4497.886240230351, -8096.159469623503, -4130.021229984907, -2743.0507830441934, -4712.015952112192, -3731.601385069059, -11291.542505209745, -14337.50412911226, 0.014, -0.10400000000000001, 0.99, 192.0, 0.0, 0.0, 0.0, 0.0, 0.0, 0.0, 0.0, 0.0, 0.0, 1.645920448919713E9, 0.0, 2022-02-27 11:07:28.919
24.0, -3520.086827288488, -6542.735581724118, -1578.1896207558657, -10353.037459020312, -876.6130657926877, 553.362137480037, -5252.279967341419, -2744.3918877115116, -2550.199931883804, -7241.518168630382, -4089.7880899653546, -2577.8937432639295, -4688.278399500657, -3609.337342898529, -10888.853477102934, -13352.283937011236, 0.014, -0.10400000000000001, 0.99, 192.0, 0.0, 0.0, 0.0, 0.0, 0.0, 0.0, 0.0, 0.0, 0.0, 1.645920448927755E9, 0.0, 2022-02-27 11:07:28.927
26.0, -3477.2385331676646, -6472.305234945445, -1536.3248033910756, -10344.56614787175, -838.2127688184702, 606.35812358357, -5278.342101376307, -2844.1030197266364, -5045.123999729633, -8071.661957700487, -4117.504253089935, -2901.3905407655884, -4681.282303486145, -3734.1941874258746, -11470.98230969695, -14447.29589787673, 0.014, -0.10400000000000001, 0.99, 192.0, 0.0, 0.0, 0.0, 0.0, 0.0, 0.0, 0.0, 0.0, 0.0, 1.645920448935815E9, 0.0, 2022-02-27 11:07:28.935
28.0, -3748.856931788556, -6671.526333275597, -1637.533502284706, -10466.852541786737, -1036.8080183038735, 451.2817205526496, -5224.65321119466, -2764.419050743467, -2869.539304916776, -7534.974221584109, -4129.909471262631, -2540.0522399010947, -4706.472719487277, -3631.24205246473, -10896.140145795363, -13599.918913831581, 0.014, -0.108, 0.992, 192.0, 0.0, 56.0, 126.0, 80.0, 15.5, 0.0, 0.0, 0.0, 0.0, 1.645920448942746E9, 0.0, 2022-02-27 11:07:28.942
30.0, -3394.805299616492, -6466.672595342708, -1514.375390335964, -10276.594492983162, -740.3121281042252, 660.1811242319494, -5240.567653246839, -2776.1984200714137, -3757.1270772370194, -7544.384305999793, -4109.122348919195, -2780.0429201177267, -4683.003387809204, -3658.0641458110986, -11185.081146369117, -13798.044776683424, 0.014, -0.108, 0.992, 192.0, 0.0, 0.0, 0.0, 0.0, 0.0, 0.0, 0.0, 0.0, 0.0, 1.645920448950267E9, 0.0, 2022-02-27 11:07:28.950
32.0, -3722.2136523978297, -6592.423509648265, -1613.7959496731698, -10465.422030141597, -1033.8352362913176, 481.3224651005823, -5241.148798602677, -2850.830894807684, -4577.86078189144, -8097.522926035277, -4145.019250514419, -2754.383117483034, -4715.748693436229, -3716.335143606084, -11299.186801813461, -14348.657649595458, 0.014, -0.108, 0.992, 192.0, 0.0, 0.0, 0.0, 0.0, 0.0, 0.0, 0.0, 0.0, 0.0, 1.645920448958543E9, 0.0, 2022-02-27 11:07:28.958
34.0, -3560.834057430513, -6560.795791244005, -1576.7144056218156, -10358.647746878594, -891.0746444552714, 563.263960273738, -5249.0389643954, -2735.2723759737464, -2534.6654694873655, -7225.737837044935, -4098.1923458805495, -2559.900588977407, -4689.060710556592, -3589.868973477957, -10879.465744431704, -13332.189718745914, 0.014, -0.108, 0.992, 192.0, 0.0, 0.0, 0.0, 0.0, 0.0, 0.0, 0.0, 0.0, 0.0, 1.645920448965475E9, 0.0, 2022-02-27 11:07:28.965
36.0, -3480.345425646952, -6475.009796024537, -1534.2684429011874, -10348.343592684698, -855.7365364714309, 615.8576149770755, -5264.439316325106, -2857.4246594219994, -5045.392220663098, -8047.969108577861, -4132.0552387303405, -2898.842441897684, -4706.226850298268, -3728.8744722455112, -11470.401164341112, -14421.077301630654, 0.014, -0.107, 0.99, 192.0, 0.0, 56.0, 126.0, 88.0, 15.0, 112.0, 0.0, 0.0, 0.0, 1.645920448972944E9, 0.0, 2022-02-27 11:07:28.972
38.0, -3727.041629200176, -6635.785893891561, -1635.1865691168987, -10466.494913875451, -1052.0519080223928, 462.90462766940925, -5237.594871234282, -2788.380120799556, -2907.3361047907, -7541.344468753871, -4123.203947926038, -2522.0590856145723, -4723.102417362024, -3638.1263897569647, -10909.81941340201, -13614.358140749711, 0.014, -0.107, 0.99, 192.0, 0.0, 0.0, 0.0, 0.0, 0.0, 0.0, 0.0, 0.0, 0.0, 1.645920448988124E9, 0.0, 2022-02-27 11:07:28.988
40.0, -3345.609110070361, -6415.285934839957, -1504.4065123088972, -10275.40985052703, -751.2421311428703, 668.3171592136812, -5270.943673961601, -2793.632780746553, -3683.1651548344084, -7506.855727059332, -4077.673444470578, -2744.794219111707, -4686.669073899874, -3644.541340415638, -11184.052966124174, -13783.225570109555, 0.014, -0.107, 0.99, 192.0, 0.0, 0.0, 0.0, 0.0, 0.0, 0.0, 0.0, 0.0, 0.0, 1.645920448995167E9, 0.0, 2022-02-27 11:07:28.995
42.0, -3667.787154649157, -6548.524683538042, -1603.7153129238263, -10461.756344050926, -1038.5514543713873, 479.5119737997024, -5254.336327831308, -2863.929017058494, -4579.559514470043, -8093.544315522232, -4123.025133970396, -2733.1713119949477, -4723.3929900399435, -3737.6363560719915, -11314.676560720989, -14365.935548059411, 0.014, -0.107, 0.99, 192.0, 0.0, 0.0, 0.0, 0.0, 0.0, 0.0, 0.0, 0.0, 0.0, 1.645920449002731E9, 0.0, 2022-02-27 11:07:29.002
44.0, -3490.0460827405554, -6510.325552263922, -1562.2081234703212, -10354.378563687631, -888.1018624427155, 555.9102363479419, -5267.143877404199, -2765.35782401059, -2493.784128878609, -7212.125624671653, -4071.7278804454663, -2532.653812486388, -4695.900344359916, -3627.1069797404984, -10884.070203789497, -13339.945774071906, 0.014, -0.107, 0.99, 192.0, 0.0, 0.0, 0.0, 0.0, 0.0, 0.0, 0.0, 0.0, 0.0, 1.64592044901082E9, 0.0, 2022-02-27 11:07:29.010
46.0, -3394.6935408942154, -6400.064396865892, -1519.3374776050423, -10331.803301787771, -841.6325857201322, 620.3726673570475, -5278.252694398487, -2870.992168306371, -4981.376824543098, -8036.525015416743, -4094.481956300969, -2872.221514251413, -4696.772062393673, -3753.9307777799104, -11481.666443546586, -14423.871269687566, 0.015, -0.1065, 0.988, 192.0, 0.0, 64.0, 126.0, 88.0, 15.0, 104.0, 0.0, 0.0, 0.0, 1.645920449018697E9, 0.0, 2022-02-27 11:07:29.018
48.0, -3646.4188869498835, -6568.194218658712, -1620.6355834764938, -10465.556140608329, -1052.9012743116946, 457.85313342250987, -5244.32274631533, -2805.6133157745976, -2897.590744208186, -7535.175387284206, -4101.81332848231, -2505.0270563396284, -4717.134501592458, -3652.498561441727, -10921.598782729958, -13633.871213659193, 0.015, -0.1065, 0.988, 192.0, 0.0, 0.0, 0.0, 0.0, 0.0, 0.0, 0.0, 0.0, 0.0, 1.645920449025319E9, 0.0, 2022-02-27 11:07:29.025
50.0, -3264.427574208686, -6349.25888171898, -1481.4512707532967, -10270.850094658148, -749.0963636751609, 665.9702260458739, -5286.366377635763, -2810.5306995547653, -3588.8184414885573, -7477.373776122782, -4053.7123744144887, -2723.4930066457996, -4682.131669775447, -3667.675395926881, -11175.224027064327, -13763.064296610868, 0.015, -0.1065, 0.988, 192.0, 0.0, 0.0, 0.0, 0.0, 0.0, 0.0, 0.0, 0.0, 0.0, 1.645920449033315E9, 0.0, 2022-02-27 11:07:29.033
52.0, -3574.021586659144, -6474.763926835529, -1579.530725423184, -10461.666937073105, -1026.9956024879937, 483.11060465700683, -5245.775609704925, -2865.5159909148206, -4576.05029059056, -8084.402452040012, -4098.728787747477, -2722.934213034417, -4715.659286458407, -3732.920137991922, -11325.42774980399, -14373.848065596589, 0.015, -0.1065, 0.988, 192.0, 0.0, 0.0, 0.0, 0.0, 0.0, 0.0, 0.0, 0.0, 0.0, 1.645920449040329E9, 0.0, 2022-02-27 11:07:29.040
54.0, -3410.6303346908494, -6431.155673403225, -1542.091553460545, -10361.709935868972, -900.5964875932322, 548.3776984665035, -5258.314938344352, -2769.3364345236346, -2434.552006072045, -7190.6679499945585, -4048.347955745215, -2516.4040942673796, -4692.212306524791, -3615.6852383238365, -10874.123677506886, -13332.279125723735, 0.015, -0.1065, 0.988, 192.0, 0.0, 0.0, 0.0, 0.0, 0.0, 0.0, 0.0, 0.0, 0.0, 1.645920449048435E9, 0.0, 2022-02-27 11:07:29.048
56.0, -3294.2448013120656, -6311.685599289608, -1488.022683623157, -10326.19301392949, -842.571358987255, 611.4766730638353, -5290.099118959799, -2880.3799009776, -4901.312875904188, -7973.426040819412, -4055.902845371109, -2839.967947002405, -4684.433899454343, -3740.7656002957347, -11472.03284168635, -14407.62155146856, 0.0135, -0.10625, 0.988, 192.0, 0.0, 48.0, 126.0, 88.0, 15.0, 112.0, 0.0, 0.0, 0.0, 1.645920449055055E9, 0.0, 2022-02-27 11:07:29.055
58.0, -3565.572627255038, -6488.8678775868275, -1599.0661500771225, -10458.895320760646, -1074.135431544236, 441.91633962587593, -5274.497601329995, -2822.578289816176, -2896.249639540868, -7527.084055791385, -4070.833810667254, -2486.20688750826, -4717.3133155481, -3653.727907386769, -10937.893204437876, -13658.301670348845, 0.0135, -0.10625, 0.988, 192.0, 0.0, 0.0, 0.0, 0.0, 0.0, 0.0, 0.0, 0.0, 0.0, 1.645920449063271E9, 0.0, 2022-02-27 11:07:29.063
60.0, -3196.4782710645522, -6290.67495950162, -1468.9789973472355, -10263.786943410272, -764.67552956051, 640.93627225593, -5255.431563309618, -2833.1730166879915, -3510.6543911283484, -7436.492435514026, -4036.5015311839024, -2685.8526689830624, -4682.623408153464, -3662.9144743579004, -11169.144352572484, -13741.293697511399, 0.0135, -0.10625, 0.988, 192.0, 0.0, 0.0, 0.0, 0.0, 0.0, 0.0, 0.0, 0.0, 0.0, 1.645920449070971E9, 0.0, 2022-02-27 11:07:29.070
62.0, -3496.6174956104155, -6410.949696415627, -1566.4326031723742, -10442.35502986372, -1043.044155006904, 476.06980515358515, -5243.451028281574, -2880.335197488689, -4584.611008716942, -8079.261550815291, -4080.065081127296, -2703.935230247406, -4712.418283512388, -3740.0950479620756, -11335.95542144244, -14394.210504795374, 0.0135, -0.10625, 0.988, 192.0, 0.0, 0.0, 0.0, 0.0, 0.0, 0.0, 0.0, 0.0, 0.0, 1.645920449077591E9, 0.0, 2022-02-27 11:07:29.077
64.0, -3347.866636260347, -6367.609663916786, -1534.022573712179, -10345.080237994223, -906.9667347629946, 537.9617855503304, -5243.9874701485005, -2789.251838833313, -2381.0642815904953, -7170.014938117855, -4022.330525199238, -2477.623817637422, -4688.479565200754, -3604.6881800518254, -10869.273348960085, -13327.205279732381, 0.0135, -0.10625, 0.988, 192.0, 0.0, 0.0, 0.0, 0.0, 0.0, 0.0, 0.0, 0.0, 0.0, 1.645920449085604E9, 0.0, 2022-02-27 11:07:29.085
66.0, -3227.3236784128762, -6252.09584857176, -1472.734090415727, -10306.724644508917, -831.9989838598948, 619.4338940899246, -5278.453860098584, -2845.5558831162316, -4845.6570322104735, -7944.257014305236, -4039.2731474963607, -2819.5161008257987, -4685.037396554637, -3731.1319984354973, -11464.50030380491, -14384.845123868601, 0.01375, -0.105125, 0.987, 192.0, 0.0, 56.0, 126.0, 96.0, 15.0, 104.0, 0.0, 0.0, 0.0, 1.645920449093666E9, 0.0, 2022-02-27 11:07:29.093
68.0, -3504.6641236143264, -6424.405446577722, -1578.50254517824, -10442.690306030549, -1053.5494749008983, 443.8609413934877, -5250.380069062719, -2794.8844784360504, -2898.6189244531306, -7515.885831819276, -4049.4878947124357, -2466.4479454097686, -4704.483414230754, -3651.023346307677, -10941.73770448419, -13673.389097856176, 0.01375, -0.105125, 0.987, 192.0, 0.0, 0.0, 0.0, 0.0, 0.0, 0.0, 0.0, 0.0, 0.0, 1.645920449101541E9, 0.0, 2022-02-27 11:07:29.101
70.0, -3134.653345901173, -6222.055104023827, -1449.6447383933948, -10244.07270480069, -757.4335643569905, 663.2433132223265, -5278.230342654031, -2786.3684637985784, -3423.795512175025, -7383.138821499208, -4006.639600591612, -2657.7565262027415, -4664.697309100307, -3658.4441254668386, -11154.906291354453, -13716.818537332838, 0.01375, -0.105125, 0.987, 192.0, 0.0, 0.0, 0.0, 0.0, 0.0, 0.0, 0.0, 0.0, 0.0, 1.645920449115335E9, 0.0, 2022-02-27 11:07:29.115
72.0, -3437.675945481771, -6350.823503830851, -1548.3947453969415, -10426.73116048946, -1022.4134948746556, 497.34866587503745, -5282.924208989645, -2878.927037588005, -4582.800517416063, -8047.656184155487, -4055.455810482003, -2688.3784161065123, -4704.058731086103, -3722.437169842383, -11353.166264673027, -14396.222161796351, 0.01375, -0.105125, 0.987, 192.0, 0.0, 0.0, 0.0, 0.0, 0.0, 0.0, 0.0, 0.0, 0.0, 1.645920449123367E9, 0.0, 2022-02-27 11:07:29.123
74.0, -3310.2486503420655, -6331.466893132555, -1521.0362101836456, -10331.959763998957, -909.0454469973382, 548.4671054443247, -5271.368357106252, -2772.3539200251007, -2332.471589144658, -7145.115094794643, -4005.678475580034, -2450.824076035509, -4677.147230761913, -3593.3558456129845, -10868.736907093156, -13320.96914302935, 0.01375, -0.105125, 0.987, 192.0, 0.0, 0.0, 0.0, 0.0, 0.0, 0.0, 0.0, 0.0, 0.0, 1.64592044913038E9, 0.0, 2022-02-27 11:07:29.130
76.0, -3198.780500743449, -6224.4914441694555, -1462.9887298332133, -10288.485621033386, -832.0436873488054, 626.5641005711676, -5290.724967804547, -2875.641331153075, -4792.102252495558, -7912.673999389887, -4018.5977838752015, -2790.034149889249, -4673.995634793715, -3734.9317949928995, -11461.661632259087, -14375.03270805272, 0.013875, -0.1075625, 0.9875, 192.0, 0.0, 56.0, 126.0, 72.0, 15.0, 112.0, 0.0, 0.0, 0.0, 1.645920449137832E9, 0.0, 2022-02-27 11:07:29.137
78.0, -3490.8507455409463, -6416.537632529454, -1573.2498852312428, -10438.935212962058, -1065.5747134178537, 436.84249363452125, -5275.570485063849, -2845.2876621827677, -2925.217500354946, -7531.912032593732, -4041.7541911308995, -2459.0495179950617, -4703.768158408184, -3657.4830004552605, -10951.103085410963, -13704.212153460045, 0.013875, -0.1075625, 0.9875, 192.0, 0.0, 0.0, 0.0, 0.0, 0.0, 0.0, 0.0, 0.0, 0.0, 1.645920449145965E9, 0.0, 2022-02-27 11:07:29.145
80.0, -3155.105192077779, -6237.723676886997, -1451.3211192275428, -10248.811274625215, -753.0526224437502, 645.6971938249104, -5283.885334001224, -2823.60647006112, -3374.8898953068133, -7386.201010489584, -4005.2314406909277, -2655.0743168681047, -4667.223056223757, -3661.6404249239476, -11145.786779616688, -13718.360807700254, 0.013875, -0.1075625, 0.9875, 192.0, 0.0, 0.0, 0.0, 0.0, 0.0, 0.0, 0.0, 0.0, 0.0, 1.64592044915381E9, 0.0, 2022-02-27 11:07:29.153
82.0, -3492.6165333529157, -6397.158670086703, -1550.1158297200002, -10426.77586397837, -1021.206500674069, 490.9560669608196, -5289.1826974371315, -2878.927037588005, -4631.840244751006, -8077.942797892428, -4071.794935678832, -2718.106236232071, -4705.98098110926, -3743.8724927750222, -11362.553997344256, -14423.804214454201, 0.013875, -0.1075625, 0.9875, 192.0, 0.0, 0.0, 0.0, 0.0, 0.0, 0.0, 0.0, 0.0, 0.0, 1.645920449160364E9, 0.0, 2022-02-27 11:07:29.160
84.0, -3413.446654492218, -6416.872908696283, -1527.7193817757825, -10347.114246739657, -902.98812424995, 546.9471868213639, -5275.391671108207, -2786.9719608988717, -2355.8291621004537, -7181.637845234614, -4035.8086271057878, -2490.878402099419, -4683.003387809204, -3606.0963399525094, -10869.25099721563, -13327.428797176934, 0.013875, -0.1075625, 0.9875, 192.0, 0.0, 0.0, 0.0, 0.0, 0.0, 0.0, 0.0, 0.0, 0.0, 1.645920449167582E9, 0.0, 2022-02-27 11:07:29.167
86.0, -3339.685897789705, -6350.801152086396, -1476.2656660396656, -10301.494336306374, -811.0553993052721, 630.5427110842122, -5288.33333114783, -2858.6763571114966, -4821.517148198742, -7949.263805063225, -4067.346938532226, -2844.818275549206, -4672.408660937388, -3738.8657020170335, -11459.895844447117, -14362.158103246464, 0.0119375, -0.10878125, 0.98875, 192.0, 0.0, 40.0, 126.0, 72.0, 15.0, 120.0, 0.0, 0.0, 0.0, 1.645920449175453E9, 0.0, 2022-02-27 11:07:29.175
88.0, -3719.777312252201, -6613.8364808364495, -1600.5637169556283, -10455.83313177027, -1050.9119690551722, 450.87938915245405, -5215.332533756797, -2801.768815728285, -3050.007289648925, -7610.344303887404, -4109.368218108203, -2519.2427658132037, -4710.004295111215, -3660.545189445638, -10962.16719891634, -13713.242258219989, 0.0119375, -0.10878125, 0.98875, 192.0, 0.0, 0.0, 0.0, 0.0, 0.0, 0.0, 0.0, 0.0, 0.0, 1.645920449182592E9, 0.0, 2022-02-27 11:07:29.182
90.0, -3404.0365700765337, -6462.224598196101, -1486.2792475556432, -10259.920091619504, -748.2469973858592, 670.5970371481225, -5252.503484785972, -2757.3558994955897, -3448.471838053684, -7435.196034335618, -4089.4975172874356, -2714.485253630311, -4680.075309285558, -3656.8347998660565, -11135.39321844497, -13674.506685078943, 0.0119375, -0.10878125, 0.98875, 192.0, 0.0, 0.0, 0.0, 0.0, 0.0, 0.0, 0.0, 0.0, 0.0, 1.645920449190069E9, 0.0, 2022-02-27 11:07:29.190
92.0, -3709.786082480679, -6604.404044676309, -1579.4636701898182, -10436.767093749893, -1000.6205440307313, 513.1737009493949, -5258.829028466825, -2852.864903553117, -4786.648426848463, -8149.133103982581, -4148.997861027463, -2790.9505714119164, -4711.613620711997, -3747.828751543612, -11374.15455271656, -14421.9043161755, 0.0119375, -0.10878125, 0.98875, 192.0, 0.0, 0.0, 0.0, 0.0, 0.0, 0.0, 0.0, 0.0, 0.0, 1.645920449198257E9, 0.0, 2022-02-27 11:07:29.198
94.0, -3625.318840184074, -6610.304905212511, -1571.7970218416478, -10373.66811915256, -906.9443830185394, 546.0531170431516, -5231.157568831154, -2744.0566115446823, -2453.9086167703413, -7253.275186213874, -4117.191328667561, -2548.07651616055, -4695.45330947081, -3618.3450959140177, -10862.701936090223, -13322.39965467449, 0.0119375, -0.10878125, 0.98875, 192.0, 0.0, 0.0, 0.0, 0.0, 0.0, 0.0, 0.0, 0.0, 0.0, 1.645920449206148E9, 0.0, 2022-02-27 11:07:29.206
96.0, -3458.35130910293, -6470.606502366842, -1498.05861688359, -10310.099757921667, -798.6948846214873, 645.6524903359998, -5266.875656470735, -2855.837685565673, -4869.081660399635, -7977.8740379660185, -4130.669430574111, -2892.4498429834657, -4692.949914091815, -3741.324393907117, -11445.098989617705, -14339.068751224131, 0.012968750000000001, -0.10839062499999999, 0.991375, 192.0, 0.0, 56.0, 126.0, 80.0, 15.5, 8.0, 0.0, 0.0, 0.0, 1.645920449212851E9, 0.0, 2022-02-27 11:07:29.212
98.0, -3760.748059838779, -6660.953958148237, -1614.4888537512845, -10465.377326652686, -1055.270559223957, 458.8589619229987, -5230.531719986406, -2789.8553359336065, -3137.2908517468995, -7654.243129997627, -4144.10282899175, -2549.5293795501448, -4722.498920261732, -3672.302207029129, -10962.45777159426, -13739.617316677251, 0.012968750000000001, -0.10839062499999999, 0.991375, 192.0, 0.0, 0.0, 0.0, 0.0, 0.0, 0.0, 0.0, 0.0, 0.0, 1.645920449220754E9, 0.0, 2022-02-27 11:07:29.220
100.0, -3386.6245611458494, -6461.464638884621, -1490.5707824910621, -10272.884103403581, -752.963215465929, 658.6165021200779, -5244.27804282642, -2770.5881322131318, -3398.9403723407236, -7432.357362789794, -4092.872630700187, -2719.648506599487, -4683.539829676131, -3661.4839627127603, -11113.577915856591, -13663.12964715119, 0.012968750000000001, -0.10839062499999999, 0.991375, 192.0, 0.0, 0.0, 0.0, 0.0, 0.0, 0.0, 0.0, 0.0, 0.0, 1.645920449235866E9, 0.0, 2022-02-27 11:07:29.235
102.0, -3664.3002825141293, -6570.58585531543, -1585.1410132814663, -10446.288936887853, -1011.3940848581893, 495.8510989965319, -5235.493807255484, -2865.292473470268, -4807.748473614272, -8159.593720387665, -4144.192235969572, -2799.6901034939415, -4721.381333038966, -3763.720841851335, -11369.34892765867, -14444.211357141896, 0.012968750000000001, -0.10839062499999999, 0.991375, 192.0, 0.0, 0.0, 0.0, 0.0, 0.0, 0.0, 0.0, 0.0, 0.0, 1.645920449242417E9, 0.0, 2022-02-27 11:07:29.242
104.0, -3569.37242381244, -6557.353622597889, -1571.8417253305586, -10373.869284852659, -920.601298880732, 540.48753267378, -5223.289754782886, -2741.3967539545006, -2435.334317127981, -7247.307270444307, -4103.936744205564, -2535.73835322122, -4705.221021797779, -3623.798921561113, -10847.502749860616, -13326.35591344308, 0.012968750000000001, -0.10839062499999999, 0.991375, 192.0, 0.0, 0.0, 0.0, 0.0, 0.0, 0.0, 0.0, 0.0, 0.0, 1.645920449250473E9, 0.0, 2022-02-27 11:07:29.250
106.0, -3391.9889798151235, -6409.139205114747, -1498.3938930504196, -10306.188202641988, -796.3255997092248, 655.8672375520752, -5254.895121442691, -2845.6452900940526, -4835.732857672317, -7959.165627856926, -4120.298221146849, -2877.09419454267, -4694.291018759134, -3740.4526758733605, -11436.135940091126, -14325.858870251044, 0.015484375000000002, -0.1091953125, 0.9886874999999999, 192.0, 0.0, 72.0, 126.0, 72.0, 15.0, 104.0, 0.0, 0.0, 0.0, 1.645920449258276E9, 0.0, 2022-02-27 11:07:29.258
108.0, -3694.2069165953303, -6590.322445669466, -1612.9018798949576, -10469.087716232267, -1058.690376125619, 468.9843021612528, -5229.816464163836, -2785.921428909472, -3158.7932299129047, -7652.924377074764, -4128.970697995508, -2537.1912166108154, -4713.535870735153, -3662.0427563241433, -10965.587015818002, -13752.380162761232, 0.015484375000000002, -0.1091953125, 0.9886874999999999, 192.0, 0.0, 0.0, 0.0, 0.0, 0.0, 0.0, 0.0, 0.0, 0.0, 1.645920449265458E9, 0.0, 2022-02-27 11:07:29.265
110.0, -3328.934708706702, -6402.321923055879, -1489.184974334833, -10278.561446495229, -759.5346283357893, 656.9848247748405, -5234.443275266084, -2761.5356757087325, -3338.5683105669395, -7410.22913577904, -4077.7181479594888, -2695.620381310032, -4690.491222201732, -3670.8716953839894, -11101.440918617358, -13640.666143973607, 0.015484375000000002, -0.1091953125, 0.9886874999999999, 192.0, 0.0, 0.0, 0.0, 0.0, 0.0, 0.0, 0.0, 0.0, 0.0, 1.64592044927301E9, 0.0, 2022-02-27 11:07:29.273
112.0, -3598.7426160267137, -6499.507307947553, -1577.7425858667596, -10450.915747990102, -1008.175433656625, 505.59645957904576, -5244.948595160079, -2862.252636224346, -4817.270316752233, -8159.99605178786, -4128.031924728385, -2790.682350478453, -4721.26957431669, -3771.8121733441562, -11377.373203918125, -14454.359049124605, 0.015484375000000002, -0.1091953125, 0.9886874999999999, 192.0, 0.0, 0.0, 0.0, 0.0, 0.0, 0.0, 0.0, 0.0, 0.0, 1.645920449281027E9, 0.0, 2022-02-27 11:07:29.281
114.0, -3512.1296062623987, -6500.580191681408, -1568.8018880846369, -10385.045157080312, -927.2397669839581, 540.5992913960566, -5230.263499052942, -2759.4346117299333, -2405.4500347912353, -7238.500683128916, -4091.330360332771, -2519.5780419800335, -4706.271553787178, -3611.796034788613, -10841.691296302235, -13328.188756488415, 0.015484375000000002, -0.1091953125, 0.9886874999999999, 192.0, 0.0, 0.0, 0.0, 0.0, 0.0, 0.0, 0.0, 0.0, 0.0, 1.645920449288051E9, 0.0, 2022-02-27 11:07:29.288
116.0, -3335.5955285543837, -6364.569826670865, -1497.1421953609224, -10311.105586422156, -817.1797772860263, 634.2307489193379, -5276.084575186322, -2857.871694311106, -4780.188772700879, -7937.216214801814, -4106.350732606737, -2860.4868484123767, -4702.248239785224, -3764.9725395408323, -11426.479986486434, -14320.270934137217, 0.014, -0.10200000000000001, 0.99, 192.0, 0.0, 56.0, 126.0, 104.0, 15.0, 120.0, 0.0, 0.0, 0.0, 1.645920449294748E9, 0.0, 2022-02-27 11:07:29.294
118.0, -3660.858113868012, -6559.097058665402, -1622.0884468660888, -10475.726184335494, -1081.1315275587474, 435.5684442005687, -5253.889292942202, -2829.7531997863293, -3201.663875778184, -7680.238208799149, -4136.346773665759, -2538.5993765114995, -4732.110170377514, -3700.308942831629, -10978.573379346535, -13796.882485971748, 0.014, -0.10200000000000001, 0.99, 192.0, 0.0, 0.0, 0.0, 0.0, 0.0, 0.0, 0.0, 0.0, 0.0, 1.645920449302781E9, 0.0, 2022-02-27 11:07:29.302
120.0, -3287.6063332088393, -6361.284120235935, -1497.410416294386, -10279.902551162548, -771.2692941748255, 645.2948624247149, -5273.670586785149, -2810.0389611767487, -3293.216621067121, -7403.70242639809, -4085.7200724744885, -2689.428948095912, -4698.180222294357, -3677.5772187205816, -11094.489526091758, -13647.885757432672, 0.014, -0.10200000000000001, 0.99, 192.0, 0.0, 0.0, 0.0, 0.0, 0.0, 0.0, 0.0, 0.0, 0.0, 1.645920449310609E9, 0.0, 2022-02-27 11:07:29.310
122.0, -3551.7816009261137, -6459.832961539383, -1577.250847488743, -10450.513416589907, -1023.5757855863317, 487.5362500591576, -5265.601607036782, -2868.444069438466, -4833.900014626982, -8163.572330900709, -4127.629593328189, -2791.732882467852, -4726.924565663882, -3783.3903769720055, -11386.224494722426, -14476.464924390904, 0.014, -0.10200000000000001, 0.99, 192.0, 0.0, 0.0, 0.0, 0.0, 0.0, 0.0, 0.0, 0.0, 0.0, 1.645920449317729E9, 0.0, 2022-02-27 11:07:29.317
124.0, -3477.6185128234047, -6465.957339520138, -1574.1663067539105, -10398.702072942504, -956.2299795424915, 512.5255003601909, -5256.5491505323835, -2775.3714055265673, -2386.987493871152, -7243.954508776011, -4089.2963515873375, -2513.520719232645, -4716.240431814245, -3654.018480064688, -10847.189825438241, -13348.506492198288, 0.014, -0.10200000000000001, 0.99, 192.0, 0.0, 0.0, 0.0, 0.0, 0.0, 0.0, 0.0, 0.0, 0.0, 1.645920449325359E9, 0.0, 2022-02-27 11:07:29.325
126.0, -3301.2408973265765, -6321.475663361033, -1500.8078814515927, -10325.142481940089, -820.3313732542246, 622.4960830803017, -5262.338252346308, -2841.0408307362595, -4753.031403187681, -7925.101569307038, -4106.887174473664, -2866.1641915040245, -4708.752597421718, -3774.0249960452315, -11423.887184129619, -14316.78406200219, 0.018000000000000002, -0.10400000000000001, 0.99, 192.0, 0.0, 72.0, 126.0, 96.0, 15.0, 120.0, 0.0, 0.0, 0.0, 1.645920449333323E9, 0.0, 2022-02-27 11:07:29.333
128.0, -3623.8436250500235, -6517.254593045068, -1619.6521067204603, -10491.84179208777, -1084.372530504767, 430.1369702979291, -5241.707592214059, -2815.4033798460223, -3239.684193096661, -7694.319807805992, -4131.742314307966, -2541.013364912673, -4740.760295481718, -3718.9055942184445, -10984.675405582835, -13817.557849592908, 0.018000000000000002, -0.10400000000000001, 0.99, 192.0, 0.0, 0.0, 0.0, 0.0, 0.0, 0.0, 0.0, 0.0, 0.0, 1.645920449341255E9, 0.0, 2022-02-27 11:07:29.341
130.0, -3262.326510229887, -6329.701105320586, -1499.2432593397211, -10297.60513277115, -783.9874367698952, 619.6574115344777, -5257.890255199702, -2784.1332893530475, -3241.5617396309067, -7394.091176282308, -4074.8571246692095, -2677.1131369010377, -4696.414434482388, -3688.9766083927884, -11081.793735241145, -13630.071417101792, 0.018000000000000002, -0.10400000000000001, 0.99, 192.0, 0.0, 0.0, 0.0, 0.0, 0.0, 0.0, 0.0, 0.0, 0.0, 1.645920449347904E9, 0.0, 2022-02-27 11:07:29.347
132.0, -3502.987742780178, -6414.973010417582, -1577.4743649332959, -10451.586300323761, -1012.3328581253122, 483.8929157129426, -5261.175961634632, -2885.833726624695, -4867.070003398658, -8168.780287358795, -4119.538261835368, -2792.9175249239834, -4731.596080255042, -3814.7051709538905, -11394.584047148712, -14498.637854890569, 0.018000000000000002, -0.10400000000000001, 0.99, 192.0, 0.0, 0.0, 0.0, 0.0, 0.0, 0.0, 0.0, 0.0, 0.0, 1.645920449362905E9, 0.0, 2022-02-27 11:07:29.362
134.0, -3457.63605328036, -6436.877719983783, -1586.0350830596785, -10401.943075888525, -961.8179156563182, 507.8092822801212, -5252.212912108053, -2772.0186438582714, -2384.394691514336, -7252.135247246653, -4087.0835288862622, -2502.3224952605365, -4716.083969603058, -3673.017462851699, -10834.71755203218, -13354.78733239023, 0.018000000000000002, -0.10400000000000001, 0.99, 192.0, 0.0, 0.0, 0.0, 0.0, 0.0, 0.0, 0.0, 0.0, 0.0, 1.645920449370998E9, 0.0, 2022-02-27 11:07:29.370
136.0, -3245.652108866228, -6277.085098872793, -1498.1033203725005, -10310.770310255326, -811.0106958163615, 630.453304106391, -5298.436319641629, -2861.4256216794997, -4689.97713207926, -7896.89366780444, -4097.790014480354, -2844.9523860159384, -4709.087873588547, -3780.2834844927174, -11416.824032881741, -14298.50033503775, 0.018000000000000002, -0.106, 0.99, 192.0, 0.0, 72.0, 126.0, 88.0, 15.0, 120.0, 0.0, 0.0, 0.0, 1.645920449377644E9, 0.0, 2022-02-27 11:07:29.377
138.0, -3581.2635518626635, -6484.71045311814, -1623.921289911424, -10486.969111796512, -1088.4852514845434, 421.97858357174204, -5245.46268528255, -2824.2099671614133, -3291.0261501105015, -7710.055435902529, -4119.33709613527, -2540.4322195568348, -4732.3113360776115, -3727.1980914113633, -11005.75310060419, -13863.378925726287, 0.018000000000000002, -0.106, 0.99, 192.0, 0.0, 0.0, 0.0, 0.0, 0.0, 0.0, 0.0, 0.0, 0.0, 1.645920449385581E9, 0.0, 2022-02-27 11:07:29.385
140.0, -3226.720181312583, -6302.767253251941, -1508.988619922235, -10289.737318722882, -797.0632072762498, 616.7293330108324, -5278.409156609673, -2794.5939057581313, -3168.8962184067036, -7361.055297977365, -4067.324586787771, -2659.2764448257026, -4692.257010013701, -3702.0747306435983, -11072.137781636451, -13621.51069897541, 0.018000000000000002, -0.106, 0.99, 192.0, 0.0, 0.0, 0.0, 0.0, 0.0, 0.0, 0.0, 0.0, 0.0, 1.645920449393484E9, 0.0, 2022-02-27 11:07:29.393
142.0, -3460.586483548461, -6384.97696935856, -1581.2294580017876, -10440.477483329474, -1017.2278901610244, 478.01440692119684, -5282.968912478556, -2900.541174476287, -4870.020433666758, -8148.3954964155555, -4107.043636684852, -2780.735824195841, -4718.654420215419, -3809.4972144958037, -11415.035893325317, -14513.121785297608, 0.018000000000000002, -0.106, 0.99, 192.0, 0.0, 0.0, 0.0, 0.0, 0.0, 0.0, 0.0, 0.0, 0.0, 1.645920449400113E9, 0.0, 2022-02-27 11:07:29.400
144.0, -3425.2260238201648, -6414.347161572834, -1591.377149984497, -10401.25017181041, -966.7352994364858, 485.25637212471634, -5274.296435629897, -2783.798013186218, -2358.310205734993, -7237.606613350704, -4073.2030955795167, -2482.4741461842236, -4706.964457865293, -3677.9795501207773, -10850.631994084359, -13366.387887762534, 0.018000000000000002, -0.106, 0.99, 192.0, 0.0, 0.0, 0.0, 0.0, 0.0, 0.0, 0.0, 0.0, 0.0, 1.645920449408263E9, 0.0, 2022-02-27 11:07:29.408
146.0, -3221.9592597436026, -6262.444706254567, -1499.5561837620955, -10311.463214333442, -803.9698963129397, 609.5767747851343, -5304.203069711098, -2874.0767090412032, -4637.092904698004, -7877.2688361726805, -4076.8240781812765, -2836.1681504450025, -4688.457213456299, -3789.827679375134, -11421.808471895274, -14293.001805901744, 0.018000000000000002, -0.108, 0.988, 192.0, 0.0, 72.0, 126.0, 80.0, 15.0, 112.0, 0.0, 0.0, 0.0, 1.645920449415205E9, 0.0, 2022-02-27 11:07:29.415
148.0, -3568.5901127565044, -6462.716336574118, -1628.1457696134771, -10490.478335675996, -1085.043082838426, 404.16424324086233, -5267.61326403776, -2845.4888278828657, -3300.6374002262833, -7715.978648183185, -4108.787072752366, -2544.008498669684, -4721.202519083324, -3745.9735567538214, -11017.085435043029, -13881.50619047954, 0.018000000000000002, -0.108, 0.988, 192.0, 0.0, 0.0, 0.0, 0.0, 0.0, 0.0, 0.0, 0.0, 0.0, 1.645920449423104E9, 0.0, 2022-02-27 11:07:29.423
150.0, -3225.06615222289, -6293.938314192094, -1518.8457392270254, -10299.348568838665, -791.9670095404398, 601.7089607368662, -5288.467441614562, -2800.9194494389835, -3142.6999739050834, -7349.231225160507, -4064.351804775215, -2656.8177529356185, -4685.775004121662, -3706.9250591903997, -11073.165961881396, -13614.022864582881, 0.018000000000000002, -0.108, 0.988, 192.0, 0.0, 0.0, 0.0, 0.0, 0.0, 0.0, 0.0, 0.0, 0.0, 1.645920449429908E9, 0.0, 2022-02-27 11:07:29.429
152.0, -3456.294948613042, -6369.598969173309, -1587.018559815712, -10441.975050207979, -1008.0413231898932, 479.40021507742586, -5288.020406725455, -2916.187395595002, -4901.894021260026, -8155.726868596897, -4116.699590289544, -2797.03024590376, -4714.608754469008, -3816.7615314437785, -11426.189413808515, -14525.437596492482, 0.018000000000000002, -0.108, 0.988, 192.0, 0.0, 0.0, 0.0, 0.0, 0.0, 0.0, 0.0, 0.0, 0.0, 1.645920449438151E9, 0.0, 2022-02-27 11:07:29.438
154.0, -3436.2454338366315, -6410.145033615236, -1596.2945337646645, -10411.040235881834, -975.8324594297958, 483.20001163482806, -5257.107944143766, -2778.5900567281315, -2364.5463424380237, -7237.874834284167, -4078.4557555265137, -2489.2914282430925, -4703.298771774623, -3664.8814278699674, -10850.654345828814, -13367.572530218666, 0.018000000000000002, -0.108, 0.988, 192.0, 0.0, 0.0, 0.0, 0.0, 0.0, 0.0, 0.0, 0.0, 0.0, 1.645920449445761E9, 0.0, 2022-02-27 11:07:29.445
156.0, -3219.5676230868844, -6250.441819482067, -1505.0100094091904, -10313.407816101053, -799.6113061441548, 615.8129114881649, -5275.816354252858, -2875.8424968531726, -4623.458340580266, -7859.499199330712, -4086.703549230522, -2850.763839574318, -4693.352245492011, -3775.209638501363, -11419.126262560638, -14272.862884147513, 0.016, -0.10200000000000001, 0.984, 192.0, 0.0, 64.0, 126.0, 104.0, 15.0, 96.0, 0.0, 0.0, 0.0, 1.645920449452909E9, 0.0, 2022-02-27 11:07:29.452
158.0, -3563.158638853865, -6459.073002227903, -1628.3022318246642, -10493.0264345439, -1087.367664261778, 413.5966794010019, -5242.981641648012, -2843.5889296041646, -3372.1406307388106, -7721.253659874637, -4107.334209362771, -2555.653757530899, -4715.3463620360335, -3723.4429983428718, -11036.307935274594, -13903.187382601189, 0.016, -0.10200000000000001, 0.984, 192.0, 0.0, 0.0, 0.0, 0.0, 0.0, 0.0, 0.0, 0.0, 0.0, 1.645920449460563E9, 0.0, 2022-02-27 11:07:29.460
160.0, -3227.9048237687143, -6294.944142692583, -1518.1751868933663, -10307.931638709502, -792.4810996629119, 594.6905129778997, -5259.410173822663, -2799.0642546491927, -3100.6786943291063, -7325.806596971345, -4061.2225605514723, -2659.8575901815407, -4679.583570907542, -3692.0387973831653, -11051.127141848463, -13588.296006714823, 0.016, -0.10200000000000001, 0.984, 192.0, 0.0, 0.0, 0.0, 0.0, 0.0, 0.0, 0.0, 0.0, 0.0, 1.64592044946849E9, 0.0, 2022-02-27 11:07:29.468
162.0, -3454.8420852234467, -6369.107230795292, -1591.1759842843992, -10451.921576490591, -1001.3134481088458, 474.59459001953485, -5270.675453028137, -2917.9084799180605, -4935.801617598727, -8149.446028404955, -4113.816215254809, -2815.828062990673, -4712.284173045656, -3806.9044121389884, -11422.099044573193, -14531.003180861853, 0.016, -0.10200000000000001, 0.984, 192.0, 0.0, 0.0, 0.0, 0.0, 0.0, 0.0, 0.0, 0.0, 0.0, 1.64592044948277E9, 0.0, 2022-02-27 11:07:29.482
164.0, -3443.5097507846062, -6419.733931986562, -1612.1642723279326, -10423.73602673245, -981.6886164770862, 465.05039513711876, -5258.873731955735, -2780.1993823289135, -2388.7979851720315, -7250.928253046067, -4086.837659697254, -2498.276829514126, -4707.165623565391, -3664.7473174032352, -10841.110150946397, -13373.138114588037, 0.016, -0.10200000000000001, 0.984, 192.0, 0.0, 0.0, 0.0, 0.0, 0.0, 0.0, 0.0, 0.0, 0.0, 1.645920449490237E9, 0.0, 2022-02-27 11:07:29.490
166.0, -3209.9787247155577, -6253.906339872639, -1512.8554717130032, -10315.866507991137, -805.3110009802582, 610.2026236298829, -5302.370226665763, -2875.66368289753, -4594.021093132626, -7839.784960721131, -4079.4615840270026, -2841.4878656253654, -4692.994617580726, -3772.818001844645, -11409.11268104466, -14260.68118341937, 0.012, -0.11, 0.988, 192.0, 0.0, 48.0, 126.0, 72.0, 15.0, 112.0, 0.0, 0.0, 0.0, 1.645920449498108E9, 0.0, 2022-02-27 11:07:29.498
168.0, -3565.5279237661275, -6461.464638884621, -1641.400354075474, -10502.660036404139, -1093.626152709264, 402.9125455513651, -5268.194409393598, -2849.8027145627398, -3419.4145702617852, -7737.2128054157265, -4105.501366317435, -2563.432164601346, -4723.929431906871, -3729.634431556992, -11049.316650547582, -13926.52260381253, 0.012, -0.11, 0.988, 192.0, 0.0, 0.0, 0.0, 0.0, 0.0, 0.0, 0.0, 0.0, 0.0, 1.645920449506262E9, 0.0, 2022-02-27 11:07:29.506
170.0, -3220.908727754203, -6290.5855525237985, -1524.344268363031, -10311.977304455913, -795.6550473755655, 591.6283239875227, -5270.831915239324, -2815.090455423648, -3087.8711447562155, -7315.3459805662615, -4056.3275285157597, -2650.8498371660517, -4682.601056409008, -3687.8143176811122, -11056.446857028826, -13591.492306171931, 0.012, -0.11, 0.988, 192.0, 0.0, 0.0, 0.0, 0.0, 0.0, 0.0, 0.0, 0.0, 0.0, 1.645920449514269E9, 0.0, 2022-02-27 11:07:29.514
172.0, -3432.7362099571483, -6357.64078588972, -1587.2420772602652, -10442.82441649728, -995.3455323392789, 487.0668634255962, -5281.314883388864, -2898.887145386594, -4954.688841663461, -8135.006801486827, -4096.739482490955, -2800.0477314052264, -4704.3716555084775, -3796.1755748004407, -11434.034876112328, -14539.07216061022, 0.012, -0.11, 0.988, 192.0, 0.0, 0.0, 0.0, 0.0, 0.0, 0.0, 0.0, 0.0, 0.0, 1.645920449520713E9, 0.0, 2022-02-27 11:07:29.520
174.0, -3439.5534920160167, -6414.995362162038, -1608.8338624040919, -10424.294820343832, -990.0258171589157, 470.3254068285712, -5275.123450174743, -2777.8524491611065, -2388.7309299386657, -7239.886491285145, -4070.2750170558716, -2482.988236306696, -4705.6010014535195, -3648.788171862146, -10844.418209125783, -13373.138114588037, 0.012, -0.11, 0.988, 192.0, 0.0, 0.0, 0.0, 0.0, 0.0, 0.0, 0.0, 0.0, 0.0, 1.645920449528698E9, 0.0, 2022-02-27 11:07:29.528
176.0, -3199.495756566019, -6253.928691617095, -1513.123692646467, -10319.0851591927, -807.9038033370738, 613.421274831447, -5331.695715391125, -2885.5878574356866, -4561.074621805504, -7812.962867374763, -4069.939740889042, -2823.4053043610224, -4692.301713502612, -3750.019222500232, -11406.519878687845, -14239.044694786633, 0.012, -0.11, 0.986, 192.0, 0.0, 48.0, 126.0, 72.0, 15.0, 104.0, 0.0, 0.0, 0.0, 1.645920449534868E9, 0.0, 2022-02-27 11:07:29.534
178.0, -3562.1304586089204, -6460.257644684034, -1645.2672058662422, -10508.560896940338, -1104.5114522589986, 405.304182208083, -5261.198313379087, -2843.834798793173, -3475.2045244222313, -7751.517921867124, -4101.612162782212, -2565.2203041577704, -4731.909004677415, -3711.4401115703718, -11063.867636187988, -13947.823816278436, 0.012, -0.11, 0.986, 192.0, 0.0, 0.0, 0.0, 0.0, 0.0, 0.0, 0.0, 0.0, 0.0, 1.645920449542384E9, 0.0, 2022-02-27 11:07:29.542
180.0, -3228.418913891186, -6298.922753205628, -1543.2985476611314, -10319.241621403888, -821.4936639659005, 592.5894489991008, -5273.447069340596, -2786.12259460957, -3057.9198071861038, -7297.553991979837, -4057.6909849275335, -2639.3386887715687, -4698.783719394651, -3663.406212735917, -11049.674278458868, -13559.439904623021, 0.012, -0.11, 0.986, 192.0, 0.0, 0.0, 0.0, 0.0, 0.0, 0.0, 0.0, 0.0, 0.0, 1.645920449550348E9, 0.0, 2022-02-27 11:07:29.550
182.0, -3421.7615034295923, -6355.15974225518, -1589.8348796170808, -10450.44636135654, -998.9888666854938, 485.52459305818, -5285.472307857551, -2914.4216077830324, -4997.067749150723, -8139.141874211058, -4106.90952621812, -2806.149757641525, -4723.437693528855, -3778.5624001696588, -11449.748152464408, -14539.429788521504, 0.012, -0.11, 0.986, 192.0, 0.0, 0.0, 0.0, 0.0, 0.0, 0.0, 0.0, 0.0, 0.0, 1.645920449558579E9, 0.0, 2022-02-27 11:07:29.558
184.0, -3435.932509414257, -6410.301495826423, -1612.276031050209, -10435.604803038217, -1003.1015876652704, 451.25936880819427, -5275.771650763947, -2797.0525976482154, -2404.2206888461938, -7254.81745658129, -4073.225447323972, -2484.3740444629248, -4710.630143955964, -3645.4801136827605, -10848.821502783478, -13387.532638017254, 0.013000000000000001, -0.109, 0.987, 192.0, 0.0, 56.0, 126.0, 80.0, 15.0, 112.0, 0.0, 0.0, 0.0, 1.645920449564957E9, 0.0, 2022-02-27 11:07:29.564
186.0, -3181.9719889130583, -6236.986069319973, -1510.2403176117323, -10312.893725978582, -807.3673614701464, 597.7750537127321, -5319.849290829813, -2879.6199416661193, -4497.036873941049, -7788.711224640754, -4058.2944820278267, -2819.60550780362, -4692.212306524791, -3752.0308795012093, -11397.06509078325, -14215.553011364105, 0.013000000000000001, -0.109, 0.987, 192.0, 0.0, 0.0, 0.0, 0.0, 0.0, 0.0, 0.0, 0.0, 0.0, 1.645920449572984E9, 0.0, 2022-02-27 11:07:29.572
188.0, -3547.311252035052, -6443.873815998294, -1637.6899644958933, -10509.946705096569, -1111.3510860623226, 379.1973446842843, -5284.488831101517, -2855.6141681211197, -3515.661181886337, -7760.235102204693, -4093.833755711765, -2563.2757023901586, -4731.149045365935, -3719.486739574282, -11078.373918339483, -13974.422392180251, 0.013000000000000001, -0.109, 0.987, 192.0, 0.0, 0.0, 0.0, 0.0, 0.0, 0.0, 0.0, 0.0, 0.0, 1.645920449581028E9, 0.0, 2022-02-27 11:07:29.581
190.0, -3221.5122248544963, -6288.260971100446, -1531.1168469329891, -10321.432092360508, -828.9367948695177, 566.2367422862939, -5302.593744110316, -2816.900946724528, -2999.3135332242887, -7289.596770953748, -4046.8950923556204, -2634.197787546848, -4694.559239692598, -3664.769669147691, -11043.460493500292, -13554.880148754139, 0.013000000000000001, -0.109, 0.987, 192.0, 0.0, 0.0, 0.0, 0.0, 0.0, 0.0, 0.0, 0.0, 0.0, 1.645920449588179E9, 0.0, 2022-02-27 11:07:29.588
192.0, -3412.3067155249973, -6344.095628749804, -1589.6560656614383, -10445.216053154, -1006.7002185225748, 467.2632178381941, -5315.513052405483, -2928.6149655121526, -5000.152289885556, -8137.80076954374, -4101.455700571025, -2813.570536800687, -4726.477530774776, -3777.6459786469914, -11464.41089682709, -14550.44919853797, 0.013000000000000001, -0.109, 0.987, 192.0, 0.0, 0.0, 0.0, 0.0, 0.0, 0.0, 0.0, 0.0, 0.0, 1.645920449595736E9, 0.0, 2022-02-27 11:07:29.595
194.0, -3429.897538411324, -6411.061455137904, -1615.1370543404882, -10433.928422204068, -1008.4436545900887, 442.2069123037949, -5283.527706089939, -2788.0001411438157, -2390.273200306082, -7255.219787981486, -4068.419822266081, -2474.6063321359557, -4714.832271913561, -3633.209005976797, -10854.163569708297, -13390.147792118525, 0.0145, -0.1075, 0.9884999999999999, 192.0, 0.0, 64.0, 126.0, 88.0, 15.0, 120.0, 0.0, 0.0, 0.0, 1.645920449610713E9, 0.0, 2022-02-27 11:07:29.610
196.0, -3171.5337242524297, -6233.812121607319, -1509.3909513224307, -10310.390330599586, -799.1419195105934, 603.742969482299, -5314.261354715986, -2863.9066653140385, -4465.811486936986, -7775.277826223115, -4055.5899209487347, -2816.029228690771, -4693.888687358938, -3738.9104055059443, -11385.15161098857, -14196.554028577093, 0.0145, -0.1075, 0.9884999999999999, 192.0, 0.0, 0.0, 0.0, 0.0, 0.0, 0.0, 0.0, 0.0, 0.0, 1.645920449617249E9, 0.0, 2022-02-27 11:07:29.617
198.0, -3534.637812928893, -6433.614365293309, -1635.9465284283792, -10503.442347460074, -1107.17130984918, 391.35669366797134, -5280.018482210456, -2851.702612841441, -3576.435575060317, -7783.525619927123, -4090.3021800878264, -2574.205705428804, -4733.7194959782955, -3709.361399336028, -11090.041528945152, -13994.091927300922, 0.0145, -0.1075, 0.9884999999999999, 192.0, 0.0, 0.0, 0.0, 0.0, 0.0, 0.0, 0.0, 0.0, 0.0, 1.645920449625264E9, 0.0, 2022-02-27 11:07:29.625
200.0, -3207.6988467811166, -6280.884895430195, -1531.027439955168, -10317.431130103008, -823.1253413111378, 573.5904662120898, -5297.117566718765, -2797.253763348313, -2940.193169140002, -7261.299462473329, -4037.1273800286513, -2614.640011148454, -4689.775966379162, -3644.831913093557, -11030.407074738392, -13528.683904252519, 0.0145, -0.1075, 0.9884999999999999, 192.0, 0.0, 0.0, 0.0, 0.0, 0.0, 0.0, 0.0, 0.0, 0.0, 1.645920449633278E9, 0.0, 2022-02-27 11:07:29.633
202.0, -3377.482697663629, -6318.793454026396, -1570.6123793855168, -10427.759340734405, -993.9597241830497, 482.6635697679007, -5318.619944884771, -2911.8064536817615, -4992.955028170947, -8124.32266763719, -4077.964017148497, -2810.910679210506, -4710.3619230224995, -3765.687795363402, -11465.997870683417, -14545.889442669088, 0.0145, -0.1075, 0.9884999999999999, 192.0, 0.0, 0.0, 0.0, 0.0, 0.0, 0.0, 0.0, 0.0, 0.0, 1.645920449641601E9, 0.0, 2022-02-27 11:07:29.641
204.0, -3414.4748347371624, -6393.448280507122, -1599.759054155237, -10428.184023879056, -1006.8119772448513, 443.8385896490324, -5288.780366036936, -2798.7066267379078, -2383.724139180677, -7240.780561063357, -4049.934929601542, -2468.0572710105507, -4706.092739831536, -3623.061313994088, -10849.201482439219, -13391.243027596836, 0.01625, -0.10575000000000001, 0.98725, 192.0, 0.0, 72.0, 126.0, 96.0, 15.0, 104.0, 0.0, 0.0, 0.0, 1.64592044964791E9, 0.0, 2022-02-27 11:07:29.647
206.0, -3140.487151204008, -6210.722769584986, -1493.6553232258946, -10293.492411791374, -798.0466840322833, 606.2463648612935, -5317.994096040023, -2871.0815752841922, -4404.098320495882, -7732.72010478021, -4034.668688138567, -2804.69689425193, -4683.1822017648465, -3707.059169657132, -11378.91547428554, -14172.324737587542, 0.01625, -0.10575000000000001, 0.98725, 192.0, 0.0, 0.0, 0.0, 0.0, 0.0, 0.0, 0.0, 0.0, 0.0, 1.645920449655836E9, 0.0, 2022-02-27 11:07:29.655
208.0, -3505.446434670262, -6412.447263294132, -1625.8435399345803, -10479.369518681708, -1107.014847637993, 391.9601907682646, -5304.337180177829, -2851.4343919079774, -3593.445252590806, -7782.1174600264385, -4074.8571246692095, -2562.068708189572, -4726.298716819134, -3704.466367300316, -11094.511877836214, -13999.635159925838, 0.01625, -0.10575000000000001, 0.98725, 192.0, 0.0, 0.0, 0.0, 0.0, 0.0, 0.0, 0.0, 0.0, 0.0, 1.645920449662942E9, 0.0, 2022-02-27 11:07:29.662
210.0, -3181.3461400683095, -6252.766400905419, -1521.5503003061176, -10296.778118226304, -833.1165710826601, 563.4427742293805, -5307.622886612759, -2792.090510379137, -2901.9046308880606, -7240.355877918706, -4019.804778075788, -2593.092929493538, -4679.941198818827, -3640.7415438582357, -11023.142757790418, -13510.19901158798, 0.01625, -0.10575000000000001, 0.98725, 192.0, 0.0, 0.0, 0.0, 0.0, 0.0, 0.0, 0.0, 0.0, 0.0, 1.645920449670058E9, 0.0, 2022-02-27 11:07:29.670
212.0, -3341.406982112763, -6287.970398422528, -1553.4015361549302, -10407.039273624334, -988.9082299361504, 476.203915620317, -5304.180717966642, -2911.0911978591917, -4997.783004973293, -8106.351865095123, -4069.537409488846, -2794.571554013676, -4711.255992800712, -3775.075528034631, -11460.544045036322, -14541.508500755848, 0.01625, -0.10575000000000001, 0.98725, 192.0, 0.0, 0.0, 0.0, 0.0, 0.0, 0.0, 0.0, 0.0, 0.0, 1.645920449677618E9, 0.0, 2022-02-27 11:07:29.677
214.0, -3383.5847238999277, -6363.519294681465, -1582.928190580391, -10408.29097131383, -1005.2026516440692, 439.7482204137111, -5306.818223812369, -2801.9476296839275, -2373.1964675422273, -7235.282031927351, -4034.5569294162906, -2445.258491666137, -4703.5446409636315, -3628.470436152272, -10841.959517235699, -13398.663806755998, 0.015125, -0.105875, 0.990625, 192.0, 0.0, 56.0, 126.0, 88.0, 15.5, 8.0, 0.0, 0.0, 0.0, 1.645920449685469E9, 0.0, 2022-02-27 11:07:29.685
216.0, -3100.164604206634, -6177.441022091034, -1468.8448868805037, -10269.88896964657, -782.6463321025768, 616.4164085884581, -5313.970782038067, -2852.507275641832, -4345.469694789612, -7700.6677032313, -4015.4685396514583, -2769.9846351128385, -4670.39700393641, -3710.0319516696877, -11360.005898476351, -14153.057533867066, 0.015125, -0.105875, 0.990625, 192.0, 0.0, 0.0, 0.0, 0.0, 0.0, 0.0, 0.0, 0.0, 0.0, 1.645920449693588E9, 0.0, 2022-02-27 11:07:29.693
218.0, -3468.968387719201, -6376.4609547210885, -1596.6745134204048, -10463.991518496458, -1089.2005073071132, 404.23129847422825, -5266.965063448556, -2833.5753480881867, -3616.4451976353166, -7772.237988977193, -4046.157484788595, -2546.422487070857, -4711.5912689675415, -3694.9221724179, -11095.383595869971, -14020.645799713828, 0.015125, -0.105875, 0.990625, 192.0, 0.0, 0.0, 0.0, 0.0, 0.0, 0.0, 0.0, 0.0, 0.0, 1.645920449700177E9, 0.0, 2022-02-27 11:07:29.700
220.0, -3158.368546768254, -6233.834473351774, -1495.957552904791, -10285.80341169875, -823.6617831780652, 576.295027291182, -5291.417871882662, -2764.0167193432712, -2841.2643481808127, -7213.042046194321, -3993.988513229908, -2572.2834554056476, -4675.672015627863, -3623.5307006276494, -10998.980522034231, -13489.166020055536, 0.015125, -0.105875, 0.990625, 192.0, 0.0, 0.0, 0.0, 0.0, 0.0, 0.0, 0.0, 0.0, 0.0, 1.645920449708142E9, 0.0, 2022-02-27 11:07:29.708
222.0, -3299.6315717257944, -6263.092906843771, -1530.1110184325003, -10387.950883859503, -967.5176104924216, 505.9987909792413, -5314.7754448384585, -2889.3653022486333, -4997.760653228838, -8084.514210762288, -4043.251758009405, -2792.2246208458687, -4700.4377484843435, -3752.947301023877, -11462.689812504032, -14537.373428031617, 0.015125, -0.105875, 0.990625, 192.0, 0.0, 0.0, 0.0, 0.0, 0.0, 0.0, 0.0, 0.0, 0.0, 1.645920449716469E9, 0.0, 2022-02-27 11:07:29.716
224.0, -3375.672206362749, -6354.556245154888, -1574.8815625764803, -10402.993607877923, -1016.2891168939016, 448.3089385400938, -5276.732775775526, -2790.391777800534, -2396.9116684093083, -7247.821360566779, -4017.5025483968916, -2431.0874856814726, -4691.5194024466755, -3619.4179796478725, -10843.747656792124, -13417.729844776375, 0.0125625, -0.10593749999999999, 0.9913125, 192.0, 0.0, 40.0, 126.0, 88.0, 15.5, 0.0, 0.0, 0.0, 0.0, 1.64592044972988E9, 0.0, 2022-02-27 11:07:29.729
226.0, -3077.969321962514, -6160.498399793912, -1461.3794042324312, -10256.634385184572, -789.575372883722, 620.2832603792262, -5324.140825765232, -2856.932921043983, -4273.675891599166, -7672.638615684345, -4002.83980403421, -2751.4773907038443, -4671.44753592581, -3690.407120037928, -11340.939860455974, -14115.819527604524, 0.0125625, -0.10593749999999999, 0.9913125, 192.0, 0.0, 0.0, 0.0, 0.0, 0.0, 0.0, 0.0, 0.0, 0.0, 1.645920449737826E9, 0.0, 2022-02-27 11:07:29.737
228.0, -3460.4300213372735, -6371.208294774091, -1593.701731407849, -10461.219902183999, -1096.6436382107304, 405.59475488600197, -5285.248790412998, -2822.1312549270697, -3658.4217737223835, -7783.324454227025, -4038.1332085291397, -2538.845245700508, -4704.706931675307, -3681.2205530667966, -11106.984151242275, -14041.611736012905, 0.0125625, -0.10593749999999999, 0.9913125, 192.0, 0.0, 0.0, 0.0, 0.0, 0.0, 0.0, 0.0, 0.0, 0.0, 1.645920449745939E9, 0.0, 2022-02-27 11:07:29.745
230.0, -3146.991508840503, -6231.800464606341, -1490.7495964467046, -10277.734431950383, -829.1603123140708, 580.6759692044221, -5315.62481112776, -2792.5151935237877, -2810.307182110212, -7203.587258289726, -3989.227591660928, -2556.7713447536644, -4673.056861526592, -3610.700799310303, -10991.470335897247, -13481.47701996291, 0.0125625, -0.10593749999999999, 0.9913125, 192.0, 0.0, 0.0, 0.0, 0.0, 0.0, 0.0, 0.0, 0.0, 0.0, 1.645920449752542E9, 0.0, 2022-02-27 11:07:29.752
232.0, -3287.6286849532944, -6257.504970729944, -1529.3287073765646, -10373.086973796722, -965.1036220912483, 519.9462795193529, -5318.329372206852, -2863.1914094914687, -4981.265065820821, -8079.239199070836, -4026.5326531568353, -2773.73972818133, -4691.184126279846, -3734.149483936964, -11471.876379475163, -14537.351076287161, 0.0125625, -0.10593749999999999, 0.9913125, 192.0, 0.0, 0.0, 0.0, 0.0, 0.0, 0.0, 0.0, 0.0, 0.0, 1.645920449760406E9, 0.0, 2022-02-27 11:07:29.760
234.0, -3358.7966392989924, -6346.599024128798, -1570.9700072968017, -10390.834258894236, -1005.7167417665413, 474.460479552803, -5280.0855374438215, -2779.975864884361, -2369.240208773638, -7238.187758706541, -4006.550193613791, -2420.537462298568, -4695.877992615461, -3596.3286276255403, -10834.069351442975, -13401.949513190928, 0.01028125, -0.10696875, 0.99065625, 192.0, 0.0, 32.0, 126.0, 80.0, 15.0, 120.0, 0.0, 0.0, 0.0, 1.645920449768486E9, 0.0, 2022-02-27 11:07:29.768
236.0, -3079.6457027966626, -6163.672347506565, -1466.3638432459645, -10255.98618459537, -760.8980847475631, 641.2044931893937, -5299.062168486377, -2821.5277578267765, -4257.783801291443, -7667.430659226258, -4001.7445685559, -2754.4501727163997, -4679.203591251801, -3675.3420442750507, -11338.302354610249, -14104.241323976676, 0.01028125, -0.10696875, 0.99065625, 192.0, 0.0, 0.0, 0.0, 0.0, 0.0, 0.0, 0.0, 0.0, 0.0, 1.645920449775558E9, 0.0, 2022-02-27 11:07:29.775
238.0, -3460.9441114597457, -6372.25882676349, -1592.047702318156, -10455.810780025815, -1094.0284841094594, 412.18851950031757, -5266.987415193012, -2836.32461265619, -3719.531443063193, -7804.625666692933, -4050.1807987905504, -2554.4467633303125, -4720.420208027388, -3684.1039281015314, -11118.33883742557, -14062.823541500991, 0.01028125, -0.10696875, 0.99065625, 192.0, 0.0, 0.0, 0.0, 0.0, 0.0, 0.0, 0.0, 0.0, 0.0, 1.64592044978218E9, 0.0, 2022-02-27 11:07:29.782
240.0, -3167.823334672849, -6246.150284546648, -1498.639762239428, -10286.406908799043, -810.8542336051743, 571.7576231667547, -5262.89704595769, -2772.5997892141095, -2782.568667241176, -7207.14118565812, -4002.102196467185, -2562.806315756597, -4681.394062208422, -3621.474340137761, -10978.238103179707, -13470.301147735257, 0.01028125, -0.10696875, 0.99065625, 192.0, 0.0, 0.0, 0.0, 0.0, 0.0, 0.0, 0.0, 0.0, 0.0, 1.645920449790264E9, 0.0, 2022-02-27 11:07:29.790
242.0, -3298.2010600806548, -6263.4281830106, -1526.0206491971792, -10378.920779099559, -969.3057500488461, 522.8520062985428, -5293.742453306014, -2891.7792906498066, -5008.109510911645, -8094.013702155794, -4048.5938249342234, -2793.476318535366, -4706.852699143016, -3760.0104522717543, -11453.92792867755, -14545.196538590973, 0.01028125, -0.10696875, 0.99065625, 192.0, 0.0, 0.0, 0.0, 0.0, 0.0, 0.0, 0.0, 0.0, 0.0, 1.645920449798135E9, 0.0, 2022-02-27 11:07:29.798
244.0, -3395.9452385837126, -6364.703937137597, -1583.0175975582122, -10401.943075888525, -991.3445700817789, 459.70832821230033, -5271.524819317439, -2762.474448975855, -2405.0700551354953, -7265.970977064488, -4035.6298131501453, -2433.1214944269054, -4712.194766067835, -3610.6560958213922, -10837.466816600183, -13415.874649986585, 0.010140625, -0.10648437499999999, 0.990328125, 192.0, 0.0, 40.0, 126.0, 88.0, 15.0, 120.0, 0.0, 0.0, 0.0, 1.645920449805296E9, 0.0, 2022-02-27 11:07:29.805
246.0, -3105.9313542761033, -6180.726728525964, -1467.928465357836, -10257.707268918428, -789.4189106725348, 625.8041412596872, -5288.176868936643, -2840.862016780617, -4236.9519754590965, -7670.738717405644, -4029.0136967913745, -2763.055594331693, -4689.485393701243, -3694.5421927621596, -11325.785377715276, -14084.638844089372, 0.010140625, -0.10648437499999999, 0.990328125, 192.0, 0.0, 0.0, 0.0, 0.0, 0.0, 0.0, 0.0, 0.0, 0.0, 1.645920449812775E9, 0.0, 2022-02-27 11:07:29.812
