%OpenBCI Raw EEG Data
%Number of channels = 16
%Sample Rate = 125 Hz
%Board = OpenBCI_GUI$BoardCytonSerialDaisy
Sample Index, EXG Channel 0, EXG Channel 1, EXG Channel 2, EXG Channel 3, EXG Channel 4, EXG Channel 5, EXG Channel 6, EXG Channel 7, EXG Channel 8, EXG Channel 9, EXG Channel 10, EXG Channel 11, EXG Channel 12, EXG Channel 13, EXG Channel 14, EXG Channel 15, Accel Channel 0, Accel Channel 1, Accel Channel 2, Other, Other, Other, Other, Other, Other, Other, Analog Channel 0, Analog Channel 1, Analog Channel 2, Timestamp, Other, Timestamp (Formatted)
188.0, -282.6378086373578, -2745.576530167643, -2355.359775466892, -9307.802833056789, -38.86968360777898, 621.0432196907068, -4660.673995098352, -1723.6100701820935, -3027.2979172823334, -4469.566580005477, -3736.8763967605114, -2472.214695479238, -3011.338771741244, -1777.7683469973026, -7682.428679755769, -15280.725393381763, 0.0, 0.0, 0.0, 192.0, 0.0, 0.0, 0.0, 0.0, 0.0, 0.0, 0.0, 0.0, 0.0, 1.645923231913456E9, 0.0, 2022-02-27 11:53:51.913
190.0, 174.92475210723308, -2373.3752814978698, -1972.6755586475801, -8878.381118581428, 410.33332471052705, 938.5721014227988, -4337.9148051637185, -1315.2436989836335, -789.0836345057053, -3520.176234266309, -3574.80389771508, -2257.414431263737, -2891.5781249497086, -1585.8786208484914, -7253.72222110298, -14225.611296368992, 0.0, 0.0, 0.0, 192.0, 0.0, 0.0, 0.0, 0.0, 0.0, 0.0, 0.0, 0.0, 0.0, 1.645923231913458E9, 0.0, 2022-02-27 11:53:51.913
0.0, -84.35548357432886, -1307.0853122574465, -1092.7991381644176, -4556.246645003158, 87.82000396490145, 420.2351475042281, -2225.406733203737, -695.0498455822284, -1892.3657408196618, -2263.270588311027, -1785.882030234579, -1225.1438170842907, -1420.9450985127805, -823.7064866669758, -3861.554427332214, -7722.639468030867, 0.01, -0.106, 0.994, 192.0, 0.0, 40.0, 126.0, 88.0, 15.5, 8.0, 0.0, 0.0, 0.0, 1.645923231998888E9, 0.0, 2022-02-27 11:53:51.998
2.0, 285.61059064991366, -2264.0305476225076, -1869.6116649641592, -8741.007297159113, 585.9956843847852, 1045.793419574907, -4309.66220017221, -1257.5091430555754, -1351.6546907013287, -3487.7438530616587, -3492.638885097371, -2206.4301021611814, -2766.698928677908, -1488.3579597899866, -7285.551105207337, -14277.869674905502, 0.01, -0.106, 0.994, 192.0, 0.0, 0.0, 0.0, 0.0, 0.0, 0.0, 0.0, 0.0, 0.0, 1.645923232006524E9, 0.0, 2022-02-27 11:53:52.006
4.0, -226.15495039879687, -2677.090785156582, -2296.820556738443, -9239.205329323451, 79.61691374980376, 691.1829937914603, -4642.166750689358, -1715.1611107779875, -3416.1288638268547, -4415.318896212447, -3659.494657456238, -2402.9019359233303, -2867.4605926824324, -1669.0271102222337, -7711.932982436774, -15309.134460584459, 0.01, -0.106, 0.994, 192.0, 0.0, 0.0, 0.0, 0.0, 0.0, 0.0, 0.0, 0.0, 0.0, 1.645923232013092E9, 0.0, 2022-02-27 11:53:52.013
6.0, -2.123415723254171, -2477.9590938042516, -2064.2059521920623, -8975.030061606176, 328.727105704201, 926.2562902279246, -4382.618294074332, -1352.258187801622, -841.8337514202299, -3581.75529024068, -3687.0096548807214, -2259.4484400091696, -2970.211561943479, -1657.9629967168567, -7311.143852608664, -14300.31082633863, 0.01, -0.106, 0.994, 192.0, 0.0, 0.0, 0.0, 0.0, 0.0, 0.0, 0.0, 0.0, 0.0, 1.645923232021097E9, 0.0, 2022-02-27 11:53:52.021
8.0, 209.25703159058472, -2319.664039571767, -1967.6240644006807, -8853.973013636234, 497.63923855295644, 928.6479268846425, -4454.389745520323, -1473.7846224051266, -2738.513378919766, -3903.5980586526466, -3454.6632712678042, -2276.4134140507476, -2687.3949393504786, -1481.3618637754755, -7490.695415818145, -14828.16962339516, 0.016, -0.108, 0.992, 192.0, 0.0, 64.0, 126.0, 80.0, 15.5, 0.0, 0.0, 0.0, 0.0, 1.645923232029101E9, 0.0, 2022-02-27 11:53:52.029
10.0, -307.0682653270084, -2734.221843984347, -2311.013914467563, -9258.718402232935, 31.73947712653603, 730.2314913548818, -4565.187342785281, -1583.4646324473183, -2121.314659275372, -4208.095873367295, -3836.1181421420747, -2421.1856628877717, -3076.985845206481, -1833.2677284798299, -7598.810803748465, -14966.906901229251, 0.016, -0.108, 0.992, 192.0, 0.0, 0.0, 0.0, 0.0, 0.0, 0.0, 0.0, 0.0, 0.0, 1.645923232036176E9, 0.0, 2022-02-27 11:53:52.036
12.0, 277.65336962382435, -2277.0392628954964, -1871.3774527761286, -8745.611756516904, 585.6380564735003, 1035.2880996809126, -4297.055816299417, -1260.0795936679356, -1314.5954983944296, -3486.35804490543, -3492.9071060308347, -2200.0375032469638, -2765.447230988411, -1490.4590237687855, -7274.732860890968, -14274.382802770473, 0.016, -0.108, 0.992, 192.0, 0.0, 0.0, 0.0, 0.0, 0.0, 0.0, 0.0, 0.0, 0.0, 1.645923232043678E9, 0.0, 2022-02-27 11:53:52.043
14.0, -218.9800404286433, -2678.5660002906325, -2289.891515957298, -9233.617393209624, 97.96769594761085, 680.4094529640023, -4692.413472224888, -1715.1834625224428, -3419.5039772396062, -4404.858279807363, -3647.916453828389, -2398.5209940100904, -2862.2749879688013, -1676.8055172926806, -7710.010732413618, -15310.967303629794, 0.016, -0.108, 0.992, 192.0, 0.0, 0.0, 0.0, 0.0, 0.0, 0.0, 0.0, 0.0, 0.0, 1.645923232051742E9, 0.0, 2022-02-27 11:53:52.051
16.0, -28.14084626923159, -2509.385646508413, -2081.1038710002745, -8991.9726839033, 309.90693687283243, 912.4652638990002, -4407.495785653089, -1328.319469489988, -867.828830221752, -3615.7075900682917, -3700.0630736426206, -2267.83034417991, -2976.090070735225, -1685.3215319301526, -7321.7385794804795, -14316.247620135264, 0.016, -0.107, 0.989, 192.0, 0.0, 64.0, 126.0, 88.0, 15.0, 104.0, 0.0, 0.0, 0.0, 1.645923232065894E9, 0.0, 2022-02-27 11:53:52.065
18.0, 201.09864486439764, -2345.1897317397274, -1965.5677039107925, -8862.019641640145, 501.3719798769927, 915.3039354448242, -4454.456800753689, -1474.030491594135, -2716.094579231093, -3907.979000565887, -3465.8838469843686, -2279.8108792079543, -2692.647599297476, -1488.5591254900844, -7485.487459360059, -14821.911134947675, 0.016, -0.107, 0.989, 192.0, 0.0, 0.0, 0.0, 0.0, 0.0, 0.0, 0.0, 0.0, 0.0, 1.645923232073292E9, 0.0, 2022-02-27 11:53:52.073
20.0, -324.52497774660327, -2754.2713587607573, -2317.898251759798, -9274.40932684056, 25.235119490041672, 713.3112208022143, -4600.81602344704, -1596.0263128312008, -2177.8198692583883, -4234.582690546834, -3842.823665478667, -2435.0884479389724, -3081.6350080531847, -1845.0918012966874, -7605.426920107237, -14996.992349266095, 0.016, -0.107, 0.989, 192.0, 0.0, 0.0, 0.0, 0.0, 0.0, 0.0, 0.0, 0.0, 0.0, 1.645923232081455E9, 0.0, 2022-02-27 11:53:52.081
22.0, 277.7651283461009, -2273.1053558713625, -1878.0829761127206, -8749.523311796584, 585.2804285622154, 1037.210349704069, -4352.935177437685, -1258.4479163226983, -1302.033818010547, -3494.5611351205275, -3502.5183561466165, -2210.408712674226, -2773.471507247866, -1511.1790908788553, -7284.545276706848, -14280.015442373211, 0.016, -0.107, 0.989, 192.0, 0.0, 0.0, 0.0, 0.0, 0.0, 0.0, 0.0, 0.0, 0.0, 1.645923232089414E9, 0.0, 2022-02-27 11:53:52.089
24.0, -223.47274106416, -2676.040253167183, -2290.4279578242254, -9232.768026920323, 99.64407678175888, 696.3015432717256, -4638.121084942947, -1692.854069811591, -3442.8168467064916, -4395.828175047419, -3654.689032398347, -2415.0612849070176, -2866.2088949929353, -1676.7384620593145, -7714.995171427152, -15310.676730951875, 0.016, -0.107, 0.989, 192.0, 0.0, 0.0, 0.0, 0.0, 0.0, 0.0, 0.0, 0.0, 0.0, 1.645923232095936E9, 0.0, 2022-02-27 11:53:52.095
26.0, -48.36917500128448, -2524.383667037924, -2093.218516495051, -9005.897820698956, 293.50075644263705, 897.601353836221, -4385.367558642335, -1345.485609231664, -901.9822957494612, -3633.790151332635, -3709.11553014702, -2287.7904519784993, -2993.0326930323477, -1704.275811228253, -7329.248765617463, -14336.565355845138, 0.015, -0.10350000000000001, 0.9875, 192.0, 0.0, 56.0, 126.0, 112.0, 15.0, 104.0, 0.0, 0.0, 0.0, 1.645923232103841E9, 0.0, 2022-02-27 11:53:52.103
28.0, 209.05586589048696, -2331.2869466885268, -1964.4948201769378, -8846.820455410536, 507.71987530229995, 930.5478251633436, -4472.226437595658, -1453.0198518061463, -2681.0470439251717, -3900.558221406725, -3460.6535387818267, -2280.1908588636948, -2698.861384256051, -1487.061558611579, -7482.0452907139415, -14797.748899191487, 0.015, -0.10350000000000001, 0.9875, 192.0, 0.0, 0.0, 0.0, 0.0, 0.0, 0.0, 0.0, 0.0, 0.0, 1.645923232112035E9, 0.0, 2022-02-27 11:53:52.112
30.0, -330.3811347938937, -2758.9205216074615, -2328.8282547984427, -9279.706690276467, 16.003849029999856, 706.6727526989881, -4597.3067995675565, -1586.2809522486868, -2233.8109891189324, -4249.0442692094175, -3838.308613098695, -2431.042782192562, -3083.4231476096093, -1836.8216558482238, -7625.409379650281, -15008.861125571862, 0.015, -0.10350000000000001, 0.9875, 192.0, 0.0, 0.0, 0.0, 0.0, 0.0, 0.0, 0.0, 0.0, 0.0, 1.645923232118077E9, 0.0, 2022-02-27 11:53:52.118
32.0, 265.35991017340547, -2280.6378937528007, -1877.8818104126228, -8756.184131644266, 580.3630447820478, 1026.6826780656193, -4324.95079337964, -1265.913398970771, -1267.165096660268, -3482.3347309034743, -3503.7477020916585, -2208.464110906614, -2777.5171729942767, -1512.117864145978, -7282.757137150424, -14270.940634124356, 0.015, -0.10350000000000001, 0.9875, 192.0, 0.0, 0.0, 0.0, 0.0, 0.0, 0.0, 0.0, 0.0, 0.0, 1.645923232125557E9, 0.0, 2022-02-27 11:53:52.125
34.0, -202.64091523181384, -2666.2054856068476, -2277.955684418164, -9225.235489038883, 104.60616405083705, 684.5221739437787, -4700.4377484843435, -1691.691779099915, -3443.733268229159, -4396.699893081176, -3640.2945089691293, -2403.7289504681767, -2847.9475197729494, -1670.211752678365, -7703.23815384366, -15310.45321350732, 0.015, -0.10350000000000001, 0.9875, 192.0, 0.0, 0.0, 0.0, 0.0, 0.0, 0.0, 0.0, 0.0, 0.0, 1.645923232133765E9, 0.0, 2022-02-27 11:53:52.133
36.0, -50.13496281325374, -2526.104751360983, -2095.811318851867, -9010.189355634375, 288.4269104512823, 894.8744410126735, -4449.137085573326, -1325.8607775999044, -902.3622754052014, -3637.9699275457774, -3711.529518548193, -2274.8487919388763, -2989.367006941677, -1704.9463635619122, -7338.368277355227, -14345.953088516366, 0.014499999999999999, -0.10275000000000001, 0.98675, 192.0, 0.0, 56.0, 126.0, 104.0, 15.0, 104.0, 0.0, 0.0, 0.0, 1.645923232141602E9, 0.0, 2022-02-27 11:53:52.141
38.0, 209.5029007795931, -2343.625109627856, -1958.3480904517282, -8846.619289710437, 514.1571777054284, 921.5400721478549, -4478.507277787599, -1425.2813369371102, -2660.9528256598505, -3880.1734304634847, -3462.9781202051786, -2279.5203065300357, -2699.3084191451576, -1493.7894336926263, -7477.217313911595, -14790.30576828787, 0.014499999999999999, -0.10275000000000001, 0.98675, 192.0, 0.0, 0.0, 0.0, 0.0, 0.0, 0.0, 0.0, 0.0, 0.0, 1.645923232148187E9, 0.0, 2022-02-27 11:53:52.148
40.0, -343.32279483351647, -2776.1984200714137, -2332.4492374002025, -9286.613379313158, 8.247793704008306, 691.9206013584854, -4635.640041308408, -1575.1944869988547, -2287.5445827894905, -4268.51263862999, -3846.1540754025077, -2438.2847473960815, -3083.3113888873327, -1861.7438509158912, -7630.818501808465, -15030.162338037771, 0.014499999999999999, -0.10275000000000001, 0.98675, 192.0, 0.0, 0.0, 0.0, 0.0, 0.0, 0.0, 0.0, 0.0, 0.0, 1.645923232156222E9, 0.0, 2022-02-27 11:53:52.156
42.0, 237.7555057711012, -2317.920603504253, -1891.2034501079859, -8767.82939050548, 567.0190533422295, 1020.5583000848652, -4347.928386679696, -1220.7405234265952, -1259.4984483120977, -3501.1101962459325, -3519.192757510276, -2221.2940122239606, -2778.83592591714, -1516.1635298923886, -7287.674520930591, -14260.189445041353, 0.014499999999999999, -0.10275000000000001, 0.98675, 192.0, 0.0, 0.0, 0.0, 0.0, 0.0, 0.0, 0.0, 0.0, 0.0, 1.645923232164236E9, 0.0, 2022-02-27 11:53:52.164
44.0, -231.407610345794, -2699.286067400702, -2284.8847251993093, -9224.16260530503, 107.89187048576719, 692.8817263700637, -4698.582553694553, -1679.1971539493984, -3468.3648906189073, -4415.408303190267, -3653.2138172642967, -2421.856215221431, -2852.5519791307424, -1669.1612206889656, -7709.653104502333, -15303.300655281622, 0.014499999999999999, -0.10275000000000001, 0.98675, 192.0, 0.0, 0.0, 0.0, 0.0, 0.0, 0.0, 0.0, 0.0, 0.0, 1.645923232171394E9, 0.0, 2022-02-27 11:53:52.171
46.0, -97.58771629187063, -2577.6255223304656, -2104.5284991894364, -9014.860870225533, 280.35793070291646, 891.2087549220032, -4441.559844202977, -1322.195091509234, -929.8549210852291, -3674.8726576414897, -3733.7024490478575, -2303.6154870528567, -3000.11819602468, -1705.3933984510184, -7350.080591449809, -14350.043457751688, 0.01525, -0.10237500000000001, 0.985375, 192.0, 0.0, 64.0, 126.0, 104.0, 15.0, 96.0, 0.0, 0.0, 0.0, 1.645923232185826E9, 0.0, 2022-02-27 11:53:52.185
48.0, 154.2046849971634, -2406.500566780635, -1962.0137765423985, -8844.205301309265, 518.0240294961965, 935.1746362655922, -4454.16622807577, -1412.9208222533252, -2662.092764627071, -3904.134500519574, -3484.324036159997, -2295.8370799824097, -2698.347294133579, -1490.5484307466068, -7479.564247079403, -14782.683823428612, 0.01525, -0.10237500000000001, 0.985375, 192.0, 0.0, 0.0, 0.0, 0.0, 0.0, 0.0, 0.0, 0.0, 0.0, 1.645923232193977E9, 0.0, 2022-02-27 11:53:52.193
50.0, -441.2234355477614, -2875.8424968531726, -2351.425868442758, -9300.851440531187, 7.286668692430102, 697.2403165388486, -4609.354389828967, -1570.2323997297765, -2390.943752639741, -4336.886624918774, -3877.424165895482, -2469.10780299995, -3082.7078917870394, -1856.5358944578047, -7637.635783867334, -15050.189501069726, 0.01525, -0.10237500000000001, 0.985375, 192.0, 0.0, 0.0, 0.0, 0.0, 0.0, 0.0, 0.0, 0.0, 0.0, 1.645923232201026E9, 0.0, 2022-02-27 11:53:52.201
52.0, 102.50510007203819, -2441.9057299978413, -1904.3015723587957, -8776.9712539877, 574.1939633123832, 1034.8410647918063, -4311.584450195366, -1217.298354780478, -1253.1729046312457, -3519.7068476327477, -3567.249008089186, -2257.347376030371, -2796.4938040368324, -1526.311221875098, -7280.499610960438, -14250.891119347945, 0.01525, -0.10237500000000001, 0.985375, 192.0, 0.0, 0.0, 0.0, 0.0, 0.0, 0.0, 0.0, 0.0, 0.0, 1.645923232208378E9, 0.0, 2022-02-27 11:53:52.208
54.0, -369.3178736350386, -2840.482037124877, -2277.3968908067814, -9211.936201087976, 135.1609987212418, 706.5162904878009, -4659.645814853408, -1658.6111973060606, -3517.7175423762255, -4430.719248142153, -3685.892067657956, -2457.887227283386, -2843.499522626343, -1662.7686217747478, -7697.605514240923, -15293.287073765645, 0.01525, -0.10237500000000001, 0.985375, 192.0, 0.0, 0.0, 0.0, 0.0, 0.0, 0.0, 0.0, 0.0, 0.0, 1.645923232216705E9, 0.0, 2022-02-27 11:53:52.216
56.0, -329.64352722686857, -2787.195478343425, -2142.6605752301903, -9048.589652608593, 263.3929566613384, 895.2991241573244, -4406.4899571526, -1312.3826756933543, -1050.2637684659683, -3753.2602254462513, -3805.5186039827595, -2359.1595720242944, -3018.6477921781293, -1725.398209738518, -7356.853170019766, -14376.55262667568, 0.014624999999999999, -0.10218750000000001, 0.9866874999999999, 192.0, 0.0, 56.0, 126.0, 104.0, 15.0, 112.0, 0.0, 0.0, 0.0, 1.645923232223597E9, 0.0, 2022-02-27 11:53:52.223
58.0, -48.12330581227611, -2576.2397141742367, -1970.619198157692, -8846.75340017717, 535.0337070266852, 949.4126974836228, -4412.279058966525, -1372.4418130447643, -2668.284197841191, -3920.6077361831353, -3545.3666502674405, -2344.8768073173533, -2704.6951895588863, -1483.1500033319, -7456.139618890241, -14741.467206653024, 0.014624999999999999, -0.10218750000000001, 0.9866874999999999, 192.0, 0.0, 0.0, 0.0, 0.0, 0.0, 0.0, 0.0, 0.0, 0.0, 1.6459232322312E9, 0.0, 2022-02-27 11:53:52.231
60.0, -625.7370860263212, -3036.3503737867327, -2366.490944205635, -9308.853365046187, 9.96887802706695, 693.6416856815441, -4616.462244565755, -1559.2576932022207, -2502.6801231718214, -4384.674654564221, -3930.5989659546576, -2518.460454757268, -3088.4746418565087, -1858.100516569676, -7642.329650202948, -15062.706477964697, 0.014624999999999999, -0.10218750000000001, 0.9866874999999999, 192.0, 0.0, 0.0, 0.0, 0.0, 0.0, 0.0, 0.0, 0.0, 0.0, 1.645923232238206E9, 0.0, 2022-02-27 11:53:52.238
62.0, -50.336128513351504, -2574.4068711289015, -1923.1440929346197, -8789.599989604949, 565.5885416970899, 1026.2579949209685, -4315.160729308215, -1190.2974474784671, -1295.4847568851421, -3557.570702740038, -3615.3276104125516, -2299.2568968840715, -2810.910679210506, -1544.863169773003, -7275.470468457994, -14245.079665789566, 0.014624999999999999, -0.10218750000000001, 0.9866874999999999, 192.0, 0.0, 0.0, 0.0, 0.0, 0.0, 0.0, 0.0, 0.0, 0.0, 1.645923232246402E9, 0.0, 2022-02-27 11:53:52.246
64.0, -472.4488225518254, -2916.8132444397506, -2297.2899433720045, -9221.748616903857, 126.73439106159104, 712.6853719574657, -4692.346416991522, -1637.5782057736167, -3574.4239180593395, -4453.696841442209, -3725.4099518549388, -2479.657826382855, -2858.3410809446673, -1661.3604618740633, -7699.907743919819, -15284.346375983523, 0.014624999999999999, -0.10218750000000001, 0.9866874999999999, 192.0, 0.0, 0.0, 0.0, 0.0, 0.0, 0.0, 0.0, 0.0, 0.0, 1.645923232253379E9, 0.0, 2022-02-27 11:53:52.253
66.0, -327.6318702258909, -2778.0759666056597, -2134.9492233931096, -9039.246623426274, 269.71850034219034, 893.7568537899082, -4418.090512524905, -1321.1892630087452, -1050.8002103328956, -3754.26605394674, -3819.555499500692, -2362.2217610146718, -3027.052048093325, -1734.0930383316324, -7356.36143164175, -14367.790742849202, 0.014312499999999999, -0.10209375000000001, 0.98634375, 192.0, 0.0, 56.0, 126.0, 104.0, 15.0, 104.0, 0.0, 0.0, 0.0, 1.645923232260772E9, 0.0, 2022-02-27 11:53:52.260
68.0, 2.9504302681005323, -2537.459437544279, -1956.582302639759, -8835.577527949516, 533.6926023593668, 953.1007353187484, -4460.111792100882, -1393.2736388771104, -2654.2473023232583, -3916.3162012477164, -3539.0411065865883, -2332.7845135670323, -2706.8856605155065, -1481.5183259866628, -7459.492380558537, -14743.948250287563, 0.014312499999999999, -0.10209375000000001, 0.98634375, 192.0, 0.0, 0.0, 0.0, 0.0, 0.0, 0.0, 0.0, 0.0, 0.0, 1.645923232268923E9, 0.0, 2022-02-27 11:53:52.268
70.0, -551.0152043122297, -2963.1037072066915, -2360.008938313596, -9306.238210944917, -2.212822701075399, 688.4560809679128, -4620.686724267808, -1570.9476555523463, -2482.787070606598, -4366.748555511064, -3905.520308675803, -2486.944495075285, -3081.9032289866486, -1844.4659524519388, -7647.962289805686, -15072.116562380383, 0.014312499999999999, -0.10209375000000001, 0.98634375, 192.0, 0.0, 0.0, 0.0, 0.0, 0.0, 0.0, 0.0, 0.0, 0.0, 1.64592323227688E9, 0.0, 2022-02-27 11:53:52.276
72.0, 40.300195252918634, -2492.8677073559415, -1916.7961975093124, -8787.320111670508, 548.0424222996738, 1006.8790324782173, -4311.115063561805, -1202.814424373439, -1260.0125384345697, -3527.1499785363653, -3590.159546155876, -2270.7807744480106, -2809.8154437321955, -1537.1294661914667, -7277.884456859167, -14240.251688987219, 0.014312499999999999, -0.10209375000000001, 0.98634375, 192.0, 0.0, 0.0, 0.0, 0.0, 0.0, 0.0, 0.0, 0.0, 0.0, 1.645923232283669E9, 0.0, 2022-02-27 11:53:52.283
74.0, -359.70662351925654, -2827.3839148740667, -2277.8439256958873, -9213.456119710938, 137.0161935110323, 688.7019501569213, -4653.879064783939, -1647.5470838006836, -3530.703905904759, -4427.5453004295, -3685.3556257910286, -2449.10299171245, -2837.7774760457846, -1667.7307090438258, -7692.6657787163, -15290.135477797447, 0.014312499999999999, -0.10209375000000001, 0.98634375, 192.0, 0.0, 0.0, 0.0, 0.0, 0.0, 0.0, 0.0, 0.0, 0.0, 1.645923232291568E9, 0.0, 2022-02-27 11:53:52.291
76.0, -245.6456715638246, -2713.3453146630904, -2135.4633135155814, -9053.194111966386, 257.827372291967, 869.5275628003553, -4415.832986334919, -1336.45550447172, -1031.9353380126165, -3764.4137459294498, -3798.500156223793, -2351.828199842954, -3025.3756672591767, -1740.4409337569398, -7360.094172965786, -14386.745022147301, 0.014156249999999999, -0.10304687500000001, 0.9881718749999999, 192.0, 0.0, 56.0, 126.0, 96.0, 15.0, 120.0, 0.0, 0.0, 0.0, 1.645923232300134E9, 0.0, 2022-02-27 11:53:52.300
78.0, 106.12608267379794, -2448.6783085677994, -1943.6853460890468, -8829.721370902225, 557.7877828821878, 970.825668671807, -4446.365469260868, -1375.0793188904904, -2578.6313508309545, -3884.330854932172, -3505.804062581547, -2312.8691092573536, -2702.124738946526, -1493.2976953146097, -7450.104647887308, -14731.274811181405, 0.014156249999999999, -0.10304687500000001, 0.9881718749999999, 192.0, 0.0, 0.0, 0.0, 0.0, 0.0, 0.0, 0.0, 0.0, 0.0, 1.645923232313138E9, 0.0, 2022-02-27 11:53:52.313
80.0, -464.1563253589065, -2880.5140114443316, -2356.5220661785684, -9307.735777823422, -8.13603498173177, 696.3685985050915, -4665.859599811984, -1580.0671672901115, -2495.2816957571144, -4335.232595829081, -3875.2783984277726, -2468.817230322031, -3070.146211403157, -1830.4514086784613, -7653.2149497526825, -15089.282702122058, 0.014156249999999999, -0.10304687500000001, 0.9881718749999999, 192.0, 0.0, 0.0, 0.0, 0.0, 0.0, 0.0, 0.0, 0.0, 0.0, 1.645923232321189E9, 0.0, 2022-02-27 11:53:52.321
82.0, 115.8490915118565, -2429.5452153140563, -1912.325848618251, -8786.940132014768, 548.4671054443247, 998.3853695852006, -4318.692304932154, -1216.940726869193, -1197.226488259612, -3503.3677224359185, -3562.3539760534736, -2243.1540183012507, -2795.5550307697094, -1532.7485242782266, -7271.983596322965, -14240.542261665138, 0.014156249999999999, -0.10304687500000001, 0.9881718749999999, 192.0, 0.0, 0.0, 0.0, 0.0, 0.0, 0.0, 0.0, 0.0, 0.0, 1.645923232329172E9, 0.0, 2022-02-27 11:53:52.329
84.0, -273.80886957751153, -2748.728126135841, -2271.0713471259296, -9205.387139962571, 171.79550788349007, 706.1139590876054, -4659.601111364497, -1660.3769851180298, -3507.793367838069, -4403.517175140045, -3653.5043899422158, -2427.019468190607, -2831.2284149203797, -1636.4829702953066, -7682.51808673359, -15285.240445761734, 0.014156249999999999, -0.10304687500000001, 0.9881718749999999, 192.0, 0.0, 0.0, 0.0, 0.0, 0.0, 0.0, 0.0, 0.0, 0.0, 1.645923232336319E9, 0.0, 2022-02-27 11:53:52.336
86.0, -181.85379288837825, -2647.3182615421133, -2136.826769927355, -9055.250472456273, 253.13350595635248, 884.1679554185815, -4434.049658065994, -1343.6304144418734, -1020.8265210183289, -3737.748114794268, -3767.7441558532905, -2338.2606909585825, -3031.5447487288416, -1756.0871548756547, -7375.4498214065825, -14410.057891614188, 0.014, -0.10400000000000001, 0.99, 192.0, 0.0, 56.0, 126.0, 96.0, 15.0, 120.0, 0.0, 0.0, 0.0, 1.645923232343789E9, 0.0, 2022-02-27 11:53:52.343
88.0, 161.89368508978905, -2399.727988210677, -1933.2023779395079, -8816.735007373692, 529.8481023130539, 927.6420983841538, -4429.6016609193875, -1386.9257434518033, -2527.4011525393908, -3860.14626743153, -3479.898390757846, -2293.6913125147003, -2693.2063929088586, -1494.1023581150007, -7435.307793057895, -14718.958999986531, 0.014, -0.10400000000000001, 0.99, 192.0, 0.0, 0.0, 0.0, 0.0, 0.0, 0.0, 0.0, 0.0, 0.0, 1.645923232351841E9, 0.0, 2022-02-27 11:53:52.351
90.0, -424.3925719729152, -2858.251673966846, -2356.8796940898533, -9301.074957975741, -10.214747216075327, 667.3560342021029, -4626.274660381635, -1573.5181061647065, -2531.4468182858013, -4371.218904402126, -3855.4747528403705, -2451.9193115138187, -3067.911036957626, -1845.4047257190616, -7648.297565972515, -15101.531458083566, 0.014, -0.10400000000000001, 0.99, 192.0, 0.0, 0.0, 0.0, 0.0, 0.0, 0.0, 0.0, 0.0, 0.0, 1.645923232358817E9, 0.0, 2022-02-27 11:53:52.358
92.0, 155.56814140893715, -2385.914610137297, -1912.5493660628042, -8780.50282961164, 526.5176923892132, 1017.7196285390412, -4332.349220794346, -1202.7920726289838, -1165.7999355554505, -3489.7555100626364, -3549.9934613696887, -2226.5466721709577, -2798.907792438006, -1526.7806085086595, -7267.222674753985, -14224.158432979399, 0.014, -0.10400000000000001, 0.99, 192.0, 0.0, 0.0, 0.0, 0.0, 0.0, 0.0, 0.0, 0.0, 0.0, 1.645923232365409E9, 0.0, 2022-02-27 11:53:52.365
94.0, -212.16275836977465, -2694.3016283871684, -2251.9829573610973, -9177.112183226607, 137.7090975891468, 703.6999706864323, -4646.368878646956, -1640.1710081304323, -3482.3347309034743, -4363.082869420394, -3625.654116350903, -2410.5238807825904, -2813.279964122768, -1634.8959964389799, -7676.9301506197635, -15264.945061796316, 0.014, -0.10400000000000001, 0.99, 192.0, 0.0, 0.0, 0.0, 0.0, 0.0, 0.0, 0.0, 0.0, 0.0, 1.645923232374202E9, 0.0, 2022-02-27 11:53:52.374
96.0, -146.29216745998474, -2620.13854028446, -2140.179531595651, -9045.8850915295, 231.20644464569625, 865.3701383316683, -4438.296489512502, -1327.1124752894016, -1022.0782187078261, -3737.3234316496173, -3754.8248475581227, -2319.8428535274093, -3017.2172805329897, -1739.300994789719, -7366.464420135549, -14412.740100948824, 0.012, -0.10400000000000001, 0.988, 192.0, 0.0, 48.0, 126.0, 96.0, 15.0, 112.0, 0.0, 0.0, 0.0, 1.645923232381384E9, 0.0, 2022-02-27 11:53:52.381
98.0, 214.93437468223271, -2344.005089283596, -1923.6134795681812, -8797.512507142128, 542.2309687412941, 960.5215144779104, -4422.918489327251, -1350.8276761564823, -2456.0990877269614, -3807.731426683835, -3455.155009645821, -2255.44747775167, -2688.5348783176996, -1463.8604478669702, -7438.124112859263, -14694.081508407773, 0.012, -0.10400000000000001, 0.988, 192.0, 0.0, 0.0, 0.0, 0.0, 0.0, 0.0, 0.0, 0.0, 0.0, 1.64592323238861E9, 0.0, 2022-02-27 11:53:52.388
100.0, -381.76779529664464, -2815.761007757307, -2351.403516698303, -9297.789251540811, -26.084485779343343, 671.9604935598962, -4662.484486399232, -1591.019522073212, -2554.4020598414018, -4363.57460779841, -3829.6361362500356, -2440.654032308344, -3052.6447954946516, -1834.36296395814, -7660.412211467292, -15124.956086272728, 0.012, -0.10400000000000001, 0.988, 192.0, 0.0, 0.0, 0.0, 0.0, 0.0, 0.0, 0.0, 0.0, 0.0, 1.64592323239616E9, 0.0, 2022-02-27 11:53:52.396
102.0, 180.95972311016598, -2362.84760985942, -1912.392903851617, -8789.689396582771, 519.3651341635149, 999.4135498301447, -4302.464938457601, -1211.0175145885366, -1116.4472837981325, -3451.9810619331674, -3538.1917402972867, -2212.755645842033, -2808.9437256984384, -1548.0147657412012, -7270.418974211094, -14233.769683095179, 0.012, -0.10400000000000001, 0.988, 192.0, 0.0, 0.0, 0.0, 0.0, 0.0, 0.0, 0.0, 0.0, 0.0, 1.645923232403959E9, 0.0, 2022-02-27 11:53:52.403
104.0, -170.11912704934204, -2662.4056890494453, -2233.341602485371, -9160.504837096314, 146.96271979364394, 694.9157351154965, -4633.360163373967, -1637.6899644958933, -3465.190942906254, -4366.77090725552, -3609.314991154074, -2397.470462020691, -2813.9728682008827, -1643.4343628209072, -7680.841705899443, -15270.041259532127, 0.012, -0.10400000000000001, 0.988, 192.0, 0.0, 0.0, 0.0, 0.0, 0.0, 0.0, 0.0, 0.0, 0.0, 1.645923232412092E9, 0.0, 2022-02-27 11:53:52.412
106.0, -143.0735162584205, -2617.7022001388314, -2148.9414154221317, -9062.715955104346, 191.95678138217704, 833.0271641048389, -4442.409210492278, -1338.2436440281444, -1061.3502337158006, -3760.211617971852, -3761.6421296169915, -2315.5066151030796, -3033.958737130015, -1755.2824920752637, -7386.960969801065, -14447.72058102138, 0.01, -0.108, 0.988, 192.0, 0.0, 40.0, 126.0, 80.0, 15.0, 112.0, 0.0, 0.0, 0.0, 1.645923232418646E9, 0.0, 2022-02-27 11:53:52.418
108.0, 242.7399447846347, -2325.497844874602, -1916.8632527426785, -8791.231666950187, 533.8937680594645, 942.8859881026731, -4428.595832418899, -1358.091993104457, -2400.175023099783, -3800.7576824137786, -3448.471838053684, -2254.39694576227, -2701.0295034682163, -1489.1626225903779, -7441.5439297609255, -14679.731688467466, 0.01, -0.108, 0.988, 192.0, 0.0, 0.0, 0.0, 0.0, 0.0, 0.0, 0.0, 0.0, 0.0, 1.645923232433932E9, 0.0, 2022-02-27 11:53:52.433
110.0, -367.5744375675246, -2800.762987227796, -2359.539551680035, -9303.17602195454, -27.15736951319808, 667.3113307131923, -4635.796503519596, -1574.3898241984637, -2594.5681446275885, -4366.614445044333, -3815.8004064322004, -2433.9932124606626, -3060.691423498562, -1838.2745192378188, -7676.9301506197635, -15147.5760516615, 0.01, -0.108, 0.988, 192.0, 0.0, 0.0, 0.0, 0.0, 0.0, 0.0, 0.0, 0.0, 0.0, 1.645923232441726E9, 0.0, 2022-02-27 11:53:52.441
112.0, 197.94704889619933, -2346.1285050068504, -1916.840900998223, -8787.655387837338, 503.38363687797033, 999.9723434415274, -4328.616479470311, -1189.9621713116373, -1084.372530504767, -3471.292969142553, -3536.895339118879, -2215.8401865768656, -2829.6414410640527, -1551.4345826428632, -7272.452982956527, -14225.611296368992, 0.01, -0.108, 0.988, 192.0, 0.0, 0.0, 0.0, 0.0, 0.0, 0.0, 0.0, 0.0, 0.0, 1.645923232448181E9, 0.0, 2022-02-27 11:53:52.448
114.0, -134.37868766530607, -2626.1511595429374, -2227.8654250938207, -9147.496121823326, 146.40392618226127, 704.5940404646445, -4654.68372758433, -1615.338220040586, -3439.5758437604723, -4303.515470447001, -3585.219810631253, -2374.984607098652, -2805.6580192635083, -1616.791083430181, -7678.539476220546, -15258.396000670911, 0.01, -0.108, 0.988, 192.0, 0.0, 0.0, 0.0, 0.0, 0.0, 0.0, 0.0, 0.0, 0.0, 1.645923232456277E9, 0.0, 2022-02-27 11:53:52.456
116.0, -140.97245227962165, -2609.744979112742, -2157.680947504157, -9061.576016137125, 188.17933656923017, 833.0495158492943, -4449.606472206888, -1328.744152634639, -1069.1733442751581, -3773.846182089589, -3760.9268737944217, -2311.9973912235964, -3034.7857516748613, -1748.8898931610458, -7393.152403015185, -14449.687534533447, 0.018000000000000002, -0.10400000000000001, 0.984, 192.0, 0.0, 72.0, 126.0, 96.0, 15.0, 96.0, 0.0, 0.0, 0.0, 1.645923232464267E9, 0.0, 2022-02-27 11:53:52.464
118.0, 249.66898556577988, -2322.9273942622417, -1915.7233137754577, -8786.090765725467, 542.8568175860427, 954.7324126639859, -4405.104148996371, -1348.190170310756, -2377.4209472442803, -3780.4846501928155, -3456.8537422244244, -2258.2637975530383, -2702.5941255800876, -1483.1500033319, -7432.133845345241, -14667.348822039226, 0.018000000000000002, -0.10400000000000001, 0.984, 192.0, 0.0, 0.0, 0.0, 0.0, 0.0, 0.0, 0.0, 0.0, 0.0, 1.645923232470956E9, 0.0, 2022-02-27 11:53:52.470
120.0, -361.7406322646895, -2802.998161673327, -2356.5891214119342, -9307.802833056789, -44.50232321051636, 647.5747403591562, -4642.412619878366, -1583.0623010471227, -2623.9159850974065, -4379.19847717267, -3827.535072271237, -2449.371212645914, -3064.89355145616, -1848.5116181983494, -7672.258636028605, -15151.33114472999, 0.018000000000000002, -0.10400000000000001, 0.984, 192.0, 0.0, 0.0, 0.0, 0.0, 0.0, 0.0, 0.0, 0.0, 0.0, 1.64592323247896E9, 0.0, 2022-02-27 11:53:52.478
122.0, 199.7128367081686, -2349.3471562084146, -1915.9244794755555, -8787.45422213724, 530.7868755801768, 1011.8858232362061, -4320.279278788481, -1191.9067730792492, -1066.491134940521, -3457.613701535905, -3535.17425479582, -2217.1142360108183, -2821.9747927158824, -1542.0021464827237, -7270.664843400103, -14224.605467868503, 0.018000000000000002, -0.10400000000000001, 0.984, 192.0, 0.0, 0.0, 0.0, 0.0, 0.0, 0.0, 0.0, 0.0, 0.0, 1.645923232485903E9, 0.0, 2022-02-27 11:53:52.485
124.0, -130.40007715226142, -2628.5204444552, -2223.3056692249384, -9148.8595782351, 146.02394652652103, 707.0527323547283, -4620.954945201272, -1617.4169322749296, -3444.292061840542, -4338.2053778416375, -3589.019607188655, -2384.595857214434, -2808.4519873204217, -1616.7687316857257, -7669.643481927334, -15251.735180823229, 0.018000000000000002, -0.10400000000000001, 0.984, 192.0, 0.0, 0.0, 0.0, 0.0, 0.0, 0.0, 0.0, 0.0, 0.0, 1.645923232494084E9, 0.0, 2022-02-27 11:53:52.494
126.0, -119.9394607471777, -2590.678941092365, -2149.0084706554976, -9061.955995792865, 184.02191210054303, 824.9134808675625, -4473.679300985254, -1360.2377605721665, -1069.7097861420855, -3747.69464107688, -3763.0949930065863, -2312.3550191348813, -3034.8081034193165, -1764.3125968352076, -7385.8433825782995, -14457.845921259634, 0.02, -0.108, 0.986, 192.0, 0.0, 80.0, 126.0, 80.0, 15.0, 104.0, 0.0, 0.0, 0.0, 1.64592323250054E9, 0.0, 2022-02-27 11:53:52.500
128.0, 270.09847999793055, -2292.797242736488, -1907.453168326994, -8778.468820866206, 542.7674106082214, 971.3621105387343, -4410.803843832475, -1336.2096352827116, -2344.049792772507, -3758.6469958599805, -3450.639957265849, -2239.2201112771168, -2700.3813028790123, -1478.2996747850984, -7424.7577696749895, -14658.296365534827, 0.02, -0.108, 0.986, 192.0, 0.0, 0.0, 0.0, 0.0, 0.0, 0.0, 0.0, 0.0, 0.0, 1.6459232325086E9, 0.0, 2022-02-27 11:53:52.508
130.0, -360.48893457519233, -2792.64930399052, -2357.4161359567806, -9303.556001610279, -54.38179425976208, 623.904242980986, -4655.622500851453, -1571.1041177635334, -2696.3356371326017, -4383.19943943017, -3820.5166245122705, -2440.274052652604, -3053.8070862063273, -1836.1734552590199, -7676.527819219568, -15171.581825206498, 0.02, -0.108, 0.986, 192.0, 0.0, 0.0, 0.0, 0.0, 0.0, 0.0, 0.0, 0.0, 0.0, 1.645923232516676E9, 0.0, 2022-02-27 11:53:52.516
132.0, 184.40189175628328, -2358.8019441130095, -1923.2111481679856, -8800.485289154683, 486.30690411411575, 965.4612500025332, -4312.500871718034, -1185.9388573096821, -1031.0412682344042, -3480.3677773914073, -3563.9185981653454, -2224.5797186588907, -2841.309051669723, -1570.9029520634356, -7272.944721334544, -14214.055444485599, 0.02, -0.108, 0.986, 192.0, 0.0, 0.0, 0.0, 0.0, 0.0, 0.0, 0.0, 0.0, 0.0, 1.645923232523638E9, 0.0, 2022-02-27 11:53:52.523
134.0, -110.93170773168895, -2604.0229325321834, -2205.826605060888, -9128.005400658298, 176.51172596355988, 719.3685435496025, -4627.325192371034, -1599.8708128775136, -3430.635145978349, -4308.723426905087, -3588.28199962163, -2377.7338716666545, -2811.6929902664415, -1620.3673625430301, -7666.447182470225, -15234.434930614821, 0.02, -0.108, 0.986, 192.0, 0.0, 0.0, 0.0, 0.0, 0.0, 0.0, 0.0, 0.0, 0.0, 1.64592323253127E9, 0.0, 2022-02-27 11:53:52.531
136.0, -153.24355998558522, -2621.3008309961356, -2171.0696424328858, -9094.746004908802, 163.86063860185607, 807.7249893814313, -4448.220664050658, -1333.035687570058, -1134.5074933180206, -3783.7703566277455, -3780.171725770441, -2330.504635632591, -3049.7167169710065, -1778.4836028198724, -7405.401158976693, -14491.15002049804, 0.014, -0.112, 0.988, 192.0, 0.0, 56.0, 126.0, 64.0, 15.0, 112.0, 0.0, 0.0, 0.0, 1.645923232539217E9, 0.0, 2022-02-27 11:53:52.539
138.0, 260.9789682601653, -2313.1820336797277, -1906.1567671485864, -8771.226855662688, 540.5322361626907, 942.7965811248519, -4412.569631644444, -1295.1718324627677, -2271.5854372484014, -3754.5119231357485, -3462.3969748493405, -2247.0432218364745, -2699.5319365897103, -1491.3754452914532, -7406.250525265995, -14618.51026040438, 0.014, -0.112, 0.988, 192.0, 0.0, 0.0, 0.0, 0.0, 0.0, 0.0, 0.0, 0.0, 0.0, 1.645923232547298E9, 0.0, 2022-02-27 11:53:52.547
140.0, -362.92527472082077, -2796.31499008119, -2365.730984894155, -9306.864059789665, -42.11068655379851, 655.4872578963349, -4650.72746881574, -1581.6094376575277, -2703.935230247406, -4388.832079032908, -3823.5788135026473, -2437.658898551333, -3056.779868218883, -1838.3192227267293, -7692.531668249568, -15167.133828059892, 0.014, -0.112, 0.988, 192.0, 0.0, 0.0, 0.0, 0.0, 0.0, 0.0, 0.0, 0.0, 0.0, 1.645923232560803E9, 0.0, 2022-02-27 11:53:52.560
142.0, 182.77021441104586, -2356.5220661785684, -1930.7883895383347, -8799.233591465187, 486.59747679203474, 979.6993112205639, -4334.293822561958, -1198.8581656048495, -1033.9916985025047, -3444.4038205628185, -3555.5366939946052, -2216.734256355078, -2843.477170881888, -1559.9729490247905, -7275.761041135913, -14217.318799176073, 0.014, -0.112, 0.988, 192.0, 0.0, 0.0, 0.0, 0.0, 0.0, 0.0, 0.0, 0.0, 0.0, 1.645923232568869E9, 0.0, 2022-02-27 11:53:52.568
144.0, -117.03373396798779, -2621.770217629697, -2210.6769336076895, -9135.023848417264, 160.06084204445386, 679.805955863709, -4647.754686803185, -1617.5063392527509, -3435.641936736338, -4314.04314208545, -3590.4501188337945, -2378.404424000314, -2801.858222706106, -1626.7376097127926, -7668.570598193479, -15235.105482948482, 0.014, -0.112, 0.988, 192.0, 0.0, 0.0, 0.0, 0.0, 0.0, 0.0, 0.0, 0.0, 0.0, 1.645923232576842E9, 0.0, 2022-02-27 11:53:52.576
146.0, -152.57300765192602, -2626.1064560540267, -2167.9851016980533, -9088.196943783396, 152.66241462974725, 804.3051724797693, -4464.649196225309, -1358.0472896155466, -1126.0361821694592, -3814.861633165078, -3783.077452549631, -2327.6212605978562, -3051.3260425717885, -1772.4709835613949, -7405.557621187881, -14486.165581484507, 0.016, -0.108, 0.99, 192.0, 0.0, 64.0, 126.0, 80.0, 15.0, 120.0, 0.0, 0.0, 0.0, 1.645923232583413E9, 0.0, 2022-02-27 11:53:52.583
148.0, 274.27825621107297, -2292.1266904028284, -1895.8302612102345, -8771.11509694041, 546.2542827432493, 945.9705288375055, -4397.795128559485, -1325.9948880666361, -2267.137440101795, -3740.9667659958322, -3449.8799979543687, -2241.2541200225496, -2695.2180499098363, -1481.2277533087438, -7411.749054402001, -14628.948525065009, 0.016, -0.108, 0.99, 192.0, 0.0, 0.0, 0.0, 0.0, 0.0, 0.0, 0.0, 0.0, 0.0, 1.6459232325916E9, 0.0, 2022-02-27 11:53:52.591
150.0, -359.9971961971755, -2795.510327280799, -2359.8077726134984, -9312.161423225572, -50.69375642463642, 619.098617923095, -4671.2687219701675, -1576.736757366271, -2752.907902348984, -4382.841811518885, -3815.1522058429964, -2455.8755702824083, -3040.0607633663135, -1845.561187930249, -7686.3178832909925, -15188.81502018154, 0.016, -0.108, 0.99, 192.0, 0.0, 0.0, 0.0, 0.0, 0.0, 0.0, 0.0, 0.0, 0.0, 1.645923232599556E9, 0.0, 2022-02-27 11:53:52.599
152.0, 168.19687702618566, -2374.7387379096435, -1933.0235639838654, -8804.1286235009, 474.0581481526075, 961.8626191452288, -4340.2617383315255, -1194.164299269235, -1003.9286022101168, -3484.413443137818, -3564.2538743321747, -2218.2318232335833, -2829.6414410640527, -1573.473402675796, -7270.843657355745, -14209.741557805724, 0.016, -0.108, 0.99, 192.0, 0.0, 0.0, 0.0, 0.0, 0.0, 0.0, 0.0, 0.0, 0.0, 1.64592323260623E9, 0.0, 2022-02-27 11:53:52.606
154.0, -87.41767256470592, -2592.9811707712615, -2188.5934100858462, -9110.70515044989, 178.99276959809896, 701.6212584520887, -4642.904358256383, -1584.8504406035472, -3417.894651638824, -4302.263772757504, -3586.605618787482, -2375.521048965579, -2784.6250277310646, -1612.6113072170388, -7658.8475893554205, -15211.926723948327, 0.014, -0.10500000000000001, 0.989, 192.0, 0.0, 48.0, 126.0, 104.0, 15.0, 112.0, 0.0, 0.0, 0.0, 1.645923232613105E9, 0.0, 2022-02-27 11:53:52.613
156.0, -179.64097018730286, -2648.167627831415, -2187.9452094966423, -9109.431101015938, 136.6809173442027, 791.6987886069761, -4454.367393775868, -1357.6673099598063, -1183.2566479750453, -3840.7449532443234, -3793.9404003549103, -2342.395763682814, -3049.4931995264533, -1788.4524808469394, -7416.7781969044445, -14525.169375559019, 0.014, -0.10500000000000001, 0.989, 192.0, 0.0, 0.0, 0.0, 0.0, 0.0, 0.0, 0.0, 0.0, 0.0, 1.645923232621162E9, 0.0, 2022-02-27 11:53:52.621
158.0, 257.33563391395023, -2310.477472600636, -1901.9546391909885, -8769.528123084083, 537.9394338058751, 954.3300812637904, -4391.022549989528, -1286.7899282920275, -2220.1093697678293, -3742.0620014741426, -3477.774975034592, -2254.5757597179127, -2713.635887341009, -1488.5814772345398, -7398.56152517337, -14589.452992612481, 0.014, -0.10500000000000001, 0.989, 192.0, 0.0, 0.0, 0.0, 0.0, 0.0, 0.0, 0.0, 0.0, 0.0, 1.645923232629143E9, 0.0, 2022-02-27 11:53:52.629
160.0, -368.73672827920063, -2800.606525016609, -2370.022519829574, -9309.255696446384, -58.82979140636819, 648.1111822260835, -4677.1919342508245, -1586.0797865485893, -2810.553051299221, -4407.562840886455, -3828.563252516181, -2447.7618870451315, -3042.2959378118444, -1830.3843534450953, -7700.421834042291, -15198.493325530688, 0.014, -0.10500000000000001, 0.989, 192.0, 0.0, 0.0, 0.0, 0.0, 0.0, 0.0, 0.0, 0.0, 0.0, 1.645923232635707E9, 0.0, 2022-02-27 11:53:52.635
162.0, 163.88299034631137, -2373.978778598163, -1936.3539739077062, -8811.45999568224, 466.4362032933478, 963.8072209128405, -4335.254947573537, -1197.4723574486206, -1001.8051864868626, -3465.0344806950666, -3583.1634501413646, -2232.626346662801, -2844.840627293662, -1575.797984099148, -7272.765907378902, -14207.707549060291, 0.014, -0.10500000000000001, 0.989, 192.0, 0.0, 0.0, 0.0, 0.0, 0.0, 0.0, 0.0, 0.0, 0.0, 1.645923232643823E9, 0.0, 2022-02-27 11:53:52.643
164.0, -91.57509703339304, -2596.2221737172813, -2196.774148556489, -9108.738196937824, 194.14725233879716, 715.8593196701192, -4622.810139991062, -1575.3285974655864, -3404.997695088112, -4266.165705462183, -3584.1245751529427, -2376.504525721613, -2781.0487486182155, -1613.1253973395108, -7652.454990441202, -15209.400976824878, 0.011, -0.10550000000000001, 0.9875, 192.0, 0.0, 32.0, 126.0, 88.0, 15.0, 104.0, 0.0, 0.0, 0.0, 1.645923232651745E9, 0.0, 2022-02-27 11:53:52.651
166.0, -175.90822886326657, -2640.545682972155, -2199.1434334687515, -9104.156089324486, 135.36216442133957, 793.799852585775, -4481.390652822334, -1351.6993941902392, -1199.8863458497938, -3854.647738295524, -3804.8704033935555, -2341.278176460049, -3061.2055136210342, -1778.7294720088807, -7425.025990608453, -14525.30348602575, 0.011, -0.10550000000000001, 0.9875, 192.0, 0.0, 0.0, 0.0, 0.0, 0.0, 0.0, 0.0, 0.0, 0.0, 1.645923232658937E9, 0.0, 2022-02-27 11:53:52.658
168.0, 274.0323870220646, -2298.765158506055, -1905.6873805150249, -8758.508713067617, 535.3019279601489, 953.7042324190418, -4409.842718820896, -1293.3836929063432, -2187.028787973975, -3718.6373732849806, -3470.153030175332, -2245.947986358164, -2713.7029425743754, -1485.8545644109922, -7405.982304332531, -14585.206161165974, 0.011, -0.10550000000000001, 0.9875, 192.0, 0.0, 0.0, 0.0, 0.0, 0.0, 0.0, 0.0, 0.0, 0.0, 1.645923232667961E9, 0.0, 2022-02-27 11:53:52.667
170.0, -361.60652179795767, -2807.2673448642904, -2374.7387379096435, -9309.769786568855, -61.78022167446872, 632.6214233185558, -4672.3192539595675, -1597.2109552873321, -2836.5928335896533, -4406.221736219137, -3816.0239238767535, -2444.9008637548523, -3041.3348128002663, -1819.7449230843692, -7701.315903820504, -15216.285314117113, 0.011, -0.10550000000000001, 0.9875, 192.0, 0.0, 0.0, 0.0, 0.0, 0.0, 0.0, 0.0, 0.0, 0.0, 1.645923232681439E9, 0.0, 2022-02-27 11:53:52.681
172.0, 164.79941186897898, -2378.5161827225907, -1948.6027298692145, -8810.49887067066, 456.3779182884596, 958.9568923660389, -4349.940043680674, -1190.3868544562883, -975.3630727962343, -3459.0665649254997, -3574.893304692901, -2211.2357272190725, -2855.1447814875582, -1568.667777617905, -7272.25181725643, -14207.551086849106, 0.011, -0.10550000000000001, 0.9875, 192.0, 0.0, 0.0, 0.0, 0.0, 0.0, 0.0, 0.0, 0.0, 0.0, 1.645923232688607E9, 0.0, 2022-02-27 11:53:52.688
174.0, -72.28554156846305, -2575.837382774041, -2183.7207297945893, -9094.678949675435, 190.5039179925821, 732.4890175448678, -4638.545768087598, -1579.150745767444, -3394.537078683028, -4248.351365131302, -3572.255798847175, -2369.2625605180933, -2782.278094563257, -1595.0651878196227, -7646.554129905001, -15191.631339982909, 0.0085, -0.10375000000000001, 0.99075, 192.0, 0.0, 24.0, 126.0, 104.0, 15.5, 8.0, 0.0, 0.0, 0.0, 1.645923232696076E9, 0.0, 2022-02-27 11:53:52.696
176.0, -190.1686418257525, -2656.929511657895, -2208.5535178844357, -9108.827603915644, 108.04833269695435, 774.5773523542109, -4511.699618303731, -1354.8286384139824, -1252.904683697782, -3852.2784533832614, -3806.9044121389884, -2336.8078275689877, -3070.168563147612, -1796.1414809395649, -7437.230043081051, -14556.707686985457, 0.0085, -0.10375000000000001, 0.99075, 192.0, 0.0, 0.0, 0.0, 0.0, 0.0, 0.0, 0.0, 0.0, 0.0, 1.645923232704171E9, 0.0, 2022-02-27 11:53:52.704
178.0, 279.59797139143603, -2290.763233991055, -1898.0877874002203, -8753.904253709825, 530.8315790690874, 949.1444765501591, -4419.409265447768, -1294.2107074511896, -2146.1027438763076, -3690.831803182579, -3465.6156260509047, -2228.826550105399, -2720.363762422057, -1486.2345440667325, -7399.388539718216, -14566.542454545792, 0.0085, -0.10375000000000001, 0.99075, 192.0, 0.0, 0.0, 0.0, 0.0, 0.0, 0.0, 0.0, 0.0, 0.0, 1.645923232711104E9, 0.0, 2022-02-27 11:53:52.711
180.0, -357.13617290689626, -2796.0467691477265, -2378.560886211501, -9309.658027846579, -74.99010264755519, 614.9858969433185, -4709.333742777556, -1606.665743191927, -2867.6841101269856, -4401.684332094709, -3810.1230633405526, -2435.5801863169895, -3043.011193634414, -1828.327992955207, -7708.289648090559, -15229.562250323565, 0.0085, -0.10375000000000001, 0.99075, 192.0, 0.0, 0.0, 0.0, 0.0, 0.0, 0.0, 0.0, 0.0, 0.0, 1.645923232718658E9, 0.0, 2022-02-27 11:53:52.718
182.0, 163.03362405700972, -2374.7163861651884, -1954.1459624941306, -8819.171347519321, 439.3235372690603, 949.7032701615418, -4366.05565143295, -1206.7259796531177, -964.1201453352148, -3456.5631695465054, -3575.0944703929986, -2212.2862592084716, -2871.3274444732006, -1577.0720335331005, -7283.450041228538, -14211.082662473043, 0.0085, -0.10375000000000001, 0.99075, 192.0, 0.0, 0.0, 0.0, 0.0, 0.0, 0.0, 0.0, 0.0, 0.0, 1.645923232726774E9, 0.0, 2022-02-27 11:53:52.726
184.0, -54.13592507075371, -2565.354414624502, -2182.6254943162794, -9083.74894663679, 183.12784232233076, 710.2043283229266, -4683.092794787025, -1577.8096411001256, -3382.131860510333, -4244.730382529543, -3561.549313253083, -2350.80001959801, -2784.7814899422515, -1595.8474988755584, -7646.151798504806, -15189.53027600411, 0.00825, -0.10287500000000001, 0.990375, 192.0, 0.0, 32.0, 126.0, 104.0, 15.0, 120.0, 0.0, 0.0, 0.0, 1.645923232733699E9, 0.0, 2022-02-27 11:53:52.733
186.0, -172.17548753923032, -2638.1540463154374, -2206.3853986722706, -9105.698359691902, 141.24067321308533, 783.7639193253422, -4501.79779551003, -1370.5195630216078, -1236.00676488957, -3855.3406423736387, -3800.243592291307, -2322.1003797173953, -3073.141345160168, -1779.4894313203613, -7445.4778367850595, -14551.656192738557, 0.00825, -0.10287500000000001, 0.990375, 192.0, 0.0, 0.0, 0.0, 0.0, 0.0, 0.0, 0.0, 0.0, 0.0, 1.645923232740839E9, 0.0, 2022-02-27 11:53:52.740
188.0, 289.2315732516734, -2283.141289131795, -1899.585354278726, -8756.54175955555, 525.4448086553584, 958.8227818993071, -4406.4899571526, -1286.3652451473768, -2149.7237264780674, -3681.5111257447156, -3466.6438062958487, -2226.054933792941, -2726.219919469347, -1474.0975468275008, -7395.208763505074, -14571.482190070414, 0.00825, -0.10287500000000001, 0.990375, 192.0, 0.0, 0.0, 0.0, 0.0, 0.0, 0.0, 0.0, 0.0, 0.0, 1.64592323274827E9, 0.0, 2022-02-27 11:53:52.748
190.0, -347.8154954690332, -2790.2800190782573, -2379.56671471199, -9314.016618015363, -75.12421311428703, 623.099580180595, -4705.511594475698, -1613.572432228617, -2885.6102091801417, -4406.936992041707, -3804.3786650155384, -2439.4470381077576, -3038.183216832068, -1806.8256147892016, -7708.379055068381, -15233.697323047796, 0.00825, -0.10287500000000001, 0.990375, 192.0, 0.0, 0.0, 0.0, 0.0, 0.0, 0.0, 0.0, 0.0, 0.0, 1.645923232756386E9, 0.0, 2022-02-27 11:53:52.756
192.0, 157.19981875417457, -2379.9466943677303, -1965.8135730998008, -8826.793292378581, 426.15835978488445, 939.4214677121006, -4356.489104806078, -1208.3576569983552, -951.5584649513323, -3452.4951520556397, -3579.765984984158, -2207.525337639491, -2872.6461973960636, -1576.4908881772624, -7271.469506200494, -14211.52969736215, 0.00825, -0.10287500000000001, 0.990375, 192.0, 0.0, 0.0, 0.0, 0.0, 0.0, 0.0, 0.0, 0.0, 0.0, 1.645923232764398E9, 0.0, 2022-02-27 11:53:52.764
194.0, -34.86872135027902, -2547.0483359156055, -2179.205677414617, -9077.088126789109, 216.4319415607383, 730.834988455175, -4659.645814853408, -1572.892257319958, -3370.7548225825817, -4221.864547951764, -3561.281092319619, -2347.7154788631774, -2786.1449463540253, -1597.3897692429746, -7640.720324602166, -15178.734383432196, 0.009125000000000001, -0.10343750000000002, 0.9911875, 192.0, 0.0, 40.0, 126.0, 96.0, 15.5, 0.0, 0.0, 0.0, 0.0, 1.645923232770947E9, 0.0, 2022-02-27 11:53:52.770
196.0, -169.023891571032, -2639.0481160936497, -2215.1249307542957, -9120.696380221412, 104.67321928420297, 772.4315848865015, -4515.253545672124, -1367.4350222867754, -1270.0708234394579, -3870.8304012811664, -3807.1502813279967, -2331.0410774995185, -3075.242409138967, -1802.6905420649698, -7449.076467642363, -14575.8407802392, 0.009125000000000001, -0.10343750000000002, 0.9911875, 192.0, 0.0, 0.0, 0.0, 0.0, 0.0, 0.0, 0.0, 0.0, 0.0, 1.645923232779017E9, 0.0, 2022-02-27 11:53:52.779
198.0, 311.5386142180698, -2267.763288946544, -1888.7894617068127, -8746.528178039573, 544.2202739978163, 953.6148254412205, -4400.946724527684, -1283.191297434723, -2074.644216852691, -3665.730794159269, -3460.675890526282, -2225.116160525818, -2711.557175106666, -1473.2705322826544, -7388.637350635213, -14548.325782814716, 0.009125000000000001, -0.10343750000000002, 0.9911875, 192.0, 0.0, 0.0, 0.0, 0.0, 0.0, 0.0, 0.0, 0.0, 0.0, 1.645923232786978E9, 0.0, 2022-02-27 11:53:52.786
200.0, -335.99142265217574, -2779.059443361693, -2371.788307641543, -9311.714388336468, -77.73936721555796, 605.1064258940728, -4704.21519329729, -1626.916423668435, -2925.4186660550436, -4410.513271154556, -3800.2212405468513, -2433.166197915816, -3027.2979172823334, -1807.4514636339504, -7712.536479537068, -15247.309535421078, 0.009125000000000001, -0.10343750000000002, 0.9911875, 192.0, 0.0, 0.0, 0.0, 0.0, 0.0, 0.0, 0.0, 0.0, 0.0, 1.645923232794092E9, 0.0, 2022-02-27 11:53:52.794
202.0, 160.82080135593432, -2375.8116216434983, -1959.6668433745915, -8831.330696503008, 411.36150495547116, 944.182389281081, -4378.662035305743, -1207.3965319867768, -927.4185809396006, -3441.7886664615476, -3579.743633239703, -2207.927669039687, -2871.6180171511196, -1587.2644290047203, -7283.070061572798, -14209.696854316815, 0.009125000000000001, -0.10343750000000002, 0.9911875, 192.0, 0.0, 0.0, 0.0, 0.0, 0.0, 0.0, 0.0, 0.0, 0.0, 1.645923232808741E9, 0.0, 2022-02-27 11:53:52.808
204.0, -25.27982297895229, -2542.7791527246422, -2164.6770435186677, -9075.65761514397, 221.84106371892258, 740.8932734600633, -4654.527265373143, -1572.020539286201, -3348.268967660543, -4212.812091447365, -3550.9098828923566, -2348.5871968969345, -2779.5958852286203, -1584.8504406035472, -7638.149873989806, -15167.62556643791, 0.0105625, -0.10671875, 0.9925937499999999, 192.0, 0.0, 48.0, 126.0, 72.0, 15.5, 8.0, 0.0, 0.0, 0.0, 1.645923232816642E9, 0.0, 2022-02-27 11:53:52.816
206.0, -179.55156320948163, -2644.90427314094, -2211.3921894302594, -9128.765359969779, 114.79855952245707, 762.7756312818088, -4507.698656046231, -1400.448548847264, -1295.4624051406868, -3880.3745961635827, -3804.423368504449, -2334.6397083568227, -3085.3230458883104, -1809.1278444680984, -7455.781990978956, -14585.161457677063, 0.0105625, -0.10671875, 0.9925937499999999, 192.0, 0.0, 0.0, 0.0, 0.0, 0.0, 0.0, 0.0, 0.0, 0.0, 1.645923232823071E9, 0.0, 2022-02-27 11:53:52.823
208.0, 309.1693293058073, -2269.752594203066, -1879.2899703133073, -8748.092800151444, 542.9238728194085, 938.0803630447821, -4411.094416510394, -1281.4925648561198, -2045.8551699942554, -3660.0534510676207, -3459.357137603419, -2226.636079148779, -2712.6971140738865, -1497.8798029279476, -7373.415812661149, -14537.596945476169, 0.0105625, -0.10671875, 0.9925937499999999, 192.0, 0.0, 0.0, 0.0, 0.0, 0.0, 0.0, 0.0, 0.0, 0.0, 1.645923232831132E9, 0.0, 2022-02-27 11:53:52.831
210.0, -325.307288802539, -2776.6007514716093, -2369.016691329085, -9310.216821457961, -67.4128612772061, 606.067550905651, -4701.085949073547, -1620.8814526655024, -2968.244608431412, -4425.220719006147, -3787.547801440692, -2442.7327445426877, -3017.083170066258, -1823.6341266195927, -7708.9154969353085, -15258.77598032665, 0.0105625, -0.10671875, 0.9925937499999999, 192.0, 0.0, 0.0, 0.0, 0.0, 0.0, 0.0, 0.0, 0.0, 0.0, 1.645923232839331E9, 0.0, 2022-02-27 11:53:52.839
212.0, 169.11329854885324, -2368.6590634178, -1964.6065788992144, -8834.392885493384, 415.74244686871134, 943.0648020583155, -4378.215000416637, -1223.8474159058828, -904.3068771728132, -3459.8488759814354, -3583.4316710748285, -2218.9694308006087, -2877.630636409597, -1593.7911383856701, -7272.363575978706, -14205.226505425753, 0.0105625, -0.10671875, 0.9925937499999999, 192.0, 0.0, 0.0, 0.0, 0.0, 0.0, 0.0, 0.0, 0.0, 0.0, 1.645923232846339E9, 0.0, 2022-02-27 11:53:52.846
214.0, 1.6987325786033367, -2522.1484925923937, -2153.6576335022014, -9047.874396786023, 232.32403186846162, 735.9758896798957, -4638.2775471541345, -1553.7815158106705, -3316.8200632119256, -4200.473928508035, -3537.9682228527336, -2330.8175600549653, -2765.1119548215815, -1578.50254517824, -7630.79615006401, -15146.346705716456, 0.01128125, -0.106359375, 0.995296875, 192.0, 0.0, 48.0, 126.0, 88.0, 15.5, 24.0, 0.0, 0.0, 0.0, 1.645923232853886E9, 0.0, 2022-02-27 11:53:52.853
216.0, -192.94025813821057, -2654.7613924457305, -2221.0928465238626, -9133.816854216679, 86.90358244223385, 760.607512069644, -4539.4828366616775, -1395.1511854113562, -1352.414650012809, -3897.9877707943647, -3813.4087697754826, -2339.2888712035265, -3088.5193453454194, -1810.1113212241319, -7467.6060637958135, -14607.110870732175, 0.01128125, -0.106359375, 0.995296875, 192.0, 0.0, 0.0, 0.0, 0.0, 0.0, 0.0, 0.0, 0.0, 0.0, 1.64592323286086E9, 0.0, 2022-02-27 11:53:52.860
218.0, 300.31803850150567, -2273.9100186717533, -1881.234572080919, -8741.007297159113, 542.3874309524812, 958.4428022435668, -4417.129387513326, -1284.331236401944, -2009.1089021097307, -3651.1574567744087, -3462.0840504269663, -2222.6574686357344, -2726.3316781916237, -1491.3530935469978, -7380.255446464473, -14516.742767899368, 0.01128125, -0.106359375, 0.995296875, 192.0, 0.0, 0.0, 0.0, 0.0, 0.0, 0.0, 0.0, 0.0, 0.0, 1.645923232868967E9, 0.0, 2022-02-27 11:53:52.868
220.0, -346.09441114597456, -2790.682350478453, -2371.654197174811, -9313.390769170615, -70.27388456748541, 607.2745451062376, -4717.134501592458, -1634.6277755055162, -3012.277545008367, -4436.173073789248, -3792.8898683655107, -2445.571416088512, -3026.850882393227, -1815.6992573379587, -7718.325581350992, -15262.754590839695, 0.01128125, -0.106359375, 0.995296875, 192.0, 0.0, 0.0, 0.0, 0.0, 0.0, 0.0, 0.0, 0.0, 0.0, 1.645923232876018E9, 0.0, 2022-02-27 11:53:52.876
222.0, 142.47001915812723, -2391.0331596175624, -1967.3781952116724, -8846.261661799153, 413.6413828899125, 938.1697700226033, -4374.236389903592, -1231.1787880872237, -910.8559382982181, -3456.7866869910586, -3592.6852932793254, -2216.242517977061, -2885.2972847577676, -1598.0379698321785, -7277.884456859167, -14208.758081049691, 0.01128125, -0.106359375, 0.995296875, 192.0, 0.0, 0.0, 0.0, 0.0, 0.0, 0.0, 0.0, 0.0, 0.0, 1.645923232883509E9, 0.0, 2022-02-27 11:53:52.883
224.0, -15.266241462974724, -2537.325327077547, -2147.37679331026, -9055.049306756177, 239.11896218287495, 730.9243954329962, -4625.626459792431, -1580.2906847346646, -3324.553766793462, -4208.162928600661, -3547.5571212240607, -2346.0614497734846, -2773.136231081037, -1585.4986411927512, -7624.671772083256, -15143.552737659544, 0.010640625, -0.1041796875, 0.9956484375, 192.0, 0.0, 40.0, 126.0, 104.0, 15.5, 16.0, 0.0, 0.0, 0.0, 1.645923232891548E9, 0.0, 2022-02-27 11:53:52.891
226.0, -210.7545984690903, -2675.5261630447108, -2229.541805927969, -9146.244424133829, 82.83556495136797, 753.9913957108731, -4537.158255238325, -1407.6234588174175, -1383.8412027169709, -3929.481378731892, -3821.9024326684994, -2351.783496354043, -3100.5445838623746, -1819.655516106548, -7472.724613276078, -14625.014618040876, 0.010640625, -0.1041796875, 0.9956484375, 192.0, 0.0, 0.0, 0.0, 0.0, 0.0, 0.0, 0.0, 0.0, 0.0, 1.645923232899485E9, 0.0, 2022-02-27 11:53:52.899
228.0, 294.52893668758117, -2284.013007165552, -1885.5931622497037, -8743.73420998266, 540.3981256959588, 963.6060552127428, -4416.414131690756, -1286.611114336385, -2007.2760590643954, -3658.4441254668386, -3472.611722065416, -2232.9392710851757, -2743.3413557221124, -1498.2597825836876, -7381.753013342979, -14508.807898617733, 0.010640625, -0.1041796875, 0.9956484375, 192.0, 0.0, 0.0, 0.0, 0.0, 0.0, 0.0, 0.0, 0.0, 0.0, 1.645923232906187E9, 0.0, 2022-02-27 11:53:52.906
230.0, -351.6376437708907, -2801.545298283732, -2375.1634210542943, -9315.447129660502, -62.38371877476201, 616.5058155662794, -4724.577632496075, -1646.407144833463, -3054.7011559845396, -4447.795980906008, -3793.918048610455, -2452.2098841917377, -3020.011248589903, -1811.6982950804586, -7722.818281986509, -15268.633099631441, 0.010640625, -0.1041796875, 0.9956484375, 192.0, 0.0, 0.0, 0.0, 0.0, 0.0, 0.0, 0.0, 0.0, 0.0, 1.645923232914209E9, 0.0, 2022-02-27 11:53:52.914
232.0, 90.32339934389584, -2442.755096287143, -1984.1196518086974, -8861.170275350843, 402.9572490402757, 931.8442263417514, -4369.877799734807, -1220.517005982042, -910.0736272422823, -3489.3531786624408, -3617.473377880261, -2243.0646113234297, -2897.4566337414544, -1616.7463799412706, -7279.180858037575, -14205.159450192386, 0.010640625, -0.1041796875, 0.9956484375, 192.0, 0.0, 0.0, 0.0, 0.0, 0.0, 0.0, 0.0, 0.0, 0.0, 1.645923232929327E9, 0.0, 2022-02-27 11:53:52.929
234.0, -50.42553549117273, -2575.9267897518625, -2141.9229676631653, -9039.380733893006, 261.4260031492714, 752.4044218545464, -4610.494328796188, -1564.8009258271368, -3315.8365864558923, -4211.336876313314, -3565.2597028326636, -2359.3160342354818, -2770.766946168774, -1582.8611353470249, -7619.061484224973, -15123.682036838776, 0.01, -0.106, 0.99, 192.0, 0.0, 40.0, 126.0, 88.0, 15.0, 120.0, 0.0, 0.0, 0.0, 1.645923232935744E9, 0.0, 2022-02-27 11:53:52.935
236.0, -298.28402975607275, -2759.836943130129, -2250.530093971502, -9155.587453316148, 71.95026540163343, 771.6269220861104, -4556.917197336817, -1414.5301478541076, -1460.7088518987719, -3975.615379287646, -3854.5359795732475, -2380.5501914680235, -3106.601906609763, -1822.2036149744529, -7481.821773269388, -14651.859063131698, 0.01, -0.106, 0.99, 192.0, 0.0, 0.0, 0.0, 0.0, 0.0, 0.0, 0.0, 0.0, 0.0, 1.645923232943809E9, 0.0, 2022-02-27 11:53:52.943
238.0, 169.9850165826102, -2404.511261524113, -1892.3433890752065, -8740.180282614265, 548.1094775330398, 987.7235874800191, -4403.472471651134, -1260.258407623578, -1970.6415499021473, -3662.2886255131516, -3508.866251571924, -2256.363899274337, -2744.168370266959, -1481.1383463309226, -7370.040699248398, -14479.214188958907, 0.01, -0.106, 0.99, 192.0, 0.0, 0.0, 0.0, 0.0, 0.0, 0.0, 0.0, 0.0, 0.0, 1.645923232951723E9, 0.0, 2022-02-27 11:53:52.951
240.0, -524.8413115550651, -2970.7480038104063, -2381.5560199685124, -9318.218745972961, -53.57713145937103, 634.6554320639888, -4699.253106028212, -1631.140903370488, -3141.2471105154887, -4494.041740184038, -3835.3805345750493, -2490.9007538438746, -3020.726504412473, -1796.3873501285734, -7718.124415650895, -15272.030564788649, 0.01, -0.106, 0.99, 192.0, 0.0, 0.0, 0.0, 0.0, 0.0, 0.0, 0.0, 0.0, 0.0, 1.645923232958275E9, 0.0, 2022-02-27 11:53:52.958
242.0, -111.78107402099062, -2639.629261449488, -1997.9106781376217, -8870.312138833064, 409.1933857433064, 943.8024096253407, -4361.384136841791, -1228.0495438634807, -966.6682442031198, -3545.9701473677337, -3677.510163487216, -2290.897344457787, -2911.4935292593873, -1611.2702025497201, -7271.067174800298, -14201.314950146074, 0.01, -0.106, 0.99, 192.0, 0.0, 0.0, 0.0, 0.0, 0.0, 0.0, 0.0, 0.0, 0.0, 1.645923232966507E9, 0.0, 2022-02-27 11:53:52.966
244.0, -245.71272679719053, -2769.5599519681873, -2136.9385286496317, -9040.095989715575, 266.61160786290264, 779.1818117120042, -4607.6333055059085, -1562.3645856815083, -3347.352546137875, -4254.36398438978, -3606.118691696965, -2410.1215493823947, -2761.1780477974476, -1564.9350362938687, -7601.113033427362, -15100.860905749907, 0.012, -0.106, 0.988, 192.0, 0.0, 48.0, 126.0, 88.0, 15.0, 112.0, 0.0, 0.0, 0.0, 1.645923232974447E9, 0.0, 2022-02-27 11:53:52.974
246.0, -508.5915933360569, -2960.8461810167055, -2262.085945854896, -9177.827439049177, 66.02705312097706, 762.2391894148815, -4518.628659084876, -1388.8479934749596, -1542.4938848607403, -4050.359612746193, -3911.9576110789317, -2439.491741596668, -3104.277325186411, -1822.0024492743553, -7473.059889442908, -14651.121455564673, 0.012, -0.106, 0.988, 192.0, 0.0, 0.0, 0.0, 0.0, 0.0, 0.0, 0.0, 0.0, 0.0, 1.645923232981429E9, 0.0, 2022-02-27 11:53:52.981
248.0, 11.689962350125594, -2551.943367951318, -1896.813737966268, -8750.998526930634, 558.8606666160425, 990.4281485591113, -4390.061424977949, -1271.166058917768, -2000.3246665387949, -3714.278783116196, -3562.4880865202053, -2309.0693126999513, -2750.1139342920706, -1493.5882679925285, -7355.221492674529, -14463.277395162273, 0.012, -0.106, 0.988, 192.0, 0.0, 0.0, 0.0, 0.0, 0.0, 0.0, 0.0, 0.0, 0.0, 1.645923232988053E9, 0.0, 2022-02-27 11:53:52.988
250.0, -615.5893940436118, -3045.425182035587, -2385.981665370663, -9318.934001795531, -35.24870100601924, 634.7895425307206, -4706.293905531634, -1629.598633003072, -3211.811567760893, -4519.545080607543, -3860.459191853904, -2518.7957309240974, -3014.445664220532, -1797.527289095794, -7719.800796485043, -15279.473695692266, 0.012, -0.106, 0.988, 192.0, 0.0, 0.0, 0.0, 0.0, 0.0, 0.0, 0.0, 0.0, 0.0, 1.64592323299688E9, 0.0, 2022-02-27 11:53:52.996
252.0, -153.78000185251258, -2665.132601872993, -2000.0787973497866, -8882.51619130566, 385.0758534760301, 966.1988575695584, -4364.938064210184, -1210.5481279549751, -973.5302297508991, -3563.091583620499, -3697.5373265191706, -2303.4590248416694, -2916.634430484108, -1610.2196705603208, -7272.900017845634, -14201.896095501912, 0.012, -0.106, 0.988, 192.0, 0.0, 0.0, 0.0, 0.0, 0.0, 0.0, 0.0, 0.0, 0.0, 1.645923233003283E9, 0.0, 2022-02-27 11:53:53.003
254.0, -204.33964781041718, -2723.738875834808, -2116.6878481731237, -9020.046474939165, 305.2801257705839, 775.5161256213338, -4596.502136767165, -1539.7222685482823, -3325.738409249593, -4229.710010255577, -3601.246011405708, -2400.555002755523, -2753.1537715379923, -1560.2188182137988, -7593.759309501566, -15083.404193330312, 0.014, -0.108, 0.992, 192.0, 0.0, 56.0, 126.0, 80.0, 15.5, 0.0, 0.0, 0.0, 0.0, 1.645923233011484E9, 0.0, 2022-02-27 11:53:53.011
0.0, -452.71223219778926, -2899.445938997977, -2261.147172587773, -9187.215171720407, 72.35259680182897, 752.6502910435547, -4545.964842553716, -1415.893604265881, -1603.0671123346226, -4075.0135868803964, -3897.361921949616, -2433.7026397827435, -3095.47073787102, -1832.686583123992, -7490.784822795967, -14693.410956074114, 0.014, -0.108, 0.992, 192.0, 0.0, 0.0, 0.0, 0.0, 0.0, 0.0, 0.0, 0.0, 0.0, 1.645923233019375E9, 0.0, 2022-02-27 11:53:53.019
2.0, 103.08624542787618, -2462.6928523412766, -1885.2355343384188, -8746.25995710611, 550.3446519785705, 996.1948986285805, -4378.751442283564, -1254.8045819764832, -1906.4473398265052, -3670.245846539241, -3531.9109001053457, -2277.0392628954964, -2732.120780005548, -1486.6815789558386, -7341.5869285567915, -14441.372685596072, 0.014, -0.108, 0.992, 192.0, 0.0, 0.0, 0.0, 0.0, 0.0, 0.0, 0.0, 0.0, 0.0, 1.645923233025899E9, 0.0, 2022-02-27 11:53:53.025
4.0, -506.1329014459731, -2945.959919209471, -2375.0069588431074, -9311.870850547653, -54.27003553748555, 634.2978041527039, -4726.790455197151, -1640.0368976637005, -3198.780500743449, -4496.992170452138, -3821.9024326684994, -2490.0066840656623, -2993.2562104769004, -1786.9996174573444, -7717.364456339415, -15280.747745126218, 0.014, -0.108, 0.992, 192.0, 0.0, 0.0, 0.0, 0.0, 0.0, 0.0, 0.0, 0.0, 0.0, 1.645923233034095E9, 0.0, 2022-02-27 11:53:53.034
6.0, -56.43815474965033, -2570.204743171304, -2003.677428207091, -8875.85537145798, 385.142908709396, 949.0327178278826, -4366.167410155226, -1237.258462579067, -928.5808716512767, -3523.1713680233206, -3664.054413325121, -2268.4561930246587, -2906.8220146682283, -1608.2750687927091, -7270.4413259555495, -14202.968979235768, 0.014, -0.108, 0.992, 192.0, 0.0, 0.0, 0.0, 0.0, 0.0, 0.0, 0.0, 0.0, 0.0, 1.64592323304211E9, 0.0, 2022-02-27 11:53:53.042
8.0, -115.24559441156322, -2640.0762963385937, -2123.9745168655536, -9012.335123102084, 288.20339300672924, 783.3615879251466, -4596.1892123447915, -1543.4997133612292, -3282.510135473029, -4195.556544727868, -3570.8699906909455, -2376.3257117659705, -2753.265530260269, -1546.8971785184358, -7587.858448965365, -15070.104905379405, 0.012, -0.11, 0.99, 192.0, 0.0, 48.0, 126.0, 72.0, 15.0, 120.0, 0.0, 0.0, 0.0, 1.645923233055668E9, 0.0, 2022-02-27 11:53:53.055
10.0, -365.4063183553599, -2824.969926472894, -2257.0344516079967, -9176.598093104136, 60.19324781814192, 756.8300672566971, -4549.518769922111, -1442.7604011011604, -1570.1429927519553, -4030.5559671587907, -3874.0267007382754, -2404.2877440795596, -3099.9634385065365, -1820.817806818224, -7495.299875175939, -14687.264226348905, 0.012, -0.11, 0.99, 192.0, 0.0, 0.0, 0.0, 0.0, 0.0, 0.0, 0.0, 0.0, 0.0, 1.645923233063539E9, 0.0, 2022-02-27 11:53:53.063
12.0, 179.1492318092861, -2394.3859212858583, -1879.2899703133073, -8741.58844251495, 550.0987827895622, 987.276552590913, -4385.121689453326, -1257.6879570112178, -1886.7107494724692, -3641.3897444474396, -3505.535841648083, -2263.8740854113207, -2727.4716171588443, -1476.4221282508527, -7344.537358824892, -14451.743895023334, 0.012, -0.11, 0.99, 192.0, 0.0, 0.0, 0.0, 0.0, 0.0, 0.0, 0.0, 0.0, 0.0, 1.645923233071744E9, 0.0, 2022-02-27 11:53:53.071
14.0, -444.5985489605128, -2896.4284534965104, -2369.955464596208, -9316.74353083891, -57.01930010548832, 608.6603532624666, -4716.955687636815, -1653.6491100369824, -3211.6551055497057, -4497.08157742996, -3803.0152086037647, -2484.597561907478, -2984.159050483591, -1787.625466302093, -7715.799834227542, -15298.830306390562, 0.012, -0.11, 0.99, 192.0, 0.0, 0.0, 0.0, 0.0, 0.0, 0.0, 0.0, 0.0, 0.0, 1.64592323307876E9, 0.0, 2022-02-27 11:53:53.078
16.0, -7.577241370349094, -2523.4448937708016, -2005.8231956748004, -8882.002101183189, 375.88928650489885, 934.7276013764861, -4389.145003455282, -1236.0961718673911, -904.3962841506344, -3536.738876907692, -3656.0301370656657, -2271.406623292759, -2901.345837276678, -1616.1652345854325, -7270.195456766541, -14214.614238096981, 0.012, -0.11, 0.99, 192.0, 0.0, 0.0, 0.0, 0.0, 0.0, 0.0, 0.0, 0.0, 0.0, 1.645923233086147E9, 0.0, 2022-02-27 11:53:53.086
18.0, -47.92214011217834, -2579.9501037538175, -2110.384656236727, -9002.768576475213, 298.0381605670644, 802.9640678124509, -4611.522509041132, -1540.5492830931287, -3249.4072019347195, -4165.113468779739, -3554.2179410717417, -2352.9457870657193, -2744.101315033593, -1529.4851695877517, -7584.058652407963, -15064.382858798846, 0.012, -0.112, 0.994, 192.0, 0.0, 48.0, 126.0, 64.0, 15.5, 8.0, 0.0, 0.0, 0.0, 1.645923233094376E9, 0.0, 2022-02-27 11:53:53.094
20.0, -335.63379474089083, -2793.610429002098, -2270.244332581083, -9190.366767688605, 43.02710807646609, 735.5735582797001, -4561.588711927976, -1448.2589302371657, -1617.9980776307677, -4054.1370575591395, -3869.3551861471165, -2413.1613866283164, -3090.2180779240225, -1830.4514086784613, -7498.585581610869, -14722.691741310568, 0.012, -0.112, 0.994, 192.0, 0.0, 0.0, 0.0, 0.0, 0.0, 0.0, 0.0, 0.0, 0.0, 1.645923233102225E9, 0.0, 2022-02-27 11:53:53.102
22.0, 216.7448659831126, -2360.008938313596, -1881.1898685920082, -8736.87222443488, 550.0317275561962, 991.3222183373235, -4381.523058596023, -1242.8240469484385, -1829.780856344802, -3631.510273398194, -3510.341466705974, -2258.8672946533316, -2733.864216073062, -1485.4522330107968, -7334.814349986834, -14424.497118532316, 0.012, -0.112, 0.994, 192.0, 0.0, 0.0, 0.0, 0.0, 0.0, 0.0, 0.0, 0.0, 0.0, 1.645923233108229E9, 0.0, 2022-02-27 11:53:53.108
24.0, -385.25466743167254, -2839.8785400245833, -2359.7407173801325, -9298.057472474275, -41.99892783152197, 631.1685599289608, -4719.526138249175, -1655.5490083156835, -3239.2148064630996, -4481.658873755798, -3781.266961248751, -2473.0193582796287, -2967.864628775672, -1772.1804108834758, -7713.542308037557, -15295.388137744445, 0.012, -0.112, 0.994, 192.0, 0.0, 0.0, 0.0, 0.0, 0.0, 0.0, 0.0, 0.0, 0.0, 1.645923233115862E9, 0.0, 2022-02-27 11:53:53.115
26.0, 20.518901409971882, -2497.986256836207, -2009.421826532105, -8886.181877396331, 357.42674558481525, 927.3291739617794, -4389.077948221916, -1236.744372456595, -889.8229467657742, -3525.339487235485, -3655.8289713655677, -2265.081079611907, -2907.2019943239684, -1613.2371560617873, -7276.096317302742, -14216.178860208853, 0.012, -0.112, 0.994, 192.0, 0.0, 0.0, 0.0, 0.0, 0.0, 0.0, 0.0, 0.0, 0.0, 1.645923233125075E9, 0.0, 2022-02-27 11:53:53.125
28.0, 9.767712326969187, -2521.9920303812064, -2091.3633217052607, -8983.814297177112, 303.8943176143548, 797.9125735655515, -4608.370913072934, -1527.1829399088551, -3188.051663404902, -4132.569328852812, -3534.123722806421, -2342.7980950830097, -2724.744704335297, -1536.4589138578074, -7567.87598942232, -15029.089454303916, 0.012, -0.106, 0.992, 192.0, 0.0, 48.0, 126.0, 88.0, 15.5, 0.0, 0.0, 0.0, 0.0, 1.645923233131034E9, 0.0, 2022-02-27 11:53:53.131
30.0, -294.50658494312586, -2745.2412540008136, -2261.951835388164, -9186.030529264275, 36.343936484329284, 737.4511048139459, -4563.220389273213, -1447.1189912699451, -1618.3557055420526, -4041.5977289197126, -3853.3736888615717, -2398.0292556320737, -3086.2841708998885, -1814.492263137372, -7501.334846178872, -14719.696607553555, 0.012, -0.106, 0.992, 192.0, 0.0, 0.0, 0.0, 0.0, 0.0, 0.0, 0.0, 0.0, 0.0, 1.645923233138564E9, 0.0, 2022-02-27 11:53:53.138
32.0, 262.20831420520716, -2313.8972895022976, -1871.913894643056, -8730.949012154224, 550.2105415118386, 985.8013374568627, -4380.427823117712, -1261.1748291462457, -1785.6138093011152, -3593.512307824172, -3489.6213995959047, -2237.9013583542537, -2727.583375881121, -1480.736014930727, -7327.304163849851, -14418.775071951757, 0.012, -0.106, 0.992, 192.0, 0.0, 0.0, 0.0, 0.0, 0.0, 0.0, 0.0, 0.0, 0.0, 1.645923233146425E9, 0.0, 2022-02-27 11:53:53.146
34.0, -341.60171051045785, -2800.6959319944303, -2353.8622085883867, -9296.425795129036, -38.66851790768122, 618.4727690783465, -4730.322030821089, -1674.436232380418, -3241.114704741801, -4467.040832882027, -3757.819981315134, -2451.3828696468913, -2960.153276938591, -1760.3116345777078, -7717.163290639316, -15311.749614685728, 0.012, -0.106, 0.992, 192.0, 0.0, 0.0, 0.0, 0.0, 0.0, 0.0, 0.0, 0.0, 0.0, 1.645923233154665E9, 0.0, 2022-02-27 11:53:53.154
36.0, 58.2262943060749, -2465.7103378427432, -2008.4607015205268, -8890.674578031847, 339.2547773426506, 916.6226883676874, -4416.369428201846, -1257.6656052667624, -859.6257400066543, -3510.676742872804, -3634.728924599758, -2244.5174747130245, -2904.184508822502, -1613.0806938506, -7278.800878381834, -14228.67348535937, 0.012, -0.106, 0.992, 192.0, 0.0, 0.0, 0.0, 0.0, 0.0, 0.0, 0.0, 0.0, 0.0, 1.64592323316107E9, 0.0, 2022-02-27 11:53:53.161
38.0, 55.09705008233191, -2480.4848409277015, -2080.2768564554285, -8973.174866816385, 297.30055300003926, 786.669646104532, -4614.316477098046, -1531.3627161219974, -3156.491000234008, -4100.651037770634, -3514.5212429191165, -2328.403571653792, -2726.5328438917213, -1529.5969283100283, -7580.102393639374, -15031.525794449544, 0.01, -0.1, 0.994, 192.0, 0.0, 40.0, 126.0, 112.0, 15.5, 8.0, 0.0, 0.0, 0.0, 1.64592323317629E9, 0.0, 2022-02-27 11:53:53.176
40.0, -268.55620963051433, -2722.129550234026, -2264.432879022703, -9191.439651422459, 22.396447944217677, 717.870976671097, -4611.656619507864, -1475.2598375391767, -1665.7190520428483, -4044.3693452321704, -3840.946118944421, -2390.183793328261, -3090.7768715354055, -1827.3445161991735, -7528.782788369988, -14760.06385803984, 0.01, -0.1, 0.994, 192.0, 0.0, 0.0, 0.0, 0.0, 0.0, 0.0, 0.0, 0.0, 0.0, 1.645923233184163E9, 0.0, 2022-02-27 11:53:53.184
42.0, 292.2490587531398, -2282.8954199427867, -1865.7671649178465, -8723.595288228427, 546.813076354632, 993.4903375494883, -4413.262535722558, -1263.812334991972, -1721.0619713141884, -3572.7922407141023, -3473.1481639323433, -2225.8090646039327, -2725.415256668956, -1479.9313521303359, -7338.077704677308, -14406.012225867777, 0.01, -0.1, 0.994, 192.0, 0.0, 0.0, 0.0, 0.0, 0.0, 0.0, 0.0, 0.0, 0.0, 1.645923233190716E9, 0.0, 2022-02-27 11:53:53.190
44.0, -322.04393411206416, -2778.4335945169446, -2354.2868917330375, -9291.821335771243, -39.38377373025104, 610.2473271187935, -4733.205405855823, -1688.9648662763675, -3252.4023356917305, -4446.611338449877, -3742.821960785623, -2437.9941747181624, -2952.3525181236887, -1747.2135123268977, -7725.858119232431, -15311.45904200781, 0.01, -0.1, 0.994, 192.0, 0.0, 0.0, 0.0, 0.0, 0.0, 0.0, 0.0, 0.0, 0.0, 1.645923233198945E9, 0.0, 2022-02-27 11:53:53.198
46.0, 58.494515239538586, -2456.1661429603273, -2016.8202539468116, -8894.407319355883, 334.00211739565344, 902.4963858719333, -4406.333494941413, -1259.297282612, -862.3079493412912, -3501.981914279689, -3642.730849114758, -2244.7409921575777, -2919.3613433076553, -1627.117589368533, -7286.10989881872, -14229.656962115403, 0.011, -0.10400000000000001, 0.991, 192.0, 0.0, 48.0, 126.0, 80.0, 15.0, 112.0, 0.0, 0.0, 0.0, 1.645923233206788E9, 0.0, 2022-02-27 11:53:53.206
48.0, 74.56541950290436, -2464.8609715534417, -2071.4926208844927, -8968.972738858789, 304.05077982554195, 790.8941258065851, -4608.683837495308, -1535.766009779693, -3143.0576018163683, -4086.5694387637905, -3514.610649896938, -2327.0624669864737, -2737.8651783305622, -1531.027439955168, -7577.934274427209, -15025.4461199577, 0.011, -0.10400000000000001, 0.991, 192.0, 0.0, 0.0, 0.0, 0.0, 0.0, 0.0, 0.0, 0.0, 0.0, 1.645923233213903E9, 0.0, 2022-02-27 11:53:53.213
50.0, -256.9333025137547, -2707.377398893523, -2264.835210422899, -9193.96539854591, 14.61804087377082, 726.0740668861946, -4611.05312240757, -1493.9682476482687, -1682.147584217499, -4049.3984877346147, -3838.4650753098817, -2390.0049793726184, -3096.431862882598, -1827.0762952657099, -7535.421256473215, -14775.754782647466, 0.011, -0.10400000000000001, 0.991, 192.0, 0.0, 0.0, 0.0, 0.0, 0.0, 0.0, 0.0, 0.0, 0.0, 1.645923233221381E9, 0.0, 2022-02-27 11:53:53.221
52.0, 294.9312680877767, -2272.1442308597843, -1869.7904789198017, -8727.596250485927, 538.2300064837941, 972.1444215946701, -4395.559954113955, -1265.3099018704775, -1717.6645061569818, -3562.957473153767, -3471.4717830981954, -2217.896547066754, -2737.5299021637325, -1477.5173637291628, -7340.067009933831, -14411.264885814773, 0.011, -0.10400000000000001, 0.991, 192.0, 0.0, 0.0, 0.0, 0.0, 0.0, 0.0, 0.0, 0.0, 0.0, 1.645923233228588E9, 0.0, 2022-02-27 11:53:53.228
54.0, -312.34327701846087, -2760.105164063593, -2353.9963190551184, -9288.334463636216, -47.11747731178729, 615.5446905547012, -4755.937129966871, -1667.7754125327365, -3273.5694376909064, -4428.618184163354, -3741.234986929296, -2442.3751166314028, -2961.069698461258, -1751.3262333066743, -7731.021372201607, -15319.483318267265, 0.011, -0.10400000000000001, 0.991, 192.0, 0.0, 0.0, 0.0, 0.0, 0.0, 0.0, 0.0, 0.0, 0.0, 1.645923233236638E9, 0.0, 2022-02-27 11:53:53.236
56.0, 63.50130599752737, -2452.299291169559, -2014.518024267915, -8898.587095569026, 337.53369301959196, 910.5653656202991, -4409.865070565352, -1272.484811840631, -849.6121584906767, -3508.441568427273, -3646.217721249786, -2243.7798671459996, -2925.8433491996943, -1621.1273218545107, -7289.887343631666, -14230.752197593714, 0.010499999999999999, -0.10600000000000001, 0.9895, 192.0, 0.0, 40.0, 126.0, 80.0, 15.0, 112.0, 0.0, 0.0, 0.0, 1.645923233243661E9, 0.0, 2022-02-27 11:53:53.243
58.0, 98.86176572582313, -2438.1953404182605, -2060.249693423473, -8949.817293860591, 331.18579759428474, 812.6423731615989, -4602.402997303367, -1513.414265324386, -3097.840022783282, -4061.647243696123, -3504.0829782584883, -2314.858414513876, -2726.7116578473638, -1515.4706258142742, -7566.333719054905, -15009.330512205424, 0.010499999999999999, -0.10600000000000001, 0.9895, 192.0, 0.0, 0.0, 0.0, 0.0, 0.0, 0.0, 0.0, 0.0, 0.0, 1.645923233251021E9, 0.0, 2022-02-27 11:53:53.251
60.0, -273.0936137549417, -2718.0391809987045, -2272.5465622599795, -9202.190840505462, 12.18170072814235, 725.2470523413483, -4609.6896659957965, -1467.0343955796238, -1724.5711951936717, -4055.7463831599216, -3842.2872236117396, -2389.7367584391545, -3099.0917204727793, -1818.9626120284333, -7540.651564675756, -14789.769326420943, 0.010499999999999999, -0.10600000000000001, 0.9895, 192.0, 0.0, 0.0, 0.0, 0.0, 0.0, 0.0, 0.0, 0.0, 0.0, 1.645923233259953E9, 0.0, 2022-02-27 11:53:53.259
62.0, 279.4638609247042, -2289.243315368094, -1864.4484119949834, -8727.998581886122, 547.7071461328443, 978.4476135310666, -4391.000198245072, -1259.0514134229916, -1673.8103835356694, -3555.2237695722306, -3491.3648356634185, -2223.3280209693935, -2747.677594146442, -1482.926485887347, -7323.482015547993, -14386.745022147301, 0.010499999999999999, -0.10600000000000001, 0.9895, 192.0, 0.0, 0.0, 0.0, 0.0, 0.0, 0.0, 0.0, 0.0, 0.0, 1.645923233266177E9, 0.0, 2022-02-27 11:53:53.266
64.0, -321.95452713424294, -2772.286864791735, -2345.212083484183, -9289.541457836802, -40.814285375390696, 613.0189434312515, -4758.820505001606, -1670.077642211633, -3310.785092208993, -4452.646309452809, -3749.3486701665724, -2448.0971632119613, -2956.6664048035627, -1749.6051489836157, -7726.729837266188, -15320.198574089834, 0.010499999999999999, -0.10600000000000001, 0.9895, 192.0, 0.0, 0.0, 0.0, 0.0, 0.0, 0.0, 0.0, 0.0, 0.0, 1.645923233273649E9, 0.0, 2022-02-27 11:53:53.273
66.0, 43.54119819893816, -2462.558741874545, -2020.3071260818394, -8906.81253752858, 341.33348957699417, 906.0503132403271, -4441.962175603173, -1267.388614104821, -854.6636527375762, -3498.4950421446615, -3661.2604452682076, -2256.1403818297845, -2938.7179540059515, -1641.1991883753765, -7293.150698322142, -14239.715247120292, 0.01125, -0.10600000000000001, 0.98675, 192.0, 0.0, 48.0, 126.0, 88.0, 15.0, 96.0, 0.0, 0.0, 0.0, 1.645923233281748E9, 0.0, 2022-02-27 11:53:53.281
68.0, 93.45264356763883, -2443.7385730431765, -2048.582082817803, -8946.24101474774, 337.82426569751095, 803.8134341017526, -4588.410805274344, -1517.5493380486178, -3078.0587289403356, -4060.0155663508854, -3508.150995749354, -2318.2558796710828, -2732.2101869833696, -1522.3996665954194, -7558.175332328718, -14993.34901491988, 0.01125, -0.10600000000000001, 0.98675, 192.0, 0.0, 0.0, 0.0, 0.0, 0.0, 0.0, 0.0, 0.0, 0.0, 1.645923233289741E9, 0.0, 2022-02-27 11:53:53.289
70.0, -277.63101787936904, -2723.940041534906, -2275.988730906097, -9205.074215540197, 5.498529136005537, 710.2490318118372, -4637.137608186914, -1480.0431108526125, -1759.5740270106826, -4089.698682987533, -3849.4397818374377, -2402.4772527786795, -3098.2647059279334, -1832.8206935907237, -7540.226881531105, -14809.21534409706, 0.01125, -0.10600000000000001, 0.98675, 192.0, 0.0, 0.0, 0.0, 0.0, 0.0, 0.0, 0.0, 0.0, 0.0, 1.645923233303315E9, 0.0, 2022-02-27 11:53:53.303
72.0, 281.6990353702349, -2283.2977513429823, -1869.1199265861426, -8730.501977265118, 545.136695520484, 979.274628075913, -4390.061424977949, -1261.3312913574327, -1650.0057756907675, -3545.7466299231805, -3485.955713505234, -2222.0763232798963, -2751.0750593036487, -1480.1101660859783, -7328.533509794893, -14380.642995911003, 0.01125, -0.10600000000000001, 0.98675, 192.0, 0.0, 0.0, 0.0, 0.0, 0.0, 0.0, 0.0, 0.0, 0.0, 1.645923233311308E9, 0.0, 2022-02-27 11:53:53.311
74.0, -310.95746886223185, -2765.02254784376, -2341.434638671236, -9283.931169978521, -32.54413992692708, 621.5573098131788, -4737.541644280153, -1674.95032250289, -3341.2505199015764, -4458.994204878117, -3743.0678299746314, -2452.5898638474782, -2958.3204338932555, -1751.3485850511295, -7722.5947645419565, -15327.820518949095, 0.01125, -0.10600000000000001, 0.98675, 192.0, 0.0, 0.0, 0.0, 0.0, 0.0, 0.0, 0.0, 0.0, 0.0, 1.645923233319272E9, 0.0, 2022-02-27 11:53:53.319
76.0, 28.00673580249975, -2475.4109949363465, -2033.4276000771047, -8919.86595629048, 308.61053569442464, 903.3681039056902, -4427.679410896231, -1283.2136491791784, -865.5936557762213, -3535.50953096265, -3671.63165469547, -2260.54367548748, -2951.8160762567613, -1653.2691303812421, -7296.101128590242, -14249.460607702806, 0.011625, -0.10800000000000001, 0.985375, 192.0, 0.0, 48.0, 126.0, 72.0, 15.0, 96.0, 0.0, 0.0, 0.0, 1.645923233325954E9, 0.0, 2022-02-27 11:53:53.325
78.0, 107.75776001903535, -2432.942680471263, -2044.0446786933755, -8934.282831464152, 352.95639669375385, 822.6336029331211, -4590.444814019777, -1497.7009889723051, -3039.4796180104754, -4042.938833587031, -3507.6592573713374, -2318.3899901378145, -2733.841864328607, -1510.4638350562855, -7548.429971746204, -14964.716430272632, 0.011625, -0.10800000000000001, 0.985375, 192.0, 0.0, 0.0, 0.0, 0.0, 0.0, 0.0, 0.0, 0.0, 0.0, 1.645923233335362E9, 0.0, 2022-02-27 11:53:53.335
80.0, -286.7952331060449, -2732.0090212832715, -2286.605809522368, -9221.838023881677, 7.376075670251331, 693.0158368367955, -4613.020075919638, -1488.4473667678078, -1842.0743157952209, -4104.093206416751, -3853.977185961865, -2409.115720881906, -3102.1539094631567, -1839.6156239051372, -7553.548521226468, -14838.160853166683, 0.011625, -0.10800000000000001, 0.985375, 192.0, 0.0, 0.0, 0.0, 0.0, 0.0, 0.0, 0.0, 0.0, 0.0, 1.645923233341904E9, 0.0, 2022-02-27 11:53:53.341
82.0, 283.17425050428517, -2279.6767687412225, -1872.427984765528, -8731.708971465703, 550.3893554674811, 981.9121339216392, -4389.837907533397, -1216.4713402356315, -1579.374263211997, -3519.12570227691, -3494.3599694204295, -2225.6526023927454, -2762.8991321205062, -1492.895363914414, -7314.429559043594, -14351.228100207818, 0.011625, -0.10800000000000001, 0.985375, 192.0, 0.0, 0.0, 0.0, 0.0, 0.0, 0.0, 0.0, 0.0, 0.0, 1.645923233348971E9, 0.0, 2022-02-27 11:53:53.348
84.0, -300.67566641279063, -2754.8525041165954, -2340.5405688930236, -9271.235379127906, -28.923157325167338, 622.6301935470335, -4743.710725749818, -1656.2866158827087, -3359.422488143741, -4455.6637949542755, -3732.182530424897, -2446.3537271444475, -2950.609082056175, -1732.9978028533226, -7723.220613386705, -15315.683521709863, 0.011625, -0.10800000000000001, 0.985375, 192.0, 0.0, 0.0, 0.0, 0.0, 0.0, 0.0, 0.0, 0.0, 0.0, 1.645923233355766E9, 0.0, 2022-02-27 11:53:53.355
86.0, 19.848349076312672, -2482.3176839730363, -2042.0553734368532, -8932.897023307924, 296.47353845519285, 902.0493509828271, -4433.40145747679, -1269.8920094838154, -872.5450483018218, -3546.663051445848, -3680.6170559665034, -2271.2278093371165, -2964.243646173912, -1644.8872262105021, -7300.772643181401, -14251.695782148336, 0.012812500000000001, -0.10500000000000001, 0.9856875, 192.0, 0.0, 56.0, 126.0, 104.0, 15.0, 104.0, 0.0, 0.0, 0.0, 1.645923233363604E9, 0.0, 2022-02-27 11:53:53.363
88.0, 124.29805091596258, -2414.726008740188, -2036.7580100009454, -8918.10016847851, 349.3354140919941, 826.0534198347831, -4608.907354939861, -1490.280209813143, -3003.985047815448, -4017.9942867749082, -3497.5562688775385, -2310.276306900538, -2733.3054224616794, -1509.3015443446095, -7542.752628654555, -14940.263621838525, 0.012812500000000001, -0.10500000000000001, 0.9856875, 192.0, 0.0, 0.0, 0.0, 0.0, 0.0, 0.0, 0.0, 0.0, 0.0, 1.645923233371637E9, 0.0, 2022-02-27 11:53:53.371
90.0, -303.2014135362403, -2740.6814981319308, -2293.3560363478705, -9222.128596559596, 3.1068924792876818, 708.3938370220467, -4594.3116658105455, -1473.8069741495817, -1853.5407607007935, -4123.740389792966, -3856.748802274323, -2412.982572672674, -3116.526081147919, -1837.5145599263383, -7558.421201517725, -14832.751731008499, 0.012812500000000001, -0.10500000000000001, 0.9856875, 192.0, 0.0, 0.0, 0.0, 0.0, 0.0, 0.0, 0.0, 0.0, 0.0, 1.645923233378287E9, 0.0, 2022-02-27 11:53:53.378
92.0, 282.6601603818131, -2278.805050707466, -1870.9080661425671, -8729.20557608671, 538.5429309061684, 991.8586602042509, -4374.281093392503, -1239.068953879947, -1594.7746151417036, -3537.3200222635296, -3503.0100945246336, -2231.5311111844912, -2765.2684170327684, -1485.251067310699, -7310.048617130354, -14345.21548094934, 0.012812500000000001, -0.10500000000000001, 0.9856875, 192.0, 0.0, 0.0, 0.0, 0.0, 0.0, 0.0, 0.0, 0.0, 0.0, 1.645923233387723E9, 0.0, 2022-02-27 11:53:53.387
94.0, -280.5367446585589, -2737.261681230269, -2332.4492374002025, -9269.06725991574, -17.613174630781966, 627.8828534940307, -4755.288929377667, -1677.9454562599012, -3361.8588282893693, -4439.8164081354635, -3717.855062229045, -2439.2905758965703, -2939.0085266838705, -1719.1620730354873, -7721.76774999711, -15315.236486820757, 0.012812500000000001, -0.10500000000000001, 0.9856875, 192.0, 0.0, 0.0, 0.0, 0.0, 0.0, 0.0, 0.0, 0.0, 0.0, 1.645923233394216E9, 0.0, 2022-02-27 11:53:53.394
96.0, 31.560663170893573, -2472.259398968148, -2034.1428558996745, -8925.655058104403, 307.6270589383911, 904.217470194992, -4415.117730512349, -1270.003768206092, -843.8677601656628, -3531.1062373049544, -3665.395517992439, -2257.414431263737, -2949.603253555686, -1639.925138941424, -7299.744462936457, -14241.570441910082, 0.015406250000000002, -0.10350000000000001, 0.98484375, 192.0, 0.0, 72.0, 126.0, 104.0, 15.0, 96.0, 0.0, 0.0, 0.0, 1.645923233401238E9, 0.0, 2022-02-27 11:53:53.401
98.0, 126.37676315030613, -2421.2527181211376, -2025.7833034733897, -8915.105034721499, 364.8475247439772, 834.9941176169059, -4562.661595661831, -1462.2287705217327, -2983.1979254720122, -4016.3179059407603, -3495.45520489874, -2316.333629647926, -2717.6592013429645, -1511.5814222790507, -7535.130683795296, -14929.601839733345, 0.015406250000000002, -0.10350000000000001, 0.98484375, 192.0, 0.0, 0.0, 0.0, 0.0, 0.0, 0.0, 0.0, 0.0, 0.0, 1.645923233408956E9, 0.0, 2022-02-27 11:53:53.408
100.0, -305.1013118149414, -2749.8457133586066, -2302.0061614520746, -9229.795244907767, -20.027163031955126, 692.5240984587787, -4637.517587842654, -1473.8069741495817, -1923.233499912441, -4162.408907700647, -3864.683671555957, -2422.7055815107324, -3114.4473689135757, -1842.4319437065058, -7573.553332513969, -14853.360039396292, 0.015406250000000002, -0.10350000000000001, 0.98484375, 192.0, 0.0, 0.0, 0.0, 0.0, 0.0, 0.0, 0.0, 0.0, 0.0, 1.645923233423794E9, 0.0, 2022-02-27 11:53:53.423
102.0, 279.888544069355, -2287.566934533946, -1871.5115632428603, -8730.72549470967, 529.3787156794924, 984.5496397673655, -4400.030303005016, -1234.7103637111622, -1539.118771447989, -3531.0838855604993, -3502.1383764908765, -2230.994669317564, -2767.1236118225593, -1489.9449336463135, -7320.017495157421, -14328.921059241422, 0.015406250000000002, -0.10350000000000001, 0.98484375, 192.0, 0.0, 0.0, 0.0, 0.0, 0.0, 0.0, 0.0, 0.0, 0.0, 1.645923233430882E9, 0.0, 2022-02-27 11:53:53.430
104.0, -287.7787098620784, -2756.551236695199, -2325.274327430049, -9270.967158194442, -22.44115143312829, 620.9985162017962, -4735.12765587898, -1664.4897060978064, -3398.67215140726, -4456.4237542657565, -3721.9454314643663, -2453.081602225495, -2929.7772562238288, -1722.5148347037834, -7728.540328567068, -15316.622294976985, 0.015406250000000002, -0.10350000000000001, 0.98484375, 192.0, 0.0, 0.0, 0.0, 0.0, 0.0, 0.0, 0.0, 0.0, 0.0, 1.645923233438369E9, 0.0, 2022-02-27 11:53:53.438
106.0, -2.3692849122625486, -2511.7772831651314, -2052.6948037975794, -8951.985413072754, 278.72625335767907, 871.0698331677715, -4442.252748281092, -1280.0620532109801, -877.0153971928833, -3580.056557662077, -3695.7715387072017, -2290.763233991055, -2970.055099732292, -1679.0853952271218, -7314.273096832407, -14271.790000413657, 0.014703125000000001, -0.10075, 0.985421875, 192.0, 0.0, 56.0, 126.0, 120.0, 15.0, 104.0, 0.0, 0.0, 0.0, 1.645923233446581E9, 0.0, 2022-02-27 11:53:53.446
108.0, 129.34954516286197, -2428.293517624559, -2017.8931376806663, -8912.512232364683, 377.1186324499408, 817.9844400864173, -4564.986177085183, -1482.345340531509, -2945.53523606482, -4016.6084786186793, -3503.412425924829, -2328.4482751427026, -2725.191739224403, -1533.3743731229752, -7535.577718684402, -14917.084862838372, 0.014703125000000001, -0.10075, 0.985421875, 192.0, 0.0, 0.0, 0.0, 0.0, 0.0, 0.0, 0.0, 0.0, 0.0, 1.645923233454508E9, 0.0, 2022-02-27 11:53:53.454
110.0, -310.26456478411734, -2762.2509315313023, -2304.7107225311665, -9239.652364212558, -28.1631980136869, 694.0440170817396, -4643.01611697866, -1506.3734658209642, -1967.9369888230551, -4175.752899140465, -3865.8906657565435, -2437.390677617869, -3110.3122961893437, -1850.5456269437823, -7584.081004152418, -14884.652481633722, 0.014703125000000001, -0.10075, 0.985421875, 192.0, 0.0, 0.0, 0.0, 0.0, 0.0, 0.0, 0.0, 0.0, 0.0, 1.645923233461133E9, 0.0, 2022-02-27 11:53:53.461
112.0, 278.03334927956456, -2298.631048039323, -1870.7963074202905, -8735.709933723205, 519.3874859079702, 973.6866919620862, -4384.987578986595, -1237.3478695568883, -1503.2889250861317, -3532.3802867389068, -3510.386170194885, -2239.465980466125, -2768.218847300869, -1506.9769629212574, -7312.037922386876, -14320.337989370584, 0.014703125000000001, -0.10075, 0.985421875, 192.0, 0.0, 0.0, 0.0, 0.0, 0.0, 0.0, 0.0, 0.0, 0.0, 1.645923233469231E9, 0.0, 2022-02-27 11:53:53.469
114.0, -274.792346333545, -2748.5493121801987, -2324.8719960298536, -9265.178056380517, -27.38088695775115, 612.8624812200643, -4754.819542744105, -1700.3642559485743, -3396.8616601063804, -4446.11960007186, -3712.7365127487797, -2449.885302768386, -2918.8472531851835, -1728.661564428993, -7724.896994220852, -15321.897306668438, 0.014703125000000001, -0.10075, 0.985421875, 192.0, 0.0, 0.0, 0.0, 0.0, 0.0, 0.0, 0.0, 0.0, 0.0, 1.645923233476338E9, 0.0, 2022-02-27 11:53:53.476
116.0, 4.604459357793255, -2511.263193042659, -2057.0086904774535, -8951.91835783939, 275.86523006739975, 872.4779930684559, -4444.130294815337, -1260.8172012349607, -864.7666412313749, -3582.09056640751, -3689.7365677042685, -2279.6544169967674, -2966.501172363898, -1669.0718137111444, -7308.8863264186775, -14263.54220670965, 0.012, -0.10200000000000001, 0.988, 192.0, 0.0, 48.0, 126.0, 104.0, 15.0, 112.0, 0.0, 0.0, 0.0, 1.645923233483246E9, 0.0, 2022-02-27 11:53:53.483
118.0, 145.35339419286183, -2415.754188985132, -2014.518024267915, -8900.889325247923, 381.47722261872565, 840.6938124530093, -4574.820944645518, -1448.6836133818167, -2935.365192337655, -4011.6687430940565, -3504.1723852363093, -2324.380257651837, -2724.58824212411, -1516.2976403591206, -7530.950907582153, -14902.064490564406, 0.012, -0.10200000000000001, 0.988, 192.0, 0.0, 0.0, 0.0, 0.0, 0.0, 0.0, 0.0, 0.0, 0.0, 1.645923233490846E9, 0.0, 2022-02-27 11:53:53.490
120.0, -309.2140327947179, -2757.132382051037, -2309.136367933317, -9246.40259103806, -34.98048007255555, 672.7204528713767, -4652.15798046088, -1517.8399107265368, -2038.993184446476, -4204.83251867682, -3867.4105843795046, -2434.3508403719475, -3106.3560374207545, -1850.3668129881398, -7595.212172891162, -14914.536763970467, 0.012, -0.10200000000000001, 0.988, 192.0, 0.0, 0.0, 0.0, 0.0, 0.0, 0.0, 0.0, 0.0, 0.0, 1.645923233498847E9, 0.0, 2022-02-27 11:53:53.498
122.0, 282.5931051484472, -2290.696178757689, -1867.1082695851649, -8741.454332048217, 523.3213929321042, 977.8441164307734, -4377.164468427238, -1245.4392010497095, -1444.861465079959, -3513.358952207441, -3506.3405044484743, -2227.507797182536, -2767.950626367405, -1508.4298263108524, -7303.5442594938595, -14311.039663677177, 0.012, -0.10200000000000001, 0.988, 192.0, 0.0, 0.0, 0.0, 0.0, 0.0, 0.0, 0.0, 0.0, 0.0, 1.645923233506799E9, 0.0, 2022-02-27 11:53:53.506
124.0, -270.74668058713445, -2742.7155068773636, -2324.8943477743087, -9264.283986602306, -14.752151340502662, 623.7254290253436, -4760.362775369022, -1670.9493602453902, -3407.7022561672043, -4445.203178549192, -3703.0582073996316, -2441.0563637085397, -2906.352628034667, -1722.2466137703198, -7721.454825574735, -15318.70100721133, 0.012, -0.10200000000000001, 0.988, 192.0, 0.0, 0.0, 0.0, 0.0, 0.0, 0.0, 0.0, 0.0, 0.0, 1.645923233513257E9, 0.0, 2022-02-27 11:53:53.513
126.0, -4.895032035712247, -2513.632477954922, -2059.1991614340736, -8957.998032331232, 267.4833258966596, 875.9425134590285, -4438.005916834583, -1290.679131827251, -877.5518390598106, -3599.0778921935434, -3702.6111725105256, -2285.1976496216835, -2972.0667567332694, -1676.2243719368425, -7310.316838063817, -14274.583968470572, 0.012, -0.098, 0.99, 192.0, 0.0, 48.0, 126.0, 120.0, 15.0, 120.0, 0.0, 0.0, 0.0, 1.645923233521535E9, 0.0, 2022-02-27 11:53:53.521
128.0, 154.65171988626957, -2403.3489708124366, -2005.130291596686, -8901.090490948021, 380.3149319070497, 843.085449109727, -4556.738383381175, -1473.7846224051266, -2906.307924545756, -4000.5375743553136, -3502.607763124438, -2318.278231415538, -2715.7145995753526, -1513.5036723022072, -7518.277468475994, -14892.632054404266, 0.012, -0.098, 0.99, 192.0, 0.0, 0.0, 0.0, 0.0, 0.0, 0.0, 0.0, 0.0, 0.0, 1.645923233529368E9, 0.0, 2022-02-27 11:53:53.529
130.0, -304.9895530926649, -2758.4958384628103, -2306.2976963874935, -9250.671774229024, -36.52275043997174, 674.709758127899, -4639.931576243827, -1526.0430009416343, -2023.4587220500377, -4197.009408117462, -3861.4426686099378, -2437.2789188955926, -3094.263743670433, -1843.3930687180841, -7586.115012897852, -14911.00518834653, 0.012, -0.098, 0.99, 192.0, 0.0, 0.0, 0.0, 0.0, 0.0, 0.0, 0.0, 0.0, 0.0, 1.645923233536399E9, 0.0, 2022-02-27 11:53:53.536
132.0, 278.01099753510925, -2293.177222392228, -1877.2559615678742, -8738.459198291206, 518.6945818298557, 982.7167967220303, -4381.612465573843, -1238.1748841017347, -1455.47854369623, -3519.9527168217564, -3505.3570276924406, -2231.44170420667, -2762.675614675953, -1499.0420936396235, -7300.415015270116, -14305.675245007902, 0.012, -0.098, 0.99, 192.0, 0.0, 0.0, 0.0, 0.0, 0.0, 0.0, 0.0, 0.0, 0.0, 1.645923233551213E9, 0.0, 2022-02-27 11:53:53.551
134.0, -267.63978810784675, -2744.123666778048, -2322.212138439672, -9258.472533043925, -20.898881065712104, 622.876062736042, -4752.60672004303, -1676.2690754257533, -3432.0880093679443, -4446.5666349609655, -3704.756939978235, -2451.2264074357045, -2905.1679855785355, -1721.4866544588394, -7719.3090581070255, -15315.571762987587, 0.012, -0.098, 0.99, 192.0, 0.0, 0.0, 0.0, 0.0, 0.0, 0.0, 0.0, 0.0, 0.0, 1.645923233559172E9, 0.0, 2022-02-27 11:53:53.559
136.0, -17.12143625276521, -2523.109617603972, -2069.0786324833193, -8968.413945247406, 251.16655244428546, 863.7831644753414, -4467.778440449052, -1305.0736552564688, -892.3933973781345, -3609.449101620806, -3714.9046319609442, -2291.7020072581777, -2979.4204806590656, -1687.7131685868703, -7317.961134667532, -14281.311843551619, 0.012, -0.10200000000000001, 0.99, 192.0, 0.0, 48.0, 126.0, 104.0, 15.0, 120.0, 0.0, 0.0, 0.0, 1.645923233566147E9, 0.0, 2022-02-27 11:53:53.566
138.0, 163.637121157303, -2400.6667614778, -1995.0273031028871, -8883.365557594963, 393.12248147994063, 848.9192544125623, -4559.219427015713, -1458.7195466422495, -2863.5043339138433, -3976.5318008103136, -3498.316228189019, -2310.9468592341973, -2712.942983262895, -1503.2442215972212, -7510.074378260896, -14864.602966857312, 0.012, -0.10200000000000001, 0.99, 192.0, 0.0, 0.0, 0.0, 0.0, 0.0, 0.0, 0.0, 0.0, 0.0, 1.645923233573851E9, 0.0, 2022-02-27 11:53:53.573
140.0, -320.501663744648, -2775.058481104193, -2314.657248813778, -9261.601777267668, -45.910483111200705, 672.9439703159297, -4638.657526809875, -1542.896216260936, -2097.1077200302743, -4234.158007402183, -3867.0976599571304, -2451.9416632582743, -3101.170432707123, -1850.8361996217013, -7591.83705947841, -14933.580450246389, 0.012, -0.10200000000000001, 0.99, 192.0, 0.0, 0.0, 0.0, 0.0, 0.0, 0.0, 0.0, 0.0, 0.0, 1.645923233581836E9, 0.0, 2022-02-27 11:53:53.581
142.0, 266.5222008850814, -2306.78943476551, -1875.1325458446202, -8746.170550128289, 502.10958744401785, 976.6147704857315, -4399.404454160268, -1240.5665207584525, -1418.8216827895264, -3521.807911611547, -3514.0742080300106, -2235.6214804198125, -2771.906885135995, -1513.9507071913133, -7293.351864022239, -14294.566428013615, 0.012, -0.10200000000000001, 0.99, 192.0, 0.0, 0.0, 0.0, 0.0, 0.0, 0.0, 0.0, 0.0, 0.0, 1.645923233589888E9, 0.0, 2022-02-27 11:53:53.589
144.0, -250.987738488643, -2729.0809427596264, -2305.2248126536388, -9248.905986417054, -7.845462303812779, 625.2676993927598, -4744.962423439315, -1691.177688977443, -3447.44365780874, -4440.375201746846, -3691.480003771783, -2440.2293491636933, -2894.4391482399883, -1704.1640525059763, -7716.895069705853, -15311.257876307713, 0.012, -0.10200000000000001, 0.99, 192.0, 0.0, 0.0, 0.0, 0.0, 0.0, 0.0, 0.0, 0.0, 0.0, 1.645923233596497E9, 0.0, 2022-02-27 11:53:53.596
146.0, -36.589805673337665, -2539.8063707120864, -2080.9697605335427, -8983.63548322147, 232.72636326865714, 853.1437341146153, -4455.283815298536, -1317.4118181957983, -908.4643016415002, -3610.343171399018, -3717.475082573305, -2300.642705040301, -2984.539030139331, -1699.9395728039233, -7320.218660857518, -14297.762727470725, 0.014, -0.1, 0.992, 192.0, 0.0, 56.0, 126.0, 112.0, 15.5, 0.0, 0.0, 0.0, 0.0, 1.645923233603562E9, 0.0, 2022-02-27 11:53:53.603
148.0, 162.00544381206558, -2404.6677237352997, -1988.7464629109459, -8876.950606936289, 388.11569072195186, 849.9474346575064, -4542.321508207501, -1447.990709303702, -2821.8406822491506, -3960.0138616578415, -3496.125757232399, -2318.6805628157335, -2714.4629018858554, -1504.831195453548, -7497.95973276612, -14836.640934543722, 0.014, -0.1, 0.992, 192.0, 0.0, 0.0, 0.0, 0.0, 0.0, 0.0, 0.0, 0.0, 0.0, 1.645923233611471E9, 0.0, 2022-02-27 11:53:53.611
150.0, -330.0458586270641, -2781.920466651972, -2316.2218709256495, -9262.764067979344, -63.83658216435697, 658.0577085086952, -4663.177390477346, -1554.3179576775979, -2135.4409617711262, -4239.0083359489845, -3866.1812384344626, -2444.230311421193, -3101.3492466627654, -1855.6418246795924, -7597.827326992432, -14941.269450339014, 0.014, -0.1, 0.992, 192.0, 0.0, 0.0, 0.0, 0.0, 0.0, 0.0, 0.0, 0.0, 0.0, 1.645923233618504E9, 0.0, 2022-02-27 11:53:53.618
152.0, 258.8332007924558, -2313.7408272911107, -1876.4065952785727, -8750.462085063707, 498.8015292646324, 962.7119854345304, -4402.444291406189, -1255.4304308212318, -1404.024827960113, -3516.018809797622, -3514.7894638525804, -2230.279413494994, -2778.6571119614973, -1515.5600327920954, -7293.888305889167, -14285.625730231492, 0.014, -0.1, 0.992, 192.0, 0.0, 0.0, 0.0, 0.0, 0.0, 0.0, 0.0, 0.0, 0.0, 1.645923233626136E9, 0.0, 2022-02-27 11:53:53.626
154.0, -257.9614827586988, -2735.9429283074055, -2307.3258766324375, -9248.59306199468, -20.31773570987412, 623.2783941362375, -4765.034289960181, -1696.3856454355296, -3462.195809149243, -4428.64053590781, -3686.495564758249, -2442.1292474423944, -2895.4226249960216, -1704.1417007615212, -7720.538404052068, -15313.783623431162, 0.014, -0.1, 0.992, 192.0, 0.0, 0.0, 0.0, 0.0, 0.0, 0.0, 0.0, 0.0, 0.0, 1.645923233634022E9, 0.0, 2022-02-27 11:53:53.634
156.0, -46.64809067822584, -2549.9317109503404, -2084.099004757286, -8978.338119785562, 210.86635719136683, 852.249664336403, -4460.201199078703, -1308.7616930915945, -915.5051011449219, -3630.7503140867134, -3725.722876277313, -2300.9109259737643, -2997.145414012124, -1693.7704913342586, -7327.4382743165825, -14296.354567570039, 0.012, -0.10400000000000001, 0.992, 192.0, 0.0, 48.0, 126.0, 96.0, 15.5, 0.0, 0.0, 0.0, 0.0, 1.64592323364197E9, 0.0, 2022-02-27 11:53:53.641
158.0, 167.54867643698174, -2394.9894183861516, -1984.9466663535436, -8864.344223063496, 381.16429819635135, 854.5965975042102, -4549.764639111118, -1453.4892384397076, -2814.0175716897934, -3948.100381863163, -3500.283181701086, -2307.6611527992673, -2724.4764834018333, -1501.1655093628776, -7500.463128145115, -14830.047169929407, 0.012, -0.10400000000000001, 0.992, 192.0, 0.0, 0.0, 0.0, 0.0, 0.0, 0.0, 0.0, 0.0, 0.0, 1.645923233648736E9, 0.0, 2022-02-27 11:53:53.648
160.0, -337.9136726753322, -2785.2061730869023, -2326.07899023044, -9265.669794758534, -80.6897974836585, 658.4153364199801, -4678.287169729134, -1566.6114171280167, -2187.9452094966423, -4219.428207806135, -3870.361014647605, -2446.174913188805, -3115.0285142694133, -1864.0460805947878, -7615.7087225566775, -14966.571625062423, 0.012, -0.10400000000000001, 0.992, 192.0, 0.0, 0.0, 0.0, 0.0, 0.0, 0.0, 0.0, 0.0, 0.0, 1.645923233656675E9, 0.0, 2022-02-27 11:53:53.656
162.0, 250.2724826660732, -2313.271440657549, -1883.0003598928881, -8747.176378628776, 491.6936745278448, 980.7498432099633, -4399.538564627, -1247.9649481731592, -1377.0686241470128, -3512.1743097513095, -3522.456112200751, -2234.3921344747705, -2796.1138243810924, -1509.7709309781708, -7298.91744839161, -14277.847323161046, 0.012, -0.10400000000000001, 0.992, 192.0, 0.0, 0.0, 0.0, 0.0, 0.0, 0.0, 0.0, 0.0, 0.0, 1.645923233671753E9, 0.0, 2022-02-27 11:53:53.671
164.0, -231.9440522127214, -2713.769997807741, -2292.0596351694626, -9227.582422206691, -6.102026236298828, 643.484371123835, -4751.667946775907, -1685.6791598414375, -3477.9537889902344, -4424.751332372586, -3678.3148262876066, -2427.9358897132743, -2893.4556714839546, -1683.9133720294683, -7715.263392360615, -15305.93816112735, 0.012, -0.10400000000000001, 0.992, 192.0, 0.0, 0.0, 0.0, 0.0, 0.0, 0.0, 0.0, 0.0, 0.0, 1.645923233678296E9, 0.0, 2022-02-27 11:53:53.678
166.0, -53.97946285956655, -2545.88604520393, -2094.537269417914, -8993.626712992993, 197.32120005145075, 848.0922398677159, -4462.346966546413, -1316.7636176065944, -937.6780316445866, -3635.3547734445065, -3728.4274373564053, -2292.3502078473816, -3006.8684228501825, -1701.1018635155992, -7333.629707530703, -14317.745187013768, 0.008, -0.10400000000000001, 0.99, 192.0, 0.0, 32.0, 126.0, 96.0, 15.0, 120.0, 0.0, 0.0, 0.0, 1.645923233686285E9, 0.0, 2022-02-27 11:53:53.686
168.0, 190.28040054802904, -2368.502601206613, -1973.1896487700521, -8852.408391524363, 394.9329727808205, 871.7180337569754, -4551.552778667543, -1440.8157993335485, -2753.064364560171, -3907.0849307876747, -3486.7603763056254, -2291.88082121382, -2723.358896179068, -1487.9779801342465, -7491.187154196162, -14803.605056238779, 0.008, -0.10400000000000001, 0.99, 192.0, 0.0, 0.0, 0.0, 0.0, 0.0, 0.0, 0.0, 0.0, 0.0, 1.645923233694192E9, 0.0, 2022-02-27 11:53:53.694
170.0, -336.50551277464785, -2778.0759666056597, -2331.532815877535, -9274.40932684056, -88.53525978747128, 657.4318596639466, -4683.897457587416, -1564.3315391935753, -2267.6515302242674, -4257.448525124612, -3860.8615232540997, -2443.7832765320873, -3108.367694421732, -1843.616586162637, -7626.571670361957, -14991.58322710791, 0.008, -0.10400000000000001, 0.99, 192.0, 0.0, 0.0, 0.0, 0.0, 0.0, 0.0, 0.0, 0.0, 0.0, 1.64592323370138E9, 0.0, 2022-02-27 11:53:53.701
172.0, 250.87597976636647, -2308.2870016440156, -1885.2355343384188, -8755.647689777337, 472.1806016183617, 975.6759972186086, -4369.073136934417, -1242.332308570422, -1310.0133907810916, -3490.2696001851086, -3526.8147023695356, -2229.4300472056925, -2804.5851355296536, -1514.5318525471512, -7287.58511395277, -14257.864863618, 0.008, -0.10400000000000001, 0.99, 192.0, 0.0, 0.0, 0.0, 0.0, 0.0, 0.0, 0.0, 0.0, 0.0, 1.645923233708873E9, 0.0, 2022-02-27 11:53:53.708
174.0, -227.89838646631082, -2708.4726343718335, -2292.461966569658, -9235.651401955058, -5.207956458086546, 627.8605017495754, -4743.330746094078, -1687.9143342869681, -3465.0121289506114, -4406.758178086064, -3669.7094046723137, -2436.9212909843077, -2887.1077760586472, -1681.432328394929, -7707.730854479177, -15301.288998280645, 0.008, -0.10400000000000001, 0.99, 192.0, 0.0, 0.0, 0.0, 0.0, 0.0, 0.0, 0.0, 0.0, 0.0, 1.645923233716856E9, 0.0, 2022-02-27 11:53:53.716
176.0, -42.021279575977275, -2537.705306733287, -2082.132051245219, -8993.224381592796, 207.40183680079423, 846.0358793778277, -4465.610321236887, -1316.6295071398624, -909.0007435084276, -3628.8057123191015, -3717.6538965289474, -2295.9711904491414, -3001.1910797585347, -1708.0532560411998, -7332.936803452588, -14319.466271336827, 0.008, -0.10400000000000001, 0.99, 192.0, 0.0, 32.0, 126.0, 96.0, 15.0, 120.0, 0.0, 0.0, 0.0, 1.645923233723938E9, 0.0, 2022-02-27 11:53:53.723
178.0, 200.80807218647865, -2360.947711580719, -1956.5152474063932, -8849.390906022896, 409.1933857433064, 878.8035367493078, -4547.864740832418, -1437.6865551098056, -2716.474558886833, -3904.112148775119, -3472.634073809871, -2296.150004404784, -2712.1159687180484, -1489.766119690671, -7485.755680293522, -14801.615750982255, 0.008, -0.10400000000000001, 0.99, 192.0, 0.0, 0.0, 0.0, 0.0, 0.0, 0.0, 0.0, 0.0, 0.0, 1.645923233731062E9, 0.0, 2022-02-27 11:53:53.731
180.0, -340.3276610765053, -2782.546315496721, -2321.8768622728426, -9275.571617552236, -81.47210853959425, 651.2851299387372, -4664.965530033771, -1562.3645856815083, -2248.630195692801, -4267.08212698485, -3851.8761219830662, -2443.582110831989, -3100.3881216511872, -1846.5446646862824, -7623.17420520475, -14998.06523299995, 0.008, -0.10400000000000001, 0.99, 192.0, 0.0, 0.0, 0.0, 0.0, 0.0, 0.0, 0.0, 0.0, 0.0, 1.645923233738602E9, 0.0, 2022-02-27 11:53:53.738
182.0, 240.1694941722744, -2317.495920359602, -1880.4522610249833, -8756.899387466836, 478.7967179771326, 974.469003018022, -4399.292695437992, -1239.7395062136063, -1305.16306223429, -3481.9100477588236, -3518.924536576812, -2231.5311111844912, -2796.8514319481174, -1513.5483757911177, -7284.67938717358, -14258.15543629592, 0.008, -0.10400000000000001, 0.99, 192.0, 0.0, 0.0, 0.0, 0.0, 0.0, 0.0, 0.0, 0.0, 0.0, 1.645923233746543E9, 0.0, 2022-02-27 11:53:53.746
184.0, -231.49701732361524, -2705.812776781652, -2280.6825972417114, -9222.687390170979, 10.795892571913312, 635.5942053311117, -4738.994507669748, -1685.4109389079738, -3473.8410680104575, -4394.10709072436, -3662.0427563241433, -2430.4839885811793, -2877.7423951318738, -1675.6655783254598, -7714.48108130468, -15299.769079657684, 0.012, -0.10600000000000001, 0.99, 192.0, 0.0, 64.0, 126.0, 80.0, 15.0, 120.0, 0.0, 0.0, 0.0, 1.645923233753626E9, 0.0, 2022-02-27 11:53:53.753
186.0, -72.55376250192673, -2565.0191384576724, -2089.217554237551, -9005.249620109751, 184.8265749009341, 840.3585362861796, -4474.416908552278, -1324.7208386326836, -933.7664763649078, -3659.5170092006933, -3729.209748412341, -2301.4473678406916, -3010.8023298743165, -1711.3613142205852, -7337.0048209434535, -14334.687809310892, 0.012, -0.10600000000000001, 0.99, 192.0, 0.0, 0.0, 0.0, 0.0, 0.0, 0.0, 0.0, 0.0, 0.0, 1.64592323376117E9, 0.0, 2022-02-27 11:53:53.761
188.0, 188.44755750269385, -2375.6775111767665, -1946.1440379791306, -8842.08188558601, 412.81436834506616, 885.0173217078832, -4526.138845221859, -1432.9479852852805, -2680.711767758342, -3895.663189371013, -3476.7467947896475, -2303.50372833058, -2715.6698960864423, -1494.3929307929195, -7475.9432644776425, -14781.901512372675, 0.012, -0.10600000000000001, 0.99, 192.0, 0.0, 0.0, 0.0, 0.0, 0.0, 0.0, 0.0, 0.0, 0.0, 1.645923233769209E9, 0.0, 2022-02-27 11:53:53.769
190.0, -365.38396661090457, -2801.925277939472, -2326.503673375091, -9281.941864721997, -92.737387745069, 641.2044931893937, -4679.203591251801, -1593.992304085768, -2344.362717194881, -4282.5048306590115, -3856.4358778519486, -2454.042727237073, -3100.499880373464, -1840.8896733390898, -7635.333554188437, -15033.40334098379, 0.012, -0.10600000000000001, 0.99, 192.0, 0.0, 0.0, 0.0, 0.0, 0.0, 0.0, 0.0, 0.0, 0.0, 1.645923233777184E9, 0.0, 2022-02-27 11:53:53.777
192.0, 216.7672177275679, -2332.762161822577, -1881.1228133586424, -8760.16274215731, 467.2632178381941, 968.9481221375612, -4383.534715597, -1237.5043317680754, -1268.8861809833265, -3487.900315272846, -3537.789408897091, -2244.0033845905527, -2814.866937979095, -1543.0973819610338, -7282.287750516863, -14251.852244359523, 0.012, -0.10600000000000001, 0.99, 192.0, 0.0, 0.0, 0.0, 0.0, 0.0, 0.0, 0.0, 0.0, 0.0, 1.64592323378389E9, 0.0, 2022-02-27 11:53:53.783
194.0, -236.45910459269342, -2717.748608320786, -2272.92654191572, -9211.355055732138, 6.079674491843521, 647.1053537255948, -4755.646557288952, -1663.8191537641471, -3478.244361668153, -4400.63380010531, -3661.2827970126627, -2431.5121688261233, -2873.1379357740802, -1681.9687702618564, -7704.2216305996935, -15285.26279750619, 0.013000000000000001, -0.10500000000000001, 0.99, 192.0, 0.0, 56.0, 126.0, 96.0, 15.0, 120.0, 0.0, 0.0, 0.0, 1.645923233799265E9, 0.0, 2022-02-27 11:53:53.799
196.0, -83.81904170740148, -2575.2785891626586, -2092.547964161392, -9005.406082320938, 183.39606325579445, 835.7317251839311, -4488.923190703773, -1327.2242340116782, -939.6449851566537, -3662.3333290020623, -3736.2505479157626, -2306.543565576502, -3016.3232107547774, -1707.561517663183, -7347.331326881806, -14334.330181399606, 0.013000000000000001, -0.10500000000000001, 0.99, 192.0, 0.0, 0.0, 0.0, 0.0, 0.0, 0.0, 0.0, 0.0, 0.0, 1.645923233806892E9, 0.0, 2022-02-27 11:53:53.806
198.0, 189.9004208922888, -2375.23047628766, -1944.1547327226083, -8831.285993014097, 422.06799054956326, 886.537240330844, -4507.408083368312, -1412.2726216641215, -2649.6651947099203, -3871.232732681362, -3477.842030267958, -2297.8487369833874, -2719.1791199659256, -1493.051826125601, -7472.523447575981, -14765.383573220202, 0.013000000000000001, -0.10500000000000001, 0.99, 192.0, 0.0, 0.0, 0.0, 0.0, 0.0, 0.0, 0.0, 0.0, 0.0, 1.645923233813463E9, 0.0, 2022-02-27 11:53:53.813
200.0, -368.8708387459325, -2804.6298390185643, -2328.4259233982475, -9283.841763000699, -84.57900101888193, 635.325984397648, -4672.0286812816485, -1580.6483126459495, -2358.7795923685544, -4303.202546024626, -3857.7099272859014, -2460.9270645293077, -3104.970229264525, -1852.1549525445644, -7639.781551335043, -15034.856204373385, 0.013000000000000001, -0.10500000000000001, 0.99, 192.0, 0.0, 0.0, 0.0, 0.0, 0.0, 0.0, 0.0, 0.0, 0.0, 1.645923233821312E9, 0.0, 2022-02-27 11:53:53.821
202.0, 213.52621478154836, -2346.4861329181354, -1878.5747144907373, -8759.581596801472, 464.04456663662995, 963.404889512645, -4394.554125613467, -1245.5286080275307, -1253.418773820254, -3479.8536872689356, -3529.832187871002, -2238.370744987815, -2816.6103740466087, -1533.3967248674305, -7285.551105207337, -14250.935822836856, 0.013000000000000001, -0.10500000000000001, 0.99, 192.0, 0.0, 0.0, 0.0, 0.0, 0.0, 0.0, 0.0, 0.0, 0.0, 1.645923233829526E9, 0.0, 2022-02-27 11:53:53.829
204.0, -222.24339511911813, -2701.834166268607, -2260.3648615318375, -9200.53681141577, 28.38671545823997, 640.645699578011, -4749.835103730572, -1673.7209765578482, -3486.603914094438, -4395.828175047419, -3646.53064567216, -2425.6113082899224, -2867.7735171048066, -1667.820116021647, -7704.243982344149, -15289.196704530324, 0.013500000000000002, -0.10350000000000001, 0.99, 192.0, 0.0, 56.0, 126.0, 104.0, 15.0, 120.0, 0.0, 0.0, 0.0, 1.645923233836622E9, 0.0, 2022-02-27 11:53:53.836
206.0, -101.63338203828121, -2581.268856676681, -2105.869603856755, -9020.292344128173, 169.6720921602359, 830.1661408145596, -4488.610266281398, -1341.0823155739683, -975.6759972186086, -3684.685073457369, -3742.576091596615, -2319.798150038499, -3029.6224987056853, -1730.9414423634341, -7359.065992720842, -14359.967632289843, 0.013500000000000002, -0.10350000000000001, 0.99, 192.0, 0.0, 0.0, 0.0, 0.0, 0.0, 0.0, 0.0, 0.0, 0.0, 1.645923233843935E9, 0.0, 2022-02-27 11:53:53.843
208.0, 197.90234540728872, -2362.3111679924928, -1934.4093721400943, -8821.965315576233, 424.303164995094, 886.6937025420311, -4513.3089439045125, -1414.865424020937, -2606.70514186682, -3865.4883343563483, -3471.7623557761144, -2293.4230915812363, -2720.5425763776993, -1492.8283086810482, -7470.489438830547, -14747.636288122689, 0.013500000000000002, -0.10350000000000001, 0.99, 192.0, 0.0, 0.0, 0.0, 0.0, 0.0, 0.0, 0.0, 0.0, 0.0, 1.645923233851048E9, 0.0, 2022-02-27 11:53:53.851
210.0, -372.7376905367006, -2806.730902997363, -2329.1858827097276, -9284.177039167529, -92.7150360006137, 647.6417955925222, -4692.480527458254, -1597.8144523876254, -2389.9602758837077, -4304.588354180855, -3848.813932992689, -2452.2545876806485, -3096.521269860419, -1852.713746155947, -7648.6551938838, -15050.748294681109, 0.013500000000000002, -0.10350000000000001, 0.99, 192.0, 0.0, 0.0, 0.0, 0.0, 0.0, 0.0, 0.0, 0.0, 0.0, 1.645923233859188E9, 0.0, 2022-02-27 11:53:53.859
212.0, 195.08602560592004, -2350.487095175635, -1889.035330895821, -8761.68266078027, 455.59560723252383, 970.825668671807, -4398.532736126511, -1227.0213636185365, -1237.392573045799, -3483.4299663817847, -3533.252004772664, -2229.8547303503433, -2815.2916211237457, -1529.3957626099304, -7288.210962797519, -14237.614183141493, 0.013500000000000002, -0.10350000000000001, 0.99, 192.0, 0.0, 0.0, 0.0, 0.0, 0.0, 0.0, 0.0, 0.0, 0.0, 1.645923233865724E9, 0.0, 2022-02-27 11:53:53.865
214.0, -236.14618017031913, -2710.0149047392497, -2260.7671929320327, -9198.726320114889, 34.891073094734324, 636.6000338316004, -4724.93526040736, -1674.0115492357672, -3489.64375134036, -4388.921486010729, -3645.927148571867, -2423.8902239668637, -2862.766726346818, -1662.790973519203, -7702.232325343171, -15280.144248025925, 0.013750000000000002, -0.10375000000000001, 0.986, 192.0, 0.0, 56.0, 126.0, 96.0, 15.0, 88.0, 0.0, 0.0, 0.0, 1.645923233873673E9, 0.0, 2022-02-27 11:53:53.873
216.0, -130.84711204136755, -2605.006409288217, -2110.5634701923696, -9023.868623241022, 165.08998454689797, 825.0475913342943, -4496.522783818577, -1323.3797339653652, -984.2367153449912, -3682.405195522928, -3751.8967690344775, -2320.468702372158, -3032.9305568850705, -1726.0911138166325, -7360.69767006608, -14358.760638089258, 0.013750000000000002, -0.10375000000000001, 0.986, 192.0, 0.0, 0.0, 0.0, 0.0, 0.0, 0.0, 0.0, 0.0, 0.0, 1.645923233881805E9, 0.0, 2022-02-27 11:53:53.881
218.0, 176.0199875855431, -2375.923380365775, -1933.5600058507928, -8816.60089690696, 433.42267673285926, 901.2670399268914, -4519.254507929624, -1413.4572641202528, -2591.0142172591945, -3855.9888429628427, -3477.931437245779, -2297.334646860915, -2721.5037013892775, -1499.891459928925, -7470.8917702307435, -14731.453625137046, 0.013750000000000002, -0.10375000000000001, 0.986, 192.0, 0.0, 0.0, 0.0, 0.0, 0.0, 0.0, 0.0, 0.0, 0.0, 1.645923233888921E9, 0.0, 2022-02-27 11:53:53.888
220.0, -409.8415863325103, -2839.0738772241925, -2344.8768073173533, -9296.135222451117, -94.74904474604664, 633.582548330134, -4679.158887762891, -1591.243039517765, -2462.826962808009, -4334.584395239877, -3863.3202151441833, -2470.426555922813, -3106.311333931844, -1855.8876938686008, -7655.316013731482, -15066.08159137745, 0.013750000000000002, -0.10375000000000001, 0.986, 192.0, 0.0, 0.0, 0.0, 0.0, 0.0, 0.0, 0.0, 0.0, 0.0, 1.645923233896243E9, 0.0, 2022-02-27 11:53:53.896
222.0, 172.4884119616046, -2368.413194228792, -1897.976028677944, -8769.058736450523, 453.2486740647166, 959.3815755106898, -4386.887477265296, -1242.622881248341, -1210.9728110996261, -3475.3609866334186, -3548.1382665798983, -2244.5845299463904, -2832.9718509878935, -1539.3646406369974, -7282.48891621696, -14231.065122016087, 0.013750000000000002, -0.10375000000000001, 0.986, 192.0, 0.0, 0.0, 0.0, 0.0, 0.0, 0.0, 0.0, 0.0, 0.0, 1.64592323390435E9, 0.0, 2022-02-27 11:53:53.904
224.0, -238.09078193793084, -2712.607707096065, -2254.9110358847424, -9187.997482776342, 47.20688428960852, 644.065516479673, -4719.637896971452, -1666.3225491431415, -3496.438681654773, -4394.598829102377, -3646.4188869498835, -2427.4888548241684, -2859.123392000603, -1664.467354353351, -7695.459746773214, -15273.192855500325, 0.011875, -0.10287500000000001, 0.986, 192.0, 0.0, 40.0, 126.0, 104.0, 15.0, 104.0, 0.0, 0.0, 0.0, 1.64592323391847E9, 0.0, 2022-02-27 11:53:53.918
226.0, -162.00544381206558, -2634.734229413775, -2122.454598242593, -9041.235928682796, 156.283397231507, 827.4392279910121, -4488.319693603479, -1342.803399897027, -1022.0335152189155, -3725.141730921475, -3767.2300657308183, -2338.41715316977, -3043.3911732901543, -1744.8889309035458, -7365.793867801889, -14378.810152865668, 0.011875, -0.10287500000000001, 0.986, 192.0, 0.0, 0.0, 0.0, 0.0, 0.0, 0.0, 0.0, 0.0, 0.0, 1.645923233925857E9, 0.0, 2022-02-27 11:53:53.925
228.0, 168.0851183039091, -2388.9991508721296, -1928.8437877707229, -8810.856498581947, 460.20006659031714, 904.1057114727154, -4495.963990207194, -1398.2133744017333, -2548.5906062830218, -3844.835322479644, -3483.83229778198, -2303.436673097214, -2727.4939689032994, -1492.6271429809503, -7452.853912455311, -14702.642226534157, 0.011875, -0.10287500000000001, 0.986, 192.0, 0.0, 0.0, 0.0, 0.0, 0.0, 0.0, 0.0, 0.0, 0.0, 1.645923233934064E9, 0.0, 2022-02-27 11:53:53.934
230.0, -436.5966244455129, -2866.544171159765, -2347.693127118722, -9294.16826893905, -112.6527920547476, 630.4756558508464, -4705.109263075503, -1605.436397246885, -2510.614992453455, -4366.905017722252, -3864.773078533778, -2477.176782748316, -3102.1539094631567, -1860.3803945041175, -7659.696955644722, -15076.072821148971, 0.011875, -0.10287500000000001, 0.986, 192.0, 0.0, 0.0, 0.0, 0.0, 0.0, 0.0, 0.0, 0.0, 0.0, 1.645923233942723E9, 0.0, 2022-02-27 11:53:53.942
232.0, 119.6488880692587, -2425.790122245565, -1902.0440461688097, -8777.619454576905, 444.82206640506587, 955.3135580198239, -4394.017683746539, -1250.423640063243, -1204.557860440953, -3502.7865770800804, -3565.7514412106802, -2253.2570067950496, -2833.08360971017, -1551.2557686872208, -7283.785317395368, -14223.24201145673, 0.011875, -0.10287500000000001, 0.986, 192.0, 0.0, 0.0, 0.0, 0.0, 0.0, 0.0, 0.0, 0.0, 0.0, 1.645923233948583E9, 0.0, 2022-02-27 11:53:53.948
234.0, -307.2917827715615, -2783.798013186218, -2259.2249225646165, -9188.556276387724, 47.25158777851913, 647.3959264035137, -4722.387161539455, -1676.2914271702084, -3513.895394074368, -4407.629896119821, -3662.9144743579004, -2444.3197183990146, -2856.0612030102257, -1664.2885403977086, -7694.118642105895, -15263.06751526207, 0.0139375, -0.10243750000000001, 0.987, 192.0, 0.0, 64.0, 126.0, 104.0, 15.0, 112.0, 0.0, 0.0, 0.0, 1.645923233956671E9, 0.0, 2022-02-27 11:53:53.956
236.0, -284.3365412159611, -2747.811704613174, -2143.3311275638493, -9043.739324061791, 164.41943221323876, 816.0621900632609, -4472.718175973675, -1362.6964524622504, -1068.078108796848, -3765.2407604742957, -3808.3125720396724, -2359.986586569141, -3055.2599495959225, -1753.91903566349, -7372.208818460563, -14384.42044072395, 0.0139375, -0.10243750000000001, 0.987, 192.0, 0.0, 0.0, 0.0, 0.0, 0.0, 0.0, 0.0, 0.0, 0.0, 1.645923233964742E9, 0.0, 2022-02-27 11:53:53.964
238.0, 27.872625335767907, -2518.7286756907315, -1943.260662944396, -8811.21412649323, 470.3924620619371, 915.4603976560113, -4465.252693325602, -1377.1356793803786, -2586.3874061569463, -3878.1170699735967, -3535.822455385024, -2331.264594944071, -2741.933195821428, -1502.0148756521794, -7452.518636288481, -14695.690834008556, 0.0139375, -0.10243750000000001, 0.987, 192.0, 0.0, 0.0, 0.0, 0.0, 0.0, 0.0, 0.0, 0.0, 0.0, 1.645923233970794E9, 0.0, 2022-02-27 11:53:53.970
240.0, -583.2464198167825, -2990.9092773090933, -2363.518162193079, -9304.181850455028, -89.76460573251316, 642.1209147120613, -4714.765216680195, -1605.726969924804, -2627.7381333992644, -4397.035169248005, -3906.5261371762917, -2510.3467715199913, -3097.7729675499163, -1845.3376704856958, -7659.56284517799, -15092.501353323622, 0.0139375, -0.10243750000000001, 0.987, 192.0, 0.0, 0.0, 0.0, 0.0, 0.0, 0.0, 0.0, 0.0, 0.0, 1.64592323397815E9, 0.0, 2022-02-27 11:53:53.978
242.0, -28.54317766942712, -2547.3165568490695, -1921.423008611561, -8782.693300568259, 444.82206640506587, 964.0083866129384, -4385.233448175603, -1230.2847183090114, -1213.3197442674332, -3518.0081150541446, -3619.57444185906, -2281.531963531013, -2848.5957203621533, -1556.0613937451117, -7282.377157494683, -14206.969941493267, 0.0139375, -0.10243750000000001, 0.987, 192.0, 0.0, 0.0, 0.0, 0.0, 0.0, 0.0, 0.0, 0.0, 0.0, 1.645923233986346E9, 0.0, 2022-02-27 11:53:53.986
244.0, -383.53358310861387, -2842.2701766813016, -2249.3678032598264, -9175.748726814834, 67.90459965522285, 659.1529439870053, -4706.651533442919, -1668.7812410332253, -3558.7553451961694, -4402.578401872922, -3691.6811694718804, -2470.337148944992, -2859.0339850227815, -1662.2992351411863, -7679.90293263232, -15247.77892205464, 0.01396875, -0.10321875000000001, 0.9884999999999999, 192.0, 0.0, 56.0, 126.0, 96.0, 15.0, 120.0, 0.0, 0.0, 0.0, 1.645923233994317E9, 0.0, 2022-02-27 11:53:53.994
