%OpenBCI Raw EEG Data
%Number of channels = 16
%Sample Rate = 125 Hz
%Board = OpenBCI_GUI$BoardCytonSerialDaisy
Sample Index, EXG Channel 0, EXG Channel 1, EXG Channel 2, EXG Channel 3, EXG Channel 4, EXG Channel 5, EXG Channel 6, EXG Channel 7, EXG Channel 8, EXG Channel 9, EXG Channel 10, EXG Channel 11, EXG Channel 12, EXG Channel 13, EXG Channel 14, EXG Channel 15, Accel Channel 0, Accel Channel 1, Accel Channel 2, Other, Other, Other, Other, Other, Other, Other, Analog Channel 0, Analog Channel 1, Analog Channel 2, Timestamp, Other, Timestamp (Formatted)
62.0, 66.60819847681505, -2429.0311251915846, -1963.8019160988233, -8930.572441884571, 455.59560723252383, 612.1248736530392, -4345.156770367238, -1322.4633124426978, -2072.4313941516157, -3785.1561647839744, -3302.8502229273586, -2354.4210021997696, -2746.4929516903107, -1636.9970604177786, -7807.68785568331, -14441.506796062804, 0.0, 0.0, 0.0, 192.0, 0.0, 0.0, 0.0, 0.0, 0.0, 0.0, 0.0, 0.0, 0.0, 1.645922997152155E9, 0.0, 2022-02-27 11:49:57.152
64.0, -605.3299433386259, -2980.6498266041076, -2492.912410844852, -9534.538928811424, -193.0296651160318, 190.66038020376925, -4692.100547802514, -1724.6158986825824, -3392.927753082246, -4665.300806200601, -3629.856244308501, -2591.4389004038458, -2976.8947335356156, -1977.034148816365, -8183.778307888307, -15322.679617724374, 0.0, 0.0, 0.0, 192.0, 0.0, 0.0, 0.0, 0.0, 0.0, 0.0, 0.0, 0.0, 0.0, 1.645922997152157E9, 0.0, 2022-02-27 11:49:57.152
0.0, -218.15302588379694, -1432.1433224848895, -1155.071098216903, -4675.560256905586, -13.589860628826694, 195.9353918952217, -2239.756553144044, -687.4726042118793, -1399.6662377913283, -1988.7241111664905, -1631.5208830262284, -1186.4976509210649, -1325.9278328332703, -816.0621900632609, -3947.9662713964312, -7359.960062499054, 0.01, -0.10400000000000001, 0.98, 192.0, 0.0, 40.0, 126.0, 96.0, 15.0, 80.0, 0.0, 0.0, 0.0, 1.645922997276632E9, 0.0, 2022-02-27 11:49:57.276
2.0, 52.437192492150366, -2476.0591955255504, -1968.5628376678037, -8941.323630967574, 419.22931900373925, 641.6738798229552, -4353.091639648872, -1252.3235383419442, -1598.7979291436588, -3713.4070650824387, -3336.3778396103194, -2361.573560425468, -2797.6784464929638, -1676.8278690371358, -7741.727857795699, -14273.958119625822, 0.01, -0.10400000000000001, 0.98, 192.0, 0.0, 0.0, 0.0, 0.0, 0.0, 0.0, 0.0, 0.0, 0.0, 1.645922997282599E9, 0.0, 2022-02-27 11:49:57.282
4.0, -544.4214396979141, -2966.858800275183, -2460.524733129112, -9486.661492188156, -161.69251938969128, 207.06656063396463, -4739.732115236773, -1698.9560960478898, -3661.7074801573135, -4667.200704479302, -3556.2966533060853, -2598.4349964183566, -2882.4362614674883, -1916.0809416867426, -8171.507200182343, -15347.870033725505, 0.01, -0.10400000000000001, 0.98, 192.0, 0.0, 0.0, 0.0, 0.0, 0.0, 0.0, 0.0, 0.0, 0.0, 1.645922997289057E9, 0.0, 2022-02-27 11:49:57.289
6.0, -250.38424138834972, -2707.735026804808, -2168.9015232207207, -9184.778831574778, 152.30478671846234, 490.44197683834756, -4401.237297205603, -1281.3808061338432, -1003.369808598734, -3789.3135892526616, -3543.3326415220076, -2423.8008169890427, -3032.684687696062, -1855.1947897904863, -7754.15542771285, -14232.607392383505, 0.01, -0.10400000000000001, 0.98, 192.0, 0.0, 0.0, 0.0, 0.0, 0.0, 0.0, 0.0, 0.0, 0.0, 1.645922997297194E9, 0.0, 2022-02-27 11:49:57.297
8.0, -83.8860969407674, -2591.684769592854, -2109.5576416918807, -9091.594408940604, 273.0489102660311, 469.3195783280824, -4533.291403447557, -1494.9293726598469, -3128.730133620517, -4183.508954466457, -3335.5061215765622, -2456.9931575051737, -2691.2394393967916, -1699.045503025711, -7960.886712179985, -14900.5669236859, 0.008, -0.106, 0.992, 192.0, 0.0, 32.0, 126.0, 88.0, 15.5, 0.0, 0.0, 0.0, 0.0, 1.645922997305187E9, 0.0, 2022-02-27 11:49:57.305
10.0, -580.4971552487797, -2978.4817073919426, -2434.887282238875, -9494.283437047416, -168.3533392373728, 269.2267619641736, -4617.222203877235, -1539.0293644701678, -2235.4203147197145, -4429.467550452656, -3713.608230782537, -2588.0637869910943, -3126.0926277747903, -2042.6588705371466, -8039.453093940389, -14930.026522877995, 0.008, -0.106, 0.992, 192.0, 0.0, 0.0, 0.0, 0.0, 0.0, 0.0, 0.0, 0.0, 0.0, 1.645922997312214E9, 0.0, 2022-02-27 11:49:57.312
12.0, 47.609215689804046, -2476.2156577367377, -1964.1148405211975, -8946.777456614669, 424.52668243964706, 618.2492516337934, -4347.749572724053, -1234.330384055422, -1582.570562669106, -3703.8405184555672, -3338.747124522582, -2372.861191375398, -2795.1974028584245, -1684.0027790072895, -7740.34204963947, -14274.628671959481, 0.008, -0.106, 0.992, 192.0, 0.0, 0.0, 0.0, 0.0, 0.0, 0.0, 0.0, 0.0, 0.0, 1.645922997319711E9, 0.0, 2022-02-27 11:49:57.319
14.0, -537.3806401944925, -2963.371928140155, -2451.5169801136235, -9487.77907941092, -156.9315978207109, 212.699200236702, -4737.563996024608, -1705.3039914731971, -3679.343006532551, -4679.628274396453, -3554.955548638767, -2613.1200925254934, -2878.927037588005, -1925.7815987803458, -8168.623825147609, -15353.346211117056, 0.008, -0.106, 0.992, 192.0, 0.0, 0.0, 0.0, 0.0, 0.0, 0.0, 0.0, 0.0, 0.0, 1.645922997327888E9, 0.0, 2022-02-27 11:49:57.327
16.0, -255.21221819069603, -2715.53578561971, -2174.355348867816, -9198.05576778123, 140.70423134615797, 487.0892151700515, -4427.679410896231, -1305.6995041012174, -1010.0529801908708, -3789.782975886223, -3548.0041561131666, -2437.457732851235, -3041.245405822445, -1866.5494759737821, -7763.565512128534, -14252.053410059621, 0.008, -0.10500000000000001, 0.992, 192.0, 0.0, 32.0, 126.0, 96.0, 15.5, 0.0, 0.0, 0.0, 0.0, 1.645922997341831E9, 0.0, 2022-02-27 11:49:57.341
18.0, -73.7607567025133, -2587.4379381463455, -2106.830728868333, -9084.128926292531, 279.1732882467852, 485.70340701382247, -4543.662612874819, -1482.5465062316068, -3092.6991215585617, -4181.318483509837, -3327.459493572652, -2456.590826104978, -2689.7195207738305, -1692.4517384113956, -7959.947938912862, -14884.004281044517, 0.008, -0.10500000000000001, 0.992, 192.0, 0.0, 0.0, 0.0, 0.0, 0.0, 0.0, 0.0, 0.0, 0.0, 1.645922997349352E9, 0.0, 2022-02-27 11:49:57.349
20.0, -586.1074431070618, -2986.103652251202, -2441.2575294086373, -9499.31257954986, -188.78283366952346, 254.54166585703683, -4633.807198263073, -1556.5978356120393, -2272.1889343486946, -4436.441294722712, -3718.6373732849806, -2594.9928277722393, -3131.1888255106005, -2059.4003271341717, -8050.763076634775, -14940.330677071892, 0.008, -0.10500000000000001, 0.992, 192.0, 0.0, 0.0, 0.0, 0.0, 0.0, 0.0, 0.0, 0.0, 0.0, 1.645922997357574E9, 0.0, 2022-02-27 11:49:57.357
22.0, 38.377945229762226, -2480.4401374387908, -1971.4685644469935, -8954.39940147393, 401.70555135077853, 610.2249753743381, -4359.14896239626, -1249.7977912184945, -1576.6920538773602, -3706.8803557014894, -3349.453610116674, -2374.7610896540987, -2803.6910657514413, -1691.7811860777363, -7740.096180450461, -14273.913416136911, 0.008, -0.10500000000000001, 0.992, 192.0, 0.0, 0.0, 0.0, 0.0, 0.0, 0.0, 0.0, 0.0, 0.0, 1.645922997365474E9, 0.0, 2022-02-27 11:49:57.365
24.0, -537.2018262388499, -2956.5546460812866, -2449.2594539236375, -9484.202800298071, -160.66433914474717, 208.43001704573837, -4737.541644280153, -1708.8132153526803, -3694.028102639688, -4673.392137693422, -3560.0964498634876, -2606.4369209333568, -2877.317711987223, -1914.4045608525946, -8169.361432714633, -15355.313164629122, 0.008, -0.10500000000000001, 0.992, 192.0, 0.0, 0.0, 0.0, 0.0, 0.0, 0.0, 0.0, 0.0, 0.0, 1.645922997371998E9, 0.0, 2022-02-27 11:49:57.371
26.0, -274.92645680027687, -2728.3880386815117, -2181.2843896489608, -9204.291904484262, 123.94042300467767, 477.1426888874399, -4416.212965990659, -1305.386579678843, -1027.9343757551164, -3804.7362929268234, -3563.9409499098006, -2439.7376107856767, -3045.9392721580593, -1874.104365599676, -7761.8667795499305, -14259.720058407791, 0.011, -0.10350000000000001, 0.99, 192.0, 0.0, 56.0, 126.0, 104.0, 15.0, 112.0, 0.0, 0.0, 0.0, 1.645922997380043E9, 0.0, 2022-02-27 11:49:57.380
28.0, -82.41088180671714, -2593.7634818271977, -2107.5906881798137, -9082.050214058187, 275.48525041165954, 473.8569824525097, -4518.114568962404, -1482.479450998241, -3081.724415031006, -4170.991977571485, -3338.3447931223864, -2457.4401923942796, -2694.6592562984533, -1692.205869222387, -7951.387220786479, -14873.454257661613, 0.011, -0.10350000000000001, 0.99, 192.0, 0.0, 0.0, 0.0, 0.0, 0.0, 0.0, 0.0, 0.0, 0.0, 1.645922997388195E9, 0.0, 2022-02-27 11:49:57.388
30.0, -609.4203125739471, -3008.053065306314, -2450.399392890858, -9503.648817974188, -184.42424350073858, 264.19761946172946, -4609.555555529065, -1546.1595709514108, -2280.5931902638904, -4445.225530293647, -3734.171835681419, -2598.524403396178, -3132.1946540110894, -2064.7200423145346, -8045.778637621241, -14939.838938693874, 0.011, -0.10350000000000001, 0.99, 192.0, 0.0, 0.0, 0.0, 0.0, 0.0, 0.0, 0.0, 0.0, 0.0, 1.645922997394232E9, 0.0, 2022-02-27 11:49:57.394
32.0, 6.325543680851899, -2516.7393704342094, -1977.257666260918, -8958.333308498062, 407.15937699787344, 621.9596412133743, -4346.00613665654, -1247.9425964287038, -1595.8474988755584, -3720.2690506302183, -3364.6751480907383, -2385.8475549039313, -2807.9155454534944, -1699.045503025711, -7737.05634320454, -14269.532474223672, 0.011, -0.10350000000000001, 0.99, 192.0, 0.0, 0.0, 0.0, 0.0, 0.0, 0.0, 0.0, 0.0, 0.0, 1.645922997401719E9, 0.0, 2022-02-27 11:49:57.401
34.0, -588.9014111639751, -3013.663353164596, -2455.8085150490424, -9491.02008235694, -163.3241967349287, 203.26676407656242, -4741.27438560419, -1719.8102736246913, -3726.684001288891, -4693.329893747556, -3570.5123627796606, -2619.2221187617924, -2879.307017243745, -1925.356915635695, -8173.47415369441, -15357.883615241482, 0.011, -0.10350000000000001, 0.99, 192.0, 0.0, 0.0, 0.0, 0.0, 0.0, 0.0, 0.0, 0.0, 0.0, 1.645922997409752E9, 0.0, 2022-02-27 11:49:57.409
36.0, -368.1555829233626, -2824.992278217349, -2193.4213868881925, -9224.654343683045, 117.77134153501291, 463.7092904698003, -4433.289698754514, -1323.8044171100162, -1064.5912366618202, -3843.293052112228, -3591.6794647788365, -2467.29731169907, -3056.9363304300705, -1898.0430839113099, -7774.271997722626, -14270.448895746338, 0.0125, -0.10175000000000001, 0.989, 192.0, 0.0, 56.0, 126.0, 112.0, 15.0, 112.0, 0.0, 0.0, 0.0, 1.645922997417724E9, 0.0, 2022-02-27 11:49:57.417
38.0, -202.73032220963506, -2710.260773928258, -2114.698542916601, -9096.310627020674, 274.1217939998858, 469.364281816993, -4532.687906347264, -1488.380311534442, -3111.7428078344833, -4220.322277584348, -3372.7217760946487, -2495.415806223846, -2697.8108522666516, -1712.367142721074, -7957.466895278323, -14880.003318787018, 0.0125, -0.10175000000000001, 0.989, 192.0, 0.0, 0.0, 0.0, 0.0, 0.0, 0.0, 0.0, 0.0, 0.0, 1.645922997424279E9, 0.0, 2022-02-27 11:49:57.424
40.0, -777.3713204111243, -3164.9623113825696, -2468.8619338109415, -9522.737207739021, -190.54862148149272, 248.23847392064025, -4627.504006326676, -1569.0030537847347, -2377.9573891112077, -4505.999923467627, -3780.663464148458, -2645.2395493077697, -3144.711630906061, -2076.3653011757497, -8060.2849197727355, -14962.928290716207, 0.0125, -0.10175000000000001, 0.989, 192.0, 0.0, 0.0, 0.0, 0.0, 0.0, 0.0, 0.0, 0.0, 0.0, 1.645922997432294E9, 0.0, 2022-02-27 11:49:57.432
42.0, -177.5175544640487, -2685.204468393859, -1992.8368321462672, -8972.079631338076, 404.7006851077897, 615.8352632326202, -4349.202436113648, -1255.4527825656871, -1644.797819232681, -3765.754850596768, -3421.2697650515756, -2432.0039072041404, -2822.667696793997, -1701.2359739823312, -7737.2128054157265, -14266.962023611311, 0.0125, -0.10175000000000001, 0.989, 192.0, 0.0, 0.0, 0.0, 0.0, 0.0, 0.0, 0.0, 0.0, 0.0, 1.645922997440355E9, 0.0, 2022-02-27 11:49:57.440
44.0, -751.2421311428703, -3155.239302544511, -2462.5810936190005, -9482.481715975013, -133.66343184273623, 228.8148079889784, -4740.022687914692, -1712.4789014433507, -3809.4972144958037, -4729.115036620502, -3620.3567529149955, -2655.9236831574062, -2872.2662177403236, -1911.7894067513237, -8169.763764114829, -15356.833083252084, 0.0125, -0.10175000000000001, 0.989, 192.0, 0.0, 0.0, 0.0, 0.0, 0.0, 0.0, 0.0, 0.0, 0.0, 1.645922997447452E9, 0.0, 2022-02-27 11:49:57.447
46.0, -518.1134364740177, -2941.4225150850434, -2220.221128490106, -9228.25297454035, 112.83160601039005, 479.89195345544266, -4417.151739257782, -1313.7237803606727, -1151.4501156151434, -3880.709872330412, -3650.308090485107, -2495.080530057017, -3068.5815892912856, -1884.7214442159468, -7777.960035557751, -14280.037794117665, 0.01225, -0.10287500000000001, 0.9864999999999999, 192.0, 0.0, 48.0, 126.0, 96.0, 15.0, 96.0, 0.0, 0.0, 0.0, 1.645922997461956E9, 0.0, 2022-02-27 11:49:57.461
48.0, -292.4949279421482, -2776.377234027056, -2124.488606988026, -9086.252342015785, 285.34236971645, 489.5032035712247, -4513.800682282529, -1460.2394652652104, -3149.0925728193015, -4198.26110580696, -3416.1065120823996, -2503.5071377166673, -2714.8875850305067, -1689.568363376661, -7949.979060885795, -14851.08016146185, 0.01225, -0.10287500000000001, 0.9864999999999999, 192.0, 0.0, 0.0, 0.0, 0.0, 0.0, 0.0, 0.0, 0.0, 0.0, 1.64592299747012E9, 0.0, 2022-02-27 11:49:57.470
50.0, -802.5170329233448, -3173.2771603199435, -2475.880381569908, -9515.74111172451, -186.03356910152067, 261.49305838263734, -4619.658544022864, -1562.565751381606, -2435.8931107393637, -4498.668551286287, -3801.539993469715, -2647.2065028198367, -3153.2499972879887, -2055.2876061543952, -8062.78831515173, -14963.420029094224, 0.01225, -0.10287500000000001, 0.9864999999999999, 192.0, 0.0, 0.0, 0.0, 0.0, 0.0, 0.0, 0.0, 0.0, 0.0, 1.645922997477163E9, 0.0, 2022-02-27 11:49:57.477
52.0, -151.34366170688412, -2651.9897761332722, -1998.3353612822727, -8967.139895813454, 409.39455144340417, 618.1151411670616, -4344.821494200408, -1238.4654567796538, -1634.18074061641, -3740.005640984254, -3421.381523773852, -2420.537462298568, -2829.3732201305893, -1702.6441338830155, -7736.34108738197, -14257.820160129091, 0.01225, -0.10287500000000001, 0.9864999999999999, 192.0, 0.0, 0.0, 0.0, 0.0, 0.0, 0.0, 0.0, 0.0, 0.0, 1.645922997485275E9, 0.0, 2022-02-27 11:49:57.485
54.0, -676.4755459398682, -3091.268609913422, -2457.1496197163606, -9480.268893273938, -139.76545807903506, 227.85368297740018, -4731.685487232863, -1707.695628129915, -3799.1483568129966, -4715.3463620360335, -3601.9389154838227, -2647.09474409756, -2875.641331153075, -1909.9565637059884, -8169.026156547804, -15352.340382616567, 0.01225, -0.10287500000000001, 0.9864999999999999, 192.0, 0.0, 0.0, 0.0, 0.0, 0.0, 0.0, 0.0, 0.0, 0.0, 1.64592299749259E9, 0.0, 2022-02-27 11:49:57.492
56.0, -427.3206504965604, -2867.1700200045134, -2206.4524539056365, -9228.074160584709, 115.91614674522242, 476.44978480932537, -4434.764913888564, -1344.099801075435, -1115.2402895975458, -3870.6292355810688, -3619.3509244145066, -2484.910486329852, -3063.2618741109222, -1890.8905256856117, -7778.16120125785, -14284.06110811962, 0.012125, -0.1054375, 0.98625, 192.0, 0.0, 48.0, 126.0, 80.0, 15.0, 104.0, 0.0, 0.0, 0.0, 1.64592299749987E9, 0.0, 2022-02-27 11:49:57.499
58.0, -188.87224064734468, -2691.8652882415404, -2103.410911966671, -9072.595426153592, 296.98762857766496, 492.6771512838783, -4523.590746353954, -1458.4960291976965, -3079.9586272190368, -4189.968608614041, -3377.3932906858076, -2488.5091171871563, -2699.7107505453528, -1690.0377500102222, -7945.285194550181, -14841.155986923693, 0.012125, -0.1054375, 0.98625, 192.0, 0.0, 0.0, 0.0, 0.0, 0.0, 0.0, 0.0, 0.0, 0.0, 1.645922997507269E9, 0.0, 2022-02-27 11:49:57.507
60.0, -721.804883695231, -3108.0324182549025, -2470.717128600732, -9522.044303660907, -191.8003191709899, 255.59219784643625, -4637.048201209092, -1568.8242398290922, -2464.503343642157, -4509.777368280575, -3770.9628070548547, -2641.573863217099, -3134.720401134539, -2063.4459928805823, -8069.918521632972, -14991.672634085731, 0.012125, -0.1054375, 0.98625, 192.0, 0.0, 0.0, 0.0, 0.0, 0.0, 0.0, 0.0, 0.0, 0.0, 1.645922997514253E9, 0.0, 2022-02-27 11:49:57.514
62.0, -73.67134972469208, -2583.392272399935, -1987.1371373101638, -8964.05535507862, 406.108845008474, 625.7370860263212, -4341.692249976665, -1240.5441690139974, -1546.6513093294275, -3719.6655535299246, -3401.8013956310033, -2406.2546975916266, -2828.635612563564, -1703.8734798280575, -7733.904747236342, -14243.515043677693, 0.012125, -0.1054375, 0.98625, 192.0, 0.0, 0.0, 0.0, 0.0, 0.0, 0.0, 0.0, 0.0, 0.0, 1.645922997522287E9, 0.0, 2022-02-27 11:49:57.522
64.0, -591.2259925873271, -3016.367914243688, -2434.395543860858, -9461.426372698113, -112.71984728811351, 243.87988375185537, -4731.037286643659, -1712.2553839987975, -3766.693623863891, -4698.783719394651, -3570.1100313794655, -2623.8042263751304, -2859.928054800994, -1909.0177904388656, -8167.081554780192, -15343.064408667615, 0.012125, -0.1054375, 0.98625, 192.0, 0.0, 0.0, 0.0, 0.0, 0.0, 0.0, 0.0, 0.0, 0.0, 1.645922997529384E9, 0.0, 2022-02-27 11:49:57.529
66.0, -377.208039427762, -2821.8183305046955, -2208.2629452065166, -9235.114960088129, 113.90448974424478, 469.5654475170908, -4446.588986705421, -1321.904518831315, -1098.4764812560657, -3870.584532092158, -3602.117729439465, -2470.359500689447, -3055.885798440671, -1905.2403456259187, -7780.217561747738, -14293.49354427976, 0.0110625, -0.10371875, 0.9861249999999999, 192.0, 0.0, 40.0, 126.0, 104.0, 15.0, 104.0, 0.0, 0.0, 0.0, 1.645922997537027E9, 0.0, 2022-02-27 11:49:57.537
68.0, -128.83545504038992, -2634.3766015024903, -2095.610153151769, -9069.309719718662, 310.8010066510447, 495.0017327072302, -4507.0281037125715, -1474.2763607831432, -3023.7216381694843, -4160.844285588776, -3355.153304952777, -2472.684082112799, -2693.765186520241, -1700.632476882038, -7935.383371756479, -14827.74494025051, 0.0110625, -0.10371875, 0.9861249999999999, 192.0, 0.0, 0.0, 0.0, 0.0, 0.0, 0.0, 0.0, 0.0, 0.0, 1.645922997544892E9, 0.0, 2022-02-27 11:49:57.544
70.0, -680.2082872639045, -3065.4746968119975, -2468.459602410746, -9520.345571082304, -197.03062737353176, 253.69229956773515, -4627.4145993488555, -1566.4326031723742, -2438.821189263009, -4507.631600812865, -3757.015318514743, -2633.773104402197, -3136.7097063910614, -2077.0135017649536, -8068.108030332092, -14987.269340428036, 0.0110625, -0.10371875, 0.9861249999999999, 192.0, 0.0, 0.0, 0.0, 0.0, 0.0, 0.0, 0.0, 0.0, 0.0, 1.645922997552777E9, 0.0, 2022-02-27 11:49:57.552
72.0, -42.021279575977275, -2554.692632519321, -1985.550163453837, -8966.20112254633, 410.4897869217142, 619.9032807234861, -4347.1907791126705, -1252.0329656640251, -1546.6960128183382, -3718.123283162509, -3387.317465223964, -2395.816432930998, -2821.125426426581, -1707.3827037075405, -7732.071904191006, -14244.409113455906, 0.0110625, -0.10371875, 0.9861249999999999, 192.0, 0.0, 0.0, 0.0, 0.0, 0.0, 0.0, 0.0, 0.0, 0.0, 1.645922997560019E9, 0.0, 2022-02-27 11:49:57.560
74.0, -566.8625911310424, -2991.6468848761183, -2442.620985820411, -9466.768439622932, -115.58087057839282, 227.80897948848957, -4721.515443505698, -1714.6023171666047, -3760.815115072145, -4685.953818077304, -3557.861275417957, -2619.6915053953535, -2855.480057654388, -1907.4084648380835, -8161.605377388642, -15344.919603457405, 0.0110625, -0.10371875, 0.9861249999999999, 192.0, 0.0, 0.0, 0.0, 0.0, 0.0, 0.0, 0.0, 0.0, 0.0, 1.645922997567584E9, 0.0, 2022-02-27 11:49:57.567
76.0, -342.22755935520644, -2786.3237603096677, -2204.932535282676, -9225.056675083242, 117.34665839036208, 475.75688073121086, -4429.914585341762, -1332.2757282585774, -1077.4881932125322, -3851.8537702386107, -3589.466642077761, -2460.435326151291, -3060.2890920983664, -1892.3880925641172, -7780.239913492193, -14284.709308708825, 0.01353125, -0.104859375, 0.9870625, 192.0, 0.0, 64.0, 126.0, 88.0, 15.0, 112.0, 0.0, 0.0, 0.0, 1.64592299757549E9, 0.0, 2022-02-27 11:49:57.575
78.0, -91.73155924458018, -2599.7984528301304, -2084.322522201839, -9052.858835799556, 316.2771840425949, 510.98322999277474, -4523.546042865043, -1458.6971948977941, -2999.827623346761, -4129.998878240452, -3339.3729733673304, -2460.077698240006, -2693.8992969869732, -1682.7063778288816, -7934.891633378463, -14817.865469201264, 0.01353125, -0.104859375, 0.9870625, 192.0, 0.0, 0.0, 0.0, 0.0, 0.0, 0.0, 0.0, 0.0, 0.0, 1.645922997589088E9, 0.0, 2022-02-27 11:49:57.589
80.0, -643.0149844902736, -3036.216263320001, -2457.037860994084, -9510.734320966521, -185.36301676786147, 257.9838345031541, -4656.002480507193, -1589.4548999613405, -2454.668576081822, -4496.142804162837, -3733.9930217257765, -2612.8965750809402, -3125.779703352416, -2061.613149835247, -8077.182838580948, -14994.600712609377, 0.01353125, -0.104859375, 0.9870625, 192.0, 0.0, 0.0, 0.0, 0.0, 0.0, 0.0, 0.0, 0.0, 0.0, 1.645922997597144E9, 0.0, 2022-02-27 11:49:57.597
82.0, -10.393561171717785, -2524.2272048267373, -1975.134250537664, -8960.993166088243, 419.22931900373925, 622.2055104023827, -4326.2918980469585, -1249.2166458626564, -1500.6290674959503, -3701.6723992434027, -3364.742203324104, -2379.723176923177, -2812.631763533564, -1691.3341511886301, -7730.082598934484, -14239.715247120292, 0.01353125, -0.104859375, 0.9870625, 192.0, 0.0, 0.0, 0.0, 0.0, 0.0, 0.0, 0.0, 0.0, 0.0, 1.645922997605134E9, 0.0, 2022-02-27 11:49:57.605
84.0, -535.0113552822298, -2959.7732972828508, -2427.7347240131767, -9454.407924939147, -114.03860021097664, 232.32403186846162, -4720.151987093925, -1694.8433750681133, -3757.618815615036, -4671.224018481257, -3538.2587955306526, -2603.553545898622, -2849.2215692069017, -1893.8186042092568, -8165.874560579606, -15339.823405721594, 0.01353125, -0.104859375, 0.9870625, 192.0, 0.0, 0.0, 0.0, 0.0, 0.0, 0.0, 0.0, 0.0, 0.0, 1.645922997612419E9, 0.0, 2022-02-27 11:49:57.612
86.0, -321.8427684119664, -2768.934103123439, -2193.24257293255, -9225.794282650266, 113.6139170663258, 470.6830347398561, -4451.394611763312, -1348.614853455407, -1077.4434897236217, -3853.3513371171166, -3584.4598513197725, -2453.9086167703413, -3061.630196765685, -1895.360874576673, -7789.471183952235, -14297.852134448545, 0.014, -0.106, 0.988, 192.0, 0.0, 56.0, 126.0, 88.0, 15.0, 112.0, 0.0, 0.0, 0.0, 1.645922997619822E9, 0.0, 2022-02-27 11:49:57.619
88.0, -65.37885253177316, -2580.754766554209, -2069.6374260947023, -9046.98032700781, 317.90886138783236, 501.19316592135027, -4504.927039733772, -1465.4921252122076, -2961.8296577727388, -4119.247689157449, -3326.9901069390903, -2450.6229103354112, -2682.611666037043, -1679.3759679050409, -7935.673944434398, -14818.446614557102, 0.014, -0.106, 0.988, 192.0, 0.0, 0.0, 0.0, 0.0, 0.0, 0.0, 0.0, 0.0, 0.0, 1.645922997627731E9, 0.0, 2022-02-27 11:49:57.627
90.0, -628.2181296608603, -3024.1016178252244, -2461.4411546517795, -9516.255201846981, -194.99661862809882, 245.37745063036093, -4637.897567498394, -1576.9602748108239, -2477.422651937324, -4505.664647300798, -3736.0270304712094, -2620.1832437733706, -3124.1256742627234, -2057.3439666442832, -8080.893228160528, -15014.538468663512, 0.014, -0.106, 0.988, 192.0, 0.0, 0.0, 0.0, 0.0, 0.0, 0.0, 0.0, 0.0, 0.0, 1.645922997634776E9, 0.0, 2022-02-27 11:49:57.634
92.0, 10.080636749343485, -2505.809367395564, -1975.1789540265745, -8957.618052675492, 403.2925252071053, 616.3493533550923, -4359.305424607447, -1261.3983465907988, -1479.9313521303359, -3681.8016984226347, -3364.7869068130144, -2372.6823774197555, -2814.0622751787037, -1692.4070349224849, -7736.072866448506, -14239.804654098112, 0.014, -0.106, 0.988, 192.0, 0.0, 0.0, 0.0, 0.0, 0.0, 0.0, 0.0, 0.0, 0.0, 1.645922997641317E9, 0.0, 2022-02-27 11:49:57.641
94.0, -517.7558085627328, -2947.6810035325293, -2428.4052763468358, -9450.16109349264, -119.24655666906318, 222.24339511911813, -4728.93622266486, -1713.1494537770097, -3753.1931702128854, -4664.652605611397, -3536.247138529675, -2597.295057451136, -2843.924205770994, -1882.709787214969, -8168.579121658698, -15344.494920312754, 0.014, -0.106, 0.988, 192.0, 0.0, 0.0, 0.0, 0.0, 0.0, 0.0, 0.0, 0.0, 0.0, 1.64592299764943E9, 0.0, 2022-02-27 11:49:57.649
96.0, -333.6221377399132, -2779.729995695352, -2212.8897563087653, -9237.663058956035, 98.52648955899353, 453.0922118535295, -4420.795073603997, -1331.0240305690802, -1091.010998607993, -3859.5651220756918, -3601.0671974500656, -2459.8318290509974, -3070.6379497811736, -1902.2228601244522, -7794.254457265671, -14306.859887464034, 0.016, -0.108, 0.986, 192.0, 0.0, 64.0, 126.0, 80.0, 15.0, 104.0, 0.0, 0.0, 0.0, 1.645922997657349E9, 0.0, 2022-02-27 11:49:57.657
98.0, -55.477029738072126, -2572.529324594656, -2070.509144128459, -9039.31367865964, 323.00505912364235, 509.2621456697161, -4475.556847519499, -1442.9392150568028, -2952.151352423591, -4117.638363556667, -3345.5420548369952, -2452.8580847809417, -2703.3987883804784, -1685.1203662300547, -7931.293002521158, -14797.413623024659, 0.016, -0.108, 0.986, 192.0, 0.0, 0.0, 0.0, 0.0, 0.0, 0.0, 0.0, 0.0, 0.0, 1.645922997664434E9, 0.0, 2022-02-27 11:49:57.664
100.0, -627.2793563937374, -3024.8392253922493, -2463.564570375034, -9515.718759980055, -206.73128446713503, 236.88378773734425, -4661.545713132109, -1596.3392372535752, -2545.6401760149215, -4520.4167986413, -3732.6742688029135, -2612.3824849584685, -3112.5474706348746, -2058.059222466853, -8087.017606141282, -15037.896041619308, 0.016, -0.108, 0.986, 192.0, 0.0, 0.0, 0.0, 0.0, 0.0, 0.0, 0.0, 0.0, 0.0, 1.645922997672082E9, 0.0, 2022-02-27 11:49:57.672
102.0, -3.6656860906703583, -2520.6062222249775, -1982.9126576081107, -8961.686070166359, 391.66961809034564, 608.3697805845476, -4336.685459218676, -1255.7433552436062, -1439.7429155996938, -3690.429471782383, -3381.126032009844, -2377.3091885220038, -2831.094304453648, -1699.2243169813535, -7730.574337312501, -14225.566592880083, 0.016, -0.108, 0.986, 192.0, 0.0, 0.0, 0.0, 0.0, 0.0, 0.0, 0.0, 0.0, 0.0, 1.645922997680091E9, 0.0, 2022-02-27 11:49:57.680
104.0, -501.6402008104564, -2934.2923086038004, -2423.6220030334002, -9439.789884065376, -108.24949839705211, 229.28419462253984, -4717.939164392849, -1715.5634421781829, -3762.089164506098, -4650.794524049106, -3535.1071995624543, -2594.299923694125, -2841.4878656253654, -1879.267618568852, -8160.9571767994385, -15336.157719630924, 0.016, -0.108, 0.986, 192.0, 0.0, 0.0, 0.0, 0.0, 0.0, 0.0, 0.0, 0.0, 0.0, 1.645922997687992E9, 0.0, 2022-02-27 11:49:57.687
106.0, -327.9894981371758, -2774.5667427261765, -2220.087018023374, -9241.820483424723, 84.91427718571153, 445.13499082744016, -4443.5715012039545, -1353.8004581690382, -1100.7787109349622, -3870.0257384807755, -3598.049711948599, -2456.0543842380507, -3066.078193912291, -1897.2160693664634, -7798.702454412277, -14313.408948589438, 0.016, -0.112, 0.99, 192.0, 0.0, 64.0, 126.0, 64.0, 15.0, 120.0, 0.0, 0.0, 0.0, 1.645922997694538E9, 0.0, 2022-02-27 11:49:57.694
108.0, -49.55381745741576, -2564.6391588019324, -2072.967836018543, -9039.06780947063, 312.74560841865645, 507.29519215764907, -4513.4207026267895, -1452.4610581947636, -2919.5178055188426, -4109.345866363748, -3336.3554878658642, -2447.270148667115, -2692.6252475530205, -1672.4469271238956, -7928.499034464245, -14789.456401998568, 0.016, -0.112, 0.99, 192.0, 0.0, 0.0, 0.0, 0.0, 0.0, 0.0, 0.0, 0.0, 0.0, 1.645922997709742E9, 0.0, 2022-02-27 11:49:57.709
110.0, -631.7050017958882, -3028.147283571635, -2470.717128600732, -9525.397065329202, -226.44552307671586, 230.49118882312644, -4672.095736515014, -1607.7162751813264, -2556.2125511422814, -4537.158255238325, -3733.210710669841, -2619.512691439711, -3118.917717804637, -2071.0455859953863, -8100.763928981296, -15045.719152178664, 0.016, -0.112, 0.99, 192.0, 0.0, 0.0, 0.0, 0.0, 0.0, 0.0, 0.0, 0.0, 0.0, 1.64592299771769E9, 0.0, 2022-02-27 11:49:57.717
112.0, -8.605421615293219, -2518.505158246179, -1992.456852490527, -8972.169038315897, 377.36450163894915, 609.3979608294918, -4355.639738516777, -1275.4128903642763, -1438.0441830210905, -3678.6277507099812, -3380.678997120738, -2376.459822232702, -2834.737638799863, -1721.0619713141884, -7736.855177504442, -14233.121482505976, 0.016, -0.112, 0.99, 192.0, 0.0, 0.0, 0.0, 0.0, 0.0, 0.0, 0.0, 0.0, 0.0, 1.645922997724274E9, 0.0, 2022-02-27 11:49:57.724
114.0, -501.5284420881799, -2933.15236963658, -2425.700715267744, -9437.130026475195, -118.0395624684766, 229.08302892244208, -4740.380315825977, -1719.72086664687, -3766.0007197857763, -4653.879064783939, -3534.79427514008, -2593.674074849376, -2836.7939992897514, -1890.488194285416, -8165.293415223768, -15339.085798154569, 0.016, -0.112, 0.99, 192.0, 0.0, 0.0, 0.0, 0.0, 0.0, 0.0, 0.0, 0.0, 0.0, 1.645922997732341E9, 0.0, 2022-02-27 11:49:57.732
116.0, -355.2139228837398, -2797.2984668372237, -2234.146265285762, -9259.187788866495, 68.64220722224799, 437.2895285236274, -4443.415038992767, -1350.939434878759, -1130.618289782797, -3900.7370353623674, -3614.8805755234453, -2464.8609715534417, -3082.0596911978355, -1922.2723749008626, -7804.0668730815505, -14330.731550542301, 0.014, -0.106, 0.99, 192.0, 0.0, 56.0, 126.0, 88.0, 15.0, 120.0, 0.0, 0.0, 0.0, 1.645922997740254E9, 0.0, 2022-02-27 11:49:57.740
118.0, -53.57713145937103, -2567.4107751143906, -2070.129164472719, -9041.750018805269, 310.93511711777654, 505.0153142232078, -4516.102911961426, -1461.9381978438137, -2901.9493343769714, -4122.421636870103, -3342.99395596909, -2451.1817039467937, -2706.3715703930343, -1696.9667907913674, -7920.944144838351, -14778.682861171112, 0.014, -0.106, 0.99, 192.0, 0.0, 0.0, 0.0, 0.0, 0.0, 0.0, 0.0, 0.0, 0.0, 1.645922997746904E9, 0.0, 2022-02-27 11:49:57.746
120.0, -640.712754811377, -3030.985955117459, -2479.2554949826595, -9530.247393876005, -216.96838342766566, 228.27836612205104, -4673.995634793715, -1614.0641706066335, -2579.324254909069, -4538.4323046722775, -3739.8491787730673, -2620.2055955178257, -3124.103322518268, -2067.6257690937246, -8103.513193549299, -15055.59862322791, 0.014, -0.106, 0.99, 192.0, 0.0, 0.0, 0.0, 0.0, 0.0, 0.0, 0.0, 0.0, 0.0, 1.645922997754931E9, 0.0, 2022-02-27 11:49:57.754
122.0, -22.642317133226054, -2537.2806235886364, -1999.899983394144, -8984.01546287721, 389.2109262002619, 603.0277136597292, -4342.273395332503, -1251.2506546080895, -1446.0461075360904, -3698.565506764115, -3391.541944926017, -2387.009845615607, -2841.867845281106, -1720.3020120027081, -7731.490758835168, -14229.455796415306, 0.014, -0.106, 0.99, 192.0, 0.0, 0.0, 0.0, 0.0, 0.0, 0.0, 0.0, 0.0, 0.0, 1.645922997762069E9, 0.0, 2022-02-27 11:49:57.762
124.0, -508.4798346137804, -2943.568282552753, -2427.0865234239727, -9445.780151579398, -109.47884434209399, 226.53493005453709, -4720.353152794022, -1717.239823012331, -3782.1610310269634, -4643.507855356676, -3538.6164234419375, -2607.845080834041, -2832.8153887767066, -1897.193717622008, -8158.18556048698, -15341.633897022475, 0.014, -0.106, 0.99, 192.0, 0.0, 0.0, 0.0, 0.0, 0.0, 0.0, 0.0, 0.0, 0.0, 1.645922997769871E9, 0.0, 2022-02-27 11:49:57.769
126.0, -358.2537601296616, -2800.5618215276986, -2237.141399042773, -9261.288852845295, 62.18255307466425, 448.3536420290044, -4451.059335596483, -1357.2202750707002, -1135.5803770518753, -3911.264707000817, -3620.6473255929145, -2474.628683880411, -3082.462022598031, -1932.330659905751, -7806.100881826983, -14337.794701790179, 0.016, -0.10400000000000001, 0.99, 192.0, 0.0, 64.0, 126.0, 96.0, 15.0, 120.0, 0.0, 0.0, 0.0, 1.645922997776511E9, 0.0, 2022-02-27 11:49:57.776
128.0, -59.433288506661476, -2575.3456443960245, -2069.7268330725233, -9035.603289080058, 322.4462655122597, 508.07750321358486, -4495.159327406804, -1447.7001366257832, -2889.2088400374464, -4113.972677465997, -3348.1795606827213, -2453.685099325788, -2707.1091779600597, -1688.9425145319124, -7920.944144838351, -14775.978300092018, 0.016, -0.10400000000000001, 0.99, 192.0, 0.0, 0.0, 0.0, 0.0, 0.0, 0.0, 0.0, 0.0, 0.0, 1.645922997784964E9, 0.0, 2022-02-27 11:49:57.784
130.0, -650.0781357381506, -3045.425182035587, -2482.049463039573, -9535.768274756465, -220.72347649615725, 216.02961016054277, -4673.190971993324, -1626.7152579683375, -2644.546645229655, -4570.819982388018, -3743.1572369524524, -2629.928604355884, -3115.430845669609, -2074.063071496853, -8102.797937726729, -15079.31382409499, 0.016, -0.10400000000000001, 0.99, 192.0, 0.0, 0.0, 0.0, 0.0, 0.0, 0.0, 0.0, 0.0, 0.0, 1.645922997792567E9, 0.0, 2022-02-27 11:49:57.792
132.0, -26.732686368547245, -2533.16790260886, -1998.8494514047447, -8979.098079097043, 376.8951150053877, 598.1773851129276, -4360.668881019221, -1264.0135006920698, -1405.0977116939678, -3701.8065097101344, -3398.6945031517153, -2387.7027496937217, -2846.7181738279073, -1726.4934452168281, -7724.494662820657, -14225.566592880083, 0.016, -0.10400000000000001, 0.99, 192.0, 0.0, 0.0, 0.0, 0.0, 0.0, 0.0, 0.0, 0.0, 0.0, 1.645922997799847E9, 0.0, 2022-02-27 11:49:57.799
134.0, -481.79185173414373, -2911.918212404038, -2403.1925086012493, -9413.370122119204, -83.41671030720596, 242.91875874027716, -4725.225833085279, -1711.9871630653338, -3787.3242839961395, -4645.430105379833, -3528.93811809279, -2592.400025415424, -2829.9543654864274, -1876.2277813229302, -8150.071877249704, -15332.536737029164, 0.016, -0.10400000000000001, 0.99, 192.0, 0.0, 0.0, 0.0, 0.0, 0.0, 0.0, 0.0, 0.0, 0.0, 1.645922997807251E9, 0.0, 2022-02-27 11:49:57.807
136.0, -384.7405773092005, -2816.3198013686897, -2253.3017102839603, -9279.282007131816, 47.83273313435711, 427.16418828537326, -4474.282798085546, -1375.8169264575156, -1196.0641975479361, -3938.6679457030236, -3631.57732863156, -2479.523715916123, -3092.9673424920256, -1925.356915635695, -7816.203870320782, -14368.885978327511, 0.012, -0.106, 0.992, 192.0, 0.0, 48.0, 126.0, 88.0, 15.5, 0.0, 0.0, 0.0, 0.0, 1.645922997815537E9, 0.0, 2022-02-27 11:49:57.815
138.0, -51.69958492512524, -2562.716908778776, -2064.809449292356, -9032.295230900674, 328.14596034836296, 518.1804917073837, -4500.4119873538, -1456.9761105747357, -2834.737638799863, -4082.18849685055, -3340.9152437347466, -2445.951395744252, -2702.549422091177, -1686.9085057864793, -7910.751749366731, -14745.49052065498, 0.012, -0.106, 0.992, 192.0, 0.0, 0.0, 0.0, 0.0, 0.0, 0.0, 0.0, 0.0, 0.0, 1.645922997823204E9, 0.0, 2022-02-27 11:49:57.823
140.0, -657.0295282637511, -3050.297862326844, -2487.212716008749, -9540.84212074782, -228.8371597334337, 229.32889811145046, -4680.254123241201, -1616.791083430181, -2641.4397527503675, -4556.939549081272, -3744.7442108087794, -2637.61760444851, -3120.7729125944275, -2095.453690940582, -8106.687141261953, -15072.65300424731, 0.012, -0.106, 0.992, 192.0, 0.0, 0.0, 0.0, 0.0, 0.0, 0.0, 0.0, 0.0, 0.0, 1.645922997837057E9, 0.0, 2022-02-27 11:49:57.837
142.0, -39.2496632635192, -2541.974489924251, -2008.6842189650797, -8986.407099533928, 365.2275043997174, 593.3717600550366, -4371.0847939353935, -1260.034890179025, -1417.1453019553785, -3708.73555049128, -3402.8295758759473, -2399.6162294884, -2856.3741274326003, -1728.8403783846354, -7730.239061145671, -14218.883421287945, 0.012, -0.106, 0.992, 192.0, 0.0, 0.0, 0.0, 0.0, 0.0, 0.0, 0.0, 0.0, 0.0, 1.645922997844938E9, 0.0, 2022-02-27 11:49:57.844
144.0, -506.3564188905262, -2938.829712728228, -2420.783331487576, -9430.938593261075, -104.24853613955214, 229.9994504451097, -4742.727248993784, -1728.0804190731549, -3800.042426591209, -4656.270701440657, -3537.2082635412535, -2607.2862872226583, -2839.2973946687457, -1894.198583864997, -8156.576234886198, -15332.849661451539, 0.012, -0.106, 0.992, 192.0, 0.0, 0.0, 0.0, 0.0, 0.0, 0.0, 0.0, 0.0, 0.0, 1.645922997851946E9, 0.0, 2022-02-27 11:49:57.851
146.0, -378.63855107290163, -2813.9505164564275, -2248.7866579039883, -9274.565789051747, 57.89101813924529, 429.1311417974403, -4470.728870717153, -1369.580789754485, -1169.1750489682017, -3933.169416567018, -3630.012706519688, -2491.2807334996146, -3098.9576100060476, -1934.4317238845497, -7813.45460575278, -14353.17270197543, 0.016, -0.10200000000000001, 0.994, 192.0, 0.0, 64.0, 126.0, 104.0, 15.5, 8.0, 0.0, 0.0, 0.0, 1.645922997859467E9, 0.0, 2022-02-27 11:49:57.859
148.0, -54.672366937681076, -2566.9860919697394, -2065.3011876703727, -9028.249565154263, 326.73780044767864, 519.588651608068, -4499.719083275686, -1447.7895436036044, -2848.506313384332, -4087.642322497645, -3348.514836849551, -2463.072831997017, -2712.7418175627968, -1693.0999390005993, -7910.729397622275, -14751.324325957816, 0.016, -0.10200000000000001, 0.994, 192.0, 0.0, 0.0, 0.0, 0.0, 0.0, 0.0, 0.0, 0.0, 0.0, 1.64592299786747E9, 0.0, 2022-02-27 11:49:57.867
150.0, -648.2229409483601, -3034.7410481859506, -2489.224373009726, -9534.985963700528, -227.71957251066834, 210.26286009107355, -4676.409623194888, -1629.3304120696084, -2683.0810526706045, -4578.844258647473, -3744.4089346419496, -2639.584557960577, -3123.566880651341, -2084.6577983686684, -8111.537469808754, -15094.84828649143, 0.016, -0.10200000000000001, 0.994, 192.0, 0.0, 0.0, 0.0, 0.0, 0.0, 0.0, 0.0, 0.0, 0.0, 1.645922997875529E9, 0.0, 2022-02-27 11:49:57.875
152.0, -37.37211672927341, -2537.16886486636, -2006.4937480084598, -8979.25454130823, 359.75132700816715, 590.6224954870338, -4366.3238723664135, -1263.9911489476144, -1391.5749062985071, -3688.3954630369503, -3395.744072883615, -2386.1828310707606, -2857.0446797662594, -1720.2349567693423, -7724.762883754121, -14215.016569497177, 0.016, -0.10200000000000001, 0.994, 192.0, 0.0, 0.0, 0.0, 0.0, 0.0, 0.0, 0.0, 0.0, 0.0, 1.645922997882144E9, 0.0, 2022-02-27 11:49:57.882
154.0, -497.7733490196883, -2929.173759123535, -2412.7367034836657, -9419.96388673352, -100.09111167086503, 227.16077889928567, -4741.788475726661, -1731.0084975968002, -3792.08520556512, -4644.82660827954, -3521.830263356002, -2598.8149760740966, -2831.474284109388, -1873.2102958214637, -8151.99412727286, -15327.149966615436, 0.015, -0.10200000000000001, 0.993, 192.0, 0.0, 56.0, 126.0, 104.0, 15.5, 0.0, 0.0, 0.0, 0.0, 1.645922997889107E9, 0.0, 2022-02-27 11:49:57.889
156.0, -379.30910340656084, -2810.3295338546677, -2249.6583759377454, -9269.223722126928, 44.59173018833759, 422.73854288322246, -4479.826030710463, -1377.001568913647, -1170.3149879354226, -3927.7155909199228, -3625.76587507318, -2483.1670502623383, -3104.031455997402, -1931.8165697832787, -7818.193175577305, -14359.073562511632, 0.015, -0.10200000000000001, 0.993, 192.0, 0.0, 0.0, 0.0, 0.0, 0.0, 0.0, 0.0, 0.0, 0.0, 1.645922997897067E9, 0.0, 2022-02-27 11:49:57.897
158.0, -42.84829412082364, -2551.943367951318, -2056.2040276770626, -9013.855041725044, 324.43557076878204, 517.7781603071882, -4504.927039733772, -1448.0130610481574, -2814.442254834444, -4072.487839756947, -3338.7024210336713, -2451.785201047087, -2716.2063379533697, -1677.5878283486163, -7911.08702553356, -14737.287430439883, 0.015, -0.10200000000000001, 0.993, 192.0, 0.0, 0.0, 0.0, 0.0, 0.0, 0.0, 0.0, 0.0, 0.0, 1.645922997905151E9, 0.0, 2022-02-27 11:49:57.905
160.0, -649.0946589821172, -3036.976222631481, -2489.626704409922, -9536.103550923295, -244.9304157412548, 209.41349380177186, -4701.823556640573, -1653.0009094477784, -2709.2325936833136, -4569.501229465154, -3735.9376234933884, -2636.1200375700046, -3122.5163486619413, -2062.1048882132636, -8122.780397269774, -15104.034853462561, 0.015, -0.10200000000000001, 0.993, 192.0, 0.0, 0.0, 0.0, 0.0, 0.0, 0.0, 0.0, 0.0, 0.0, 1.645922997911687E9, 0.0, 2022-02-27 11:49:57.911
162.0, -22.195282244119912, -2522.2602513146703, -2003.4092072736273, -8979.813334919612, 343.5016087891589, 585.7721669402322, -4390.843736033886, -1284.711216057684, -1353.7781064245828, -3677.2866460426626, -3396.5040321950955, -2385.7134444371995, -2860.9562350459382, -1722.6042416816047, -7730.663744290322, -14215.307142175096, 0.015, -0.10200000000000001, 0.993, 192.0, 0.0, 0.0, 0.0, 0.0, 0.0, 0.0, 0.0, 0.0, 0.0, 1.645922997919592E9, 0.0, 2022-02-27 11:49:57.919
164.0, -464.1786771033618, -2894.1709273065244, -2398.051607376529, -9405.591715048757, -99.84524248185664, 245.24334016362909, -4743.040173416159, -1734.271852287275, -3767.8112110866564, -4618.898584711384, -3508.9333068052897, -2584.979246256262, -2821.6842200379638, -1858.5251997143268, -8154.51987439631, -15321.114995612503, 0.0125, -0.10200000000000001, 0.9924999999999999, 192.0, 0.0, 40.0, 126.0, 104.0, 15.5, 0.0, 0.0, 0.0, 0.0, 1.645922997928016E9, 0.0, 2022-02-27 11:49:57.928
166.0, -371.2177719137397, -2802.0370366617485, -2252.765268417033, -9271.347137850182, 21.502378166005393, 402.6443246179014, -4499.853193742418, -1392.8489557324597, -1176.3723106828106, -3932.1859398109846, -3629.3645059304845, -2484.9328380743073, -3102.5115373744416, -1940.7349158209463, -7824.876347169441, -14374.563321419158, 0.0125, -0.10200000000000001, 0.9924999999999999, 192.0, 0.0, 0.0, 0.0, 0.0, 0.0, 0.0, 0.0, 0.0, 0.0, 1.645922997934849E9, 0.0, 2022-02-27 11:49:57.934
168.0, -20.5636048988825, -2528.5410915066113, -2048.1126961842415, -9008.602381778048, 330.7387627051786, 510.35738114802615, -4494.600533795421, -1444.5261889131295, -2767.280074033746, -4039.519016685369, -3332.1757116527215, -2445.3926021328693, -2710.05960822816, -1682.0581772396777, -7905.074406275083, -14725.373950645204, 0.0125, -0.10200000000000001, 0.9924999999999999, 192.0, 0.0, 0.0, 0.0, 0.0, 0.0, 0.0, 0.0, 0.0, 0.0, 1.645922997942279E9, 0.0, 2022-02-27 11:49:57.942
170.0, -644.4007926465026, -3028.527263227375, -2493.5606114340558, -9534.538928811424, -243.61166281839166, 201.88095592033338, -4690.491222201732, -1649.8493134795801, -2722.8895095455064, -4573.792764400574, -3736.5858240825924, -2638.265805037714, -3119.4541596715644, -2066.9999202489757, -8119.5170425792985, -15108.818126775996, 0.0125, -0.10200000000000001, 0.9924999999999999, 192.0, 0.0, 0.0, 0.0, 0.0, 0.0, 0.0, 0.0, 0.0, 0.0, 1.645922997957445E9, 0.0, 2022-02-27 11:49:57.957
172.0, -23.581090400348952, -2523.8248734265417, -2011.3440765552614, -8983.724890199292, 340.8193994545221, 585.1910215843942, -4380.539581839988, -1266.3380821154217, -1346.3796790098763, -3677.0407768536543, -3401.8908026088243, -2388.32859853847, -2872.445031695966, -1717.6421544125265, -7726.394561099359, -14204.62300832546, 0.0125, -0.10200000000000001, 0.9924999999999999, 192.0, 0.0, 0.0, 0.0, 0.0, 0.0, 0.0, 0.0, 0.0, 0.0, 1.64592299796467E9, 0.0, 2022-02-27 11:49:57.964
174.0, -448.84538040702114, -2880.4916596998764, -2394.9894183861516, -9400.584924290768, -91.84331796685672, 233.10634292439735, -4742.995469927248, -1724.1912155379316, -3768.951150053877, -4608.147395628381, -3506.0052282816446, -2585.068653234083, -2821.661868293508, -1855.5524177017712, -8154.475170907399, -15315.772928687684, 0.01125, -0.099, 0.99225, 192.0, 0.0, 40.0, 126.5, 0.0, 15.5, 0.0, 0.0, 0.0, 0.0, 1.645922997972411E9, 0.0, 2022-02-27 11:49:57.972
176.0, -356.175047895318, -2785.1167661090813, -2250.530093971502, -9273.716422762445, 27.49264568002769, 405.9970862861975, -4505.105853689415, -1400.3591418694427, -1166.8951710337606, -3917.8584716151327, -3621.42963664885, -2477.2885414705925, -3098.2647059279334, -1934.163502951086, -7831.470111783757, -14382.498190700793, 0.01125, -0.099, 0.99225, 192.0, 0.0, 0.0, 0.0, 0.0, 0.0, 0.0, 0.0, 0.0, 0.0, 1.645922997979947E9, 0.0, 2022-02-27 11:49:57.979
178.0, 0.0, -2510.9949721091953, -2042.7929810038784, -9001.15925087443, 333.5103790176367, 519.879224285987, -4501.2166501541915, -1447.0742877810346, -2742.581396410632, -4037.261490495383, -3324.151435393266, -2437.502436340146, -2707.8691372715402, -1684.0027790072895, -7910.930563322373, -14722.669389566112, 0.01125, -0.099, 0.99225, 192.0, 0.0, 0.0, 0.0, 0.0, 0.0, 0.0, 0.0, 0.0, 0.0, 1.64592299798713E9, 0.0, 2022-02-27 11:49:57.987
180.0, -631.8838157515306, -3013.5739461867747, -2494.9240678458295, -9536.572937556855, -250.2948344105285, 191.55444998198152, -4710.406626511411, -1656.532485071717, -2755.277187261246, -4572.295197522068, -3720.850195986056, -2628.1404647994596, -3105.4172641536315, -2055.220550921029, -8132.011667729816, -15134.343818943957, 0.01125, -0.099, 0.99225, 192.0, 0.0, 0.0, 0.0, 0.0, 0.0, 0.0, 0.0, 0.0, 0.0, 1.645922997994626E9, 0.0, 2022-02-27 11:49:57.994
182.0, -26.33035496835172, -2521.299126303092, -2017.0214196469094, -8990.765689702714, 333.5550825065473, 570.9529603663636, -4380.9419132401845, -1272.9989019631032, -1317.255355984611, -3668.4130034939058, -3405.869413121869, -2390.541421239546, -2875.6860346419853, -1725.0182300827778, -7731.267241390615, -14208.266342671675, 0.01125, -0.099, 0.99225, 192.0, 0.0, 0.0, 0.0, 0.0, 0.0, 0.0, 0.0, 0.0, 0.0, 1.645922998002559E9, 0.0, 2022-02-27 11:49:58.002
184.0, -426.42658071834813, -2855.569464632209, -2386.8980868933304, -9386.793897961843, -74.76658520300212, 233.2851568800398, -4736.066429146103, -1742.4078872690068, -3766.0007197857763, -4593.104671609959, -3495.83518455448, -2585.7615573121975, -2819.761970014807, -1851.2161792774416, -8157.671470364508, -15317.695178710841, 0.009625, -0.0985, 0.9921249999999999, 192.0, 0.0, 32.0, 126.0, 120.0, 15.5, 0.0, 0.0, 0.0, 0.0, 1.645922998009636E9, 0.0, 2022-02-27 11:49:58.009
186.0, -373.497649848181, -2792.8951731795282, -2273.5300390160132, -9290.860210759665, -1.050531989399432, 390.73084482322275, -4508.503318846621, -1389.2056213862445, -1218.2594797920563, -3951.1849225979954, -3632.203177476308, -2485.201059007771, -3119.007124782458, -1937.359802408195, -7846.535187546634, -14413.857688171589, 0.009625, -0.0985, 0.9921249999999999, 192.0, 0.0, 0.0, 0.0, 0.0, 0.0, 0.0, 0.0, 0.0, 0.0, 1.645922998016877E9, 0.0, 2022-02-27 11:49:58.016
188.0, -1.1399389672206601, -2511.039675598106, -2046.5257223279148, -8999.92990492939, 328.36947779291603, 510.37973289248146, -4497.640371041342, -1425.7954270595822, -2706.1704046929367, -4022.956374043986, -3325.6937057606824, -2429.656974036333, -2719.8496722995847, -1674.0339009802224, -7901.676941117877, -14701.479935822481, 0.009625, -0.0985, 0.9921249999999999, 192.0, 0.0, 0.0, 0.0, 0.0, 0.0, 0.0, 0.0, 0.0, 0.0, 1.64592299802424E9, 0.0, 2022-02-27 11:49:58.024
190.0, -635.0354117197289, -3016.211452032501, -2501.6742946713325, -9539.74688526951, -252.15002920031898, 199.89165066381105, -4709.870184644483, -1656.4654298383512, -2784.7814899422515, -4583.3369592829895, -3724.761751265735, -2630.777970645186, -3115.2967352028772, -2060.9202457571323, -8133.978621241882, -15137.09308351196, 0.009625, -0.0985, 0.9921249999999999, 192.0, 0.0, 0.0, 0.0, 0.0, 0.0, 0.0, 0.0, 0.0, 0.0, 1.645922998032287E9, 0.0, 2022-02-27 11:49:58.032
192.0, -27.358535213295845, -2521.1203123474497, -2022.0729138938086, -8994.25256183774, 329.7999894380557, 586.9121059074529, -4391.782509301008, -1268.3720908608545, -1309.7675215920833, -3662.5568464466155, -3403.7459973986147, -2387.3227700379816, -2888.024197581315, -1718.1562445349987, -7734.396485614358, -14200.152659434398, 0.009625, -0.0985, 0.9921249999999999, 192.0, 0.0, 0.0, 0.0, 0.0, 0.0, 0.0, 0.0, 0.0, 0.0, 1.645922998040221E9, 0.0, 2022-02-27 11:49:58.040
194.0, -438.3624122574821, -2871.930941573494, -2395.503508508624, -9394.125270143184, -75.68300672566971, 243.7681250295788, -4738.189844869357, -1725.5770236941605, -3773.1532780114744, -4597.53031701211, -3492.504774630639, -2586.4991648792225, -2825.349906128634, -1869.4328510085168, -8155.369240685612, -15312.487222252754, 0.0098125, -0.10125, 0.9900625, 192.0, 0.0, 40.0, 126.0, 96.0, 15.0, 112.0, 0.0, 0.0, 0.0, 1.645922998046949E9, 0.0, 2022-02-27 11:49:58.046
196.0, -380.5831528405134, -2806.1721093859805, -2273.7535564605664, -9289.474402603437, 18.909575809189775, 392.25076344618367, -4503.071844943982, -1396.2017174007556, -1209.5422994544863, -3958.0022046568643, -3635.8688635669787, -2493.851184111975, -3120.370581194232, -1959.19745674103, -7839.650850254399, -14405.386377023027, 0.0098125, -0.10125, 0.9900625, 192.0, 0.0, 0.0, 0.0, 0.0, 0.0, 0.0, 0.0, 0.0, 0.0, 1.645922998054976E9, 0.0, 2022-02-27 11:49:58.054
198.0, 5.029142502444089, -2509.050370341584, -2043.2847193818952, -8992.598532748048, 342.7863529665891, 524.0590004991294, -4494.041740184038, -1435.317270197543, -2703.3987883804784, -4029.393676447115, -3331.303993618965, -2435.0660961945173, -2722.9118612899615, -1681.924066772946, -7902.123976006982, -14700.787031744365, 0.0098125, -0.10125, 0.9900625, 192.0, 0.0, 0.0, 0.0, 0.0, 0.0, 0.0, 0.0, 0.0, 0.0, 1.645922998062823E9, 0.0, 2022-02-27 11:49:58.062
200.0, -630.3415453841145, -3015.853824121216, -2497.8074428805644, -9539.053981191395, -246.96442448668773, 188.82753715843407, -4714.541699235642, -1671.7763747902363, -2817.6162025470976, -4584.543953483576, -3720.626678541503, -2626.7546566432306, -3109.172357222123, -2059.959120745554, -8138.247804432846, -15154.438037209278, 0.0098125, -0.10125, 0.9900625, 192.0, 0.0, 0.0, 0.0, 0.0, 0.0, 0.0, 0.0, 0.0, 0.0, 1.645922998071404E9, 0.0, 2022-02-27 11:49:58.071
202.0, -25.078657278854525, -2519.1533588353823, -2018.451931292049, -8994.453727537839, 332.66101272833504, 580.7430244377881, -4384.8758202643185, -1278.9221142437596, -1284.845326524416, -3661.3498522460286, -3405.0871020659333, -2382.13716532435, -2886.928962103005, -1735.4117912544957, -7728.987363456174, -14202.790165280125, 0.0098125, -0.10125, 0.9900625, 192.0, 0.0, 0.0, 0.0, 0.0, 0.0, 0.0, 0.0, 0.0, 0.0, 1.645922998084633E9, 0.0, 2022-02-27 11:49:58.084
204.0, -428.54999644160233, -2861.179752490491, -2385.8252031594757, -9384.75988921641, -74.0960328693429, 249.64663382132457, -4745.185940883868, -1712.7694741212697, -3767.7665075977457, -4583.739290683186, -3488.861440284424, -2572.7081385502984, -2817.2362228913576, -1848.1316385426092, -8152.843493562162, -15304.641759948941, 0.01090625, -0.10162500000000001, 0.9880312499999999, 192.0, 0.0, 48.0, 126.0, 104.0, 15.0, 104.0, 0.0, 0.0, 0.0, 1.645922998092675E9, 0.0, 2022-02-27 11:49:58.092
206.0, -390.9320105233205, -2812.542356555743, -2274.960550661153, -9294.011806727864, 6.861985547779268, 394.0389030026082, -4508.279801402068, -1405.321229138521, -1228.3177647969444, -3959.2762540908166, -3642.7979043481237, -2489.582000921011, -3126.494959174986, -1961.0750032752758, -7844.210606123282, -14411.063720114676, 0.01090625, -0.10162500000000001, 0.9880312499999999, 192.0, 0.0, 0.0, 0.0, 0.0, 0.0, 0.0, 0.0, 0.0, 0.0, 1.645922998099179E9, 0.0, 2022-02-27 11:49:58.099
208.0, -10.125340238254099, -2523.131969348427, -2042.3012426258617, -8995.727776971791, 334.7844284515892, 522.0473434981518, -4492.387711094345, -1432.836226563004, -2694.1898696648923, -4029.9748218029526, -3338.8588832448586, -2437.010697962129, -2737.664012630464, -1684.7850900632252, -7900.8052230841195, -14689.00766241642, 0.01090625, -0.10162500000000001, 0.9880312499999999, 192.0, 0.0, 0.0, 0.0, 0.0, 0.0, 0.0, 0.0, 0.0, 0.0, 1.645922998107305E9, 0.0, 2022-02-27 11:49:58.107
210.0, -656.1131067410835, -3035.4786557529756, -2508.9162598748517, -9552.040344719928, -264.8458200509334, 180.26681903205147, -4704.706931675307, -1665.5178863427504, -2861.8950083130608, -4623.838320236006, -3732.830731014101, -2644.0102033627277, -3122.3151829618437, -2072.74431857399, -8146.450894647944, -15162.730534402197, 0.01090625, -0.10162500000000001, 0.9880312499999999, 192.0, 0.0, 0.0, 0.0, 0.0, 0.0, 0.0, 0.0, 0.0, 0.0, 1.645922998115234E9, 0.0, 2022-02-27 11:49:58.115
212.0, -54.605311704315156, -2545.193141125815, -2027.0350011628868, -9004.467309053816, 320.0546288555418, 571.422346999925, -4395.112919224849, -1264.482887325631, -1297.2728964415667, -3676.593741964548, -3416.7994161605143, -2391.2790288065708, -2903.111625088647, -1753.20377984092, -7732.653049546844, -14199.52681058965, 0.01090625, -0.10162500000000001, 0.9880312499999999, 192.0, 0.0, 0.0, 0.0, 0.0, 0.0, 0.0, 0.0, 0.0, 0.0, 1.64592299812238E9, 0.0, 2022-02-27 11:49:58.122
214.0, -424.88431035093197, -2860.4868484123767, -2373.889371620342, -9372.488781510447, -61.82492516337933, 253.96052050119886, -4745.856493217528, -1722.3136690036856, -3777.690682135902, -4598.737311212696, -3492.504774630639, -2582.9005340219182, -2817.6832577804635, -1849.8527228656678, -8154.609281374131, -15299.612617446497, 0.011453125, -0.0998125, 0.983015625, 192.0, 0.0, 48.0, 126.0, 120.0, 15.0, 72.0, 0.0, 0.0, 0.0, 1.645922998129948E9, 0.0, 2022-02-27 11:49:58.129
216.0, -424.9960690732085, -2845.667641838508, -2293.601905536879, -9319.381036684637, -12.047590261410507, 374.83875451549943, -4504.278839144568, -1423.0238107471241, -1283.6606840682846, -4004.940868013009, -3656.8795033549673, -2507.1504720628827, -3134.340421478799, -1967.6687678895914, -7865.042431955628, -14446.33477286515, 0.011453125, -0.0998125, 0.983015625, 192.0, 0.0, 0.0, 0.0, 0.0, 0.0, 0.0, 0.0, 0.0, 0.0, 1.645922998136996E9, 0.0, 2022-02-27 11:49:58.136
218.0, -15.44505541861718, -2531.6703357303545, -2042.2788908814064, -8996.554791516637, 343.5016087891589, 523.1649307209171, -4469.208952094192, -1409.9703919852248, -2651.8333139220854, -4018.3742664306483, -3339.5294355785177, -2445.571416088512, -2737.5075504192773, -1690.3506744325966, -7886.8353827995525, -14668.734630195455, 0.011453125, -0.0998125, 0.983015625, 192.0, 0.0, 0.0, 0.0, 0.0, 0.0, 0.0, 0.0, 0.0, 0.0, 1.645922998145018E9, 0.0, 2022-02-27 11:49:58.145
220.0, -662.3268916996589, -3045.8498651802383, -2510.1232540754386, -9550.922757497163, -256.1733432022742, 177.49520271959338, -4718.050923115125, -1668.2224474218426, -2880.916342844527, -4610.829604963017, -3730.6402600574806, -2647.161799330926, -3115.6767148586173, -2073.772498818934, -8146.0485632477485, -15164.272804769613, 0.011453125, -0.0998125, 0.983015625, 192.0, 0.0, 0.0, 0.0, 0.0, 0.0, 0.0, 0.0, 0.0, 0.0, 1.645922998152071E9, 0.0, 2022-02-27 11:49:58.152
222.0, -55.946416371633575, -2549.752896994698, -2028.7337337414901, -9009.608210278537, 324.5473294910586, 564.9626928523413, -4397.839832048397, -1287.1922596922232, -1278.9891694771254, -3682.0028641227323, -3418.7216661836705, -2395.391749786347, -2898.1048343306584, -1746.1182768485878, -7731.155482668339, -14200.95732223479, 0.011453125, -0.0998125, 0.983015625, 192.0, 0.0, 0.0, 0.0, 0.0, 0.0, 0.0, 0.0, 0.0, 0.0, 1.645922998159654E9, 0.0, 2022-02-27 11:49:58.159
224.0, -427.3430022410157, -2866.0747845262035, -2376.146897810328, -9379.216656591494, -64.44007926465027, 245.24334016362909, -4731.573728510586, -1738.5186837337833, -3770.918103565944, -4596.278619322613, -3492.0800914859883, -2586.879144534963, -2814.419903089989, -1859.6427869370923, -8145.847397547651, -15299.836134891051, 0.016, -0.108, 0.982, 192.0, 0.0, 64.0, 126.0, 80.0, 15.0, 88.0, 0.0, 0.0, 0.0, 1.645922998167657E9, 0.0, 2022-02-27 11:49:58.167
226.0, -422.96206032777553, -2845.3547174161336, -2293.467795070147, -9317.056455261285, -15.802683329902093, 383.73474880871163, -4515.722932305686, -1404.4942145936745, -1268.9532362166926, -4003.756225556878, -3654.5549219316154, -2503.462434227757, -3130.4735696880307, -1965.0312620438651, -7857.621652796466, -14442.512624563293, 0.016, -0.108, 0.982, 192.0, 0.0, 0.0, 0.0, 0.0, 0.0, 0.0, 0.0, 0.0, 0.0, 1.6459229981756E9, 0.0, 2022-02-27 11:49:58.175
228.0, -7.085502992332339, -2521.768512936653, -2038.680260024102, -8993.894933926456, 343.25573960015055, 519.3651341635149, -4473.500487029611, -1419.0675519785348, -2635.673002680898, -4014.12743498414, -3343.2398251580985, -2445.861988766431, -2736.3005562186904, -1681.924066772946, -7891.9986357687285, -14657.37994401216, 0.016, -0.108, 0.982, 192.0, 0.0, 0.0, 0.0, 0.0, 0.0, 0.0, 0.0, 0.0, 0.0, 1.645922998182258E9, 0.0, 2022-02-27 11:49:58.182
230.0, -660.4940486543237, -3040.1278185996794, -2517.6781437013324, -9554.499036610012, -261.6271688493692, 187.41937725774972, -4740.827350715083, -1671.9328370014236, -2926.0668666442475, -4630.320326128045, -3732.182530424897, -2649.039345865172, -3100.9916187514805, -2064.295359169884, -8152.552920884243, -15187.853895169961, 0.016, -0.108, 0.982, 192.0, 0.0, 0.0, 0.0, 0.0, 0.0, 0.0, 0.0, 0.0, 0.0, 1.64592299819026E9, 0.0, 2022-02-27 11:49:58.190
232.0, -68.26222756650778, -2559.900588977407, -2043.351774615261, -9017.431320837894, 308.3423147609609, 564.6274166855117, -4383.91469525274, -1268.4391460942204, -1260.1466489013017, -3669.9105703724113, -3428.712895955193, -2396.732854453666, -2902.508127988354, -1739.9938988678337, -7738.48685484968, -14195.57055182106, 0.016, -0.108, 0.982, 192.0, 0.0, 0.0, 0.0, 0.0, 0.0, 0.0, 0.0, 0.0, 0.0, 1.645922998204332E9, 0.0, 2022-02-27 11:49:58.204
234.0, -416.21183350227284, -2856.0164995213154, -2376.526877466068, -9362.005813360907, -56.259340794007876, 253.13350595635248, -4732.378391310977, -1703.3817414500406, -3770.694586121391, -4587.67319770732, -3490.537821118572, -2585.1804119563594, -2809.636629776553, -1843.9965658183773, -8148.70842083793, -15288.704966152307, 0.014, -0.11, 0.988, 192.0, 0.0, 56.0, 126.0, 72.0, 15.0, 112.0, 0.0, 0.0, 0.0, 1.645922998211878E9, 0.0, 2022-02-27 11:49:58.211
236.0, -425.5995661735018, -2844.3265371711896, -2298.8098619949656, -9324.544289653813, -20.22832873205289, 366.9038852338654, -4509.307981647013, -1425.929537526314, -1311.35449544841, -4019.0224670198522, -3663.830895880568, -2510.9949721091953, -3133.5134069339524, -1959.2421602299405, -7871.055051214105, -14463.277395162273, 0.014, -0.11, 0.988, 192.0, 0.0, 0.0, 0.0, 0.0, 0.0, 0.0, 0.0, 0.0, 0.0, 1.64592299821992E9, 0.0, 2022-02-27 11:49:58.219
238.0, 1.6763808341480297, -2508.6033354524775, -2023.6375360056802, -8980.081555853076, 361.22654214221745, 534.4302099263919, -4484.184620879248, -1417.704095566761, -2574.9209612513737, -3990.322827139238, -3329.024115684523, -2432.7191630267102, -2713.3676664075456, -1674.7491568027922, -7873.401984381912, -14647.746342151922, 0.014, -0.11, 0.988, 192.0, 0.0, 0.0, 0.0, 0.0, 0.0, 0.0, 0.0, 0.0, 0.0, 1.64592299822784E9, 0.0, 2022-02-27 11:49:58.227
240.0, -666.8419440796309, -3040.4183912775984, -2515.1076930889717, -9548.553472584901, -262.2977211830284, 182.68080743322463, -4741.162626881913, -1674.8162120361583, -2960.466201360965, -4627.168730159847, -3720.850195986056, -2640.7915521611635, -3083.8925342431708, -2055.4664201100377, -8158.833761076184, -15192.726575461218, 0.014, -0.11, 0.988, 192.0, 0.0, 0.0, 0.0, 0.0, 0.0, 0.0, 0.0, 0.0, 0.0, 1.645922998234469E9, 0.0, 2022-02-27 11:49:58.234
242.0, -83.66257949621433, -2565.8238012580637, -2043.2847193818952, -9017.900707471455, 309.30343977253915, 568.5389719651904, -4365.3850990992905, -1265.5334193150306, -1236.297337567489, -3676.7055006868245, -3434.7925704470363, -2397.5598689985122, -2905.413854767544, -1751.2815298177636, -7736.475197848702, -14192.687176786325, 0.014, -0.11, 0.988, 192.0, 0.0, 0.0, 0.0, 0.0, 0.0, 0.0, 0.0, 0.0, 0.0, 1.645922998242485E9, 0.0, 2022-02-27 11:49:58.242
244.0, -424.0796475505409, -2862.0738222687037, -2365.663929660789, -9362.162275572095, -44.03293657695491, 249.62428207686926, -4693.061672814092, -1702.7111891163813, -3757.574112126126, -4567.176648041803, -3487.4085768948294, -2582.0511677326167, -2799.4218825604776, -1837.559263415249, -8135.699705564941, -15274.60101540101, 0.016, -0.108, 0.99, 192.0, 0.0, 64.0, 126.0, 80.0, 15.0, 120.0, 0.0, 0.0, 0.0, 1.64592299825037E9, 0.0, 2022-02-27 11:49:58.250
246.0, -452.5557699866021, -2868.958159560938, -2306.9011934877867, -9331.115702523673, -31.404200959706422, 365.94276022228723, -4504.234135655658, -1410.5962408299733, -1322.0833327869575, -4031.807664848288, -3674.269160541196, -2521.9920303812064, -3133.3792964672207, -1980.2751517623844, -7870.3397953915355, -14464.484389362859, 0.016, -0.108, 0.99, 192.0, 0.0, 0.0, 0.0, 0.0, 0.0, 0.0, 0.0, 0.0, 0.0, 1.645922998257481E9, 0.0, 2022-02-27 11:49:58.257
248.0, -11.80172107240213, -2521.388533280913, -2031.773570987412, -8985.49067801126, 352.4646583157371, 530.9656895358193, -4458.591873477921, -1402.7731302706159, -2578.9889787422394, -4003.443301134503, -3346.681993804216, -2440.8104945195314, -2732.3666491945564, -1680.0018167497894, -7878.833458284553, -14634.13412977864, 0.016, -0.108, 0.99, 192.0, 0.0, 0.0, 0.0, 0.0, 0.0, 0.0, 0.0, 0.0, 0.0, 1.645922998264116E9, 0.0, 2022-02-27 11:49:58.264
250.0, -676.2967319842257, -3057.98686241947, -2521.16501583636, -9557.382411644747, -266.25397995161774, 180.60209519888107, -4716.59805972553, -1680.3817964055297, -2980.850992304205, -4648.268776925656, -3728.583899567592, -2647.228854564292, -3091.693293058073, -2055.086440454297, -8155.592758130165, -15197.95688366376, 0.016, -0.108, 0.99, 192.0, 0.0, 0.0, 0.0, 0.0, 0.0, 0.0, 0.0, 0.0, 0.0, 1.645922998272145E9, 0.0, 2022-02-27 11:49:58.272
252.0, -95.46430056861647, -2578.0502054751164, -2051.890140997188, -9023.242774396274, 310.91276537332124, 566.5943701975788, -4367.173238655715, -1268.8191257499607, -1241.840570192405, -3693.044625883654, -3442.0121839061003, -2403.0583981345176, -2909.86185191415, -1752.399117040529, -7728.987363456174, -14184.506438315682, 0.016, -0.108, 0.99, 192.0, 0.0, 0.0, 0.0, 0.0, 0.0, 0.0, 0.0, 0.0, 0.0, 1.645922998280061E9, 0.0, 2022-02-27 11:49:58.280
254.0, -427.45476096329224, -2873.2720462408124, -2373.1294123088614, -9363.168104072583, -33.52761668296059, 264.53289562855906, -4696.3920827379325, -1694.1057675010882, -3759.563417382648, -4576.81024990204, -3489.554344362539, -2585.4262811453677, -2796.538507525743, -1822.3600771856402, -8125.842586260151, -15265.325041452055, 0.016, -0.10400000000000001, 0.992, 192.0, 0.0, 64.0, 126.0, 96.0, 15.5, 0.0, 0.0, 0.0, 0.0, 1.645922998287307E9, 0.0, 2022-02-27 11:49:58.287
0.0, -458.14370610042886, -2875.954255575449, -2314.053751713485, -9332.009772301886, -13.343991439818316, 372.22360041422854, -4492.164193649793, -1405.6788570498059, -1334.801475382027, -4046.783333633344, -3681.9358088893664, -2529.0775333735387, -3133.7369243785056, -1969.3898522126499, -7867.568179079078, -14461.176331183475, 0.016, -0.10400000000000001, 0.992, 192.0, 0.0, 0.0, 0.0, 0.0, 0.0, 0.0, 0.0, 0.0, 0.0, 1.645922998295209E9, 0.0, 2022-02-27 11:49:58.295
2.0, -27.55970091339361, -2538.26410034467, -2035.8415884782778, -8984.037814621666, 379.2196964287396, 541.1804367518946, -4437.692992412209, -1380.9801794266916, -2565.4438216023236, -3989.5628678277576, -3354.0133659855564, -2447.225445178204, -2722.6212886120425, -1675.3526539030856, -7869.289263402136, -14618.331446448738, 0.016, -0.10400000000000001, 0.992, 192.0, 0.0, 0.0, 0.0, 0.0, 0.0, 0.0, 0.0, 0.0, 0.0, 1.645922998302674E9, 0.0, 2022-02-27 11:49:58.302
4.0, -685.5056506998123, -3062.077231654791, -2525.5683094940555, -9555.326051154858, -250.09366871043073, 183.79839465598997, -4704.326952019567, -1674.9056190139795, -3017.2396322774453, -4665.546675389609, -3743.492513119282, -2661.7574884602413, -3085.7700807774168, -2050.526684585415, -8153.156417984536, -15194.693528973286, 0.016, -0.10400000000000001, 0.992, 192.0, 0.0, 0.0, 0.0, 0.0, 0.0, 0.0, 0.0, 0.0, 0.0, 1.645922998310721E9, 0.0, 2022-02-27 11:49:58.310
6.0, -95.73252150208015, -2583.1240514664714, -2048.671489795624, -9024.717989530325, 332.4598470282373, 576.9655796248412, -4353.404564071246, -1262.001843691092, -1231.8716921653381, -3684.7521286907354, -3446.281367097064, -2403.23721209016, -2899.7141599314405, -1742.340832035641, -7720.024313929595, -14174.537560288616, 0.016, -0.10400000000000001, 0.992, 192.0, 0.0, 0.0, 0.0, 0.0, 0.0, 0.0, 0.0, 0.0, 0.0, 1.645922998317389E9, 0.0, 2022-02-27 11:49:58.317
8.0, -415.1836532573287, -2859.9057030565386, -2364.233418015649, -9351.858121378198, -6.861985547779268, 271.5513433875255, -4695.721530404274, -1699.403130936996, -3748.521655621726, -4564.583845684987, -3482.468841370206, -2577.357301397002, -2778.5230014947656, -1819.2755364508077, -8120.388760613056, -15258.753628582195, 0.016, -0.106, 0.994, 192.0, 0.0, 64.0, 126.0, 88.0, 15.5, 8.0, 0.0, 0.0, 0.0, 1.645922998332304E9, 0.0, 2022-02-27 11:49:58.332
10.0, -454.72388919876687, -2872.5791421626977, -2318.658211071278, -9332.501510679902, -12.85225306180156, 390.35086516748254, -4506.603420567921, -1420.2968979235766, -1340.7246876626834, -4032.411161948581, -3681.1311460889756, -2517.655791956877, -3126.852587086271, -1979.7834133843678, -7870.138629691438, -14470.63111908807, 0.016, -0.106, 0.994, 192.0, 0.0, 0.0, 0.0, 0.0, 0.0, 0.0, 0.0, 0.0, 0.0, 1.645922998339442E9, 0.0, 2022-02-27 11:49:58.339
12.0, -17.456712419594815, -2528.6975537177987, -2037.741486756979, -8980.528590742182, 368.44615560128165, 534.3184512041154, -4456.982547877139, -1403.4883860931857, -2543.3379463360247, -3995.7543010418776, -3350.5935490838947, -2437.6812502957882, -2725.906995046973, -1677.8113457931693, -7869.244559913226, -14616.27508595885, 0.016, -0.106, 0.994, 192.0, 0.0, 0.0, 0.0, 0.0, 0.0, 0.0, 0.0, 0.0, 0.0, 1.645922998346885E9, 0.0, 2022-02-27 11:49:58.346
14.0, -687.3831972340581, -3063.239522366467, -2530.7092107187764, -9558.052963978405, -257.02270949157594, 171.10260380537557, -4722.163644094902, -1697.3244187026523, -3041.3124610558107, -4665.390213178422, -3736.5634723381368, -2653.196770333859, -3086.820612766816, -2052.7171555420346, -8161.068935521715, -15210.496212303187, 0.016, -0.106, 0.994, 192.0, 0.0, 0.0, 0.0, 0.0, 0.0, 0.0, 0.0, 0.0, 0.0, 1.645922998354993E9, 0.0, 2022-02-27 11:49:58.354
16.0, -102.12512041629797, -2580.7324148097537, -2057.165152688641, -9030.194166921874, 309.92928861728774, 559.5312189497017, -4373.7222997811205, -1285.2700096690667, -1218.4606454921538, -3670.3576052615176, -3449.9917566766453, -2403.214860345705, -2912.789930437795, -1752.3097100627078, -7723.645296531356, -14179.365537090962, 0.016, -0.106, 0.994, 192.0, 0.0, 0.0, 0.0, 0.0, 0.0, 0.0, 0.0, 0.0, 0.0, 1.645922998362971E9, 0.0, 2022-02-27 11:49:58.362
18.0, -414.06606603456333, -2850.316804685212, -2364.3898802268363, -9344.28088000785, -13.16517748417586, 264.2423229506401, -4700.281286273156, -1706.1980612514094, -3749.7062980778574, -4560.404069471845, -3481.7535855476362, -2570.1153361934826, -2785.02735913126, -1811.9441642694671, -8117.371275111589, -15254.305631435589, 0.01, -0.1, 0.99, 192.0, 0.0, 40.0, 126.0, 112.0, 15.0, 120.0, 0.0, 0.0, 0.0, 1.645922998369571E9, 0.0, 2022-02-27 11:49:58.369
20.0, -464.5810085035573, -2870.90276132855, -2329.8117315544764, -9342.425685218059, -27.224424746564, 359.1701816523292, -4513.4654061157, -1436.2113399757552, -1380.9578276822363, -4063.413031508092, -3692.1952595943526, -2518.460454757268, -3145.7621628954607, -1976.5424104383483, -7878.162905950893, -14488.333700696672, 0.01, -0.1, 0.99, 192.0, 0.0, 0.0, 0.0, 0.0, 0.0, 0.0, 0.0, 0.0, 0.0, 1.645922998379082E9, 0.0, 2022-02-27 11:49:58.379
22.0, -10.840596060823925, -2516.538204734112, -2036.9591757010433, -8974.87359939499, 369.0496527015749, 539.5264076622019, -4457.228417066147, -1408.4281216178085, -2525.680068216332, -3974.386033342604, -3351.800543284481, -2432.6744595377995, -2739.988594053816, -1663.8638572530576, -7864.751859277709, -14605.36743466466, 0.01, -0.1, 0.99, 192.0, 0.0, 0.0, 0.0, 0.0, 0.0, 0.0, 0.0, 0.0, 0.0, 1.645922998385036E9, 0.0, 2022-02-27 11:49:58.385
24.0, -681.9964268203291, -3055.9752054184924, -2532.0950188750053, -9559.349365156813, -251.8371047779447, 164.59824616888122, -4739.2403768587565, -1712.3447909766187, -3070.7050050145394, -4666.038413767626, -3730.7296670353016, -2649.352270287546, -3087.7370342894837, -2046.8833502391997, -8164.622862890109, -15222.67791303133, 0.01, -0.1, 0.99, 192.0, 0.0, 0.0, 0.0, 0.0, 0.0, 0.0, 0.0, 0.0, 0.0, 1.64592299839261E9, 0.0, 2022-02-27 11:49:58.392
26.0, -106.37195186280631, -2586.1415369679376, -2061.5684463463363, -9037.860815270045, 299.62513442339116, 550.5234659342129, -4382.774756285519, -1305.6100971233961, -1205.3848749857993, -3688.7083874593245, -3453.6127392784047, -2398.297476565537, -2921.887090431105, -1754.5672362526939, -7727.065113433017, -14183.411202837373, 0.01, -0.1, 0.99, 192.0, 0.0, 0.0, 0.0, 0.0, 0.0, 0.0, 0.0, 0.0, 0.0, 1.64592299839924E9, 0.0, 2022-02-27 11:49:58.399
28.0, -395.0894349920076, -2836.0787434671815, -2353.3257667214593, -9336.636583404133, -10.34885768280717, 278.4133289353048, -4712.261821301201, -1705.9521920624009, -3737.9269287499105, -4549.004679799638, -3476.523277345095, -2569.4447838598235, -2786.9943126433272, -1813.7099520814363, -8117.371275111589, -15250.528186622643, 0.01, -0.098, 0.99, 192.0, 0.0, 40.0, 126.0, 120.0, 15.0, 120.0, 0.0, 0.0, 0.0, 1.645922998407295E9, 0.0, 2022-02-27 11:49:58.407
30.0, -464.1786771033618, -2870.768650861818, -2329.923490276753, -9348.572414943268, -43.27297726547447, 354.1857426387957, -4529.536310379066, -1456.8867035969145, -1400.8508802474596, -4074.454793269014, -3689.624808981992, -2527.4682077727566, -3149.7407734085054, -1989.1264425666861, -7889.092908989538, -14509.97018932941, 0.01, -0.098, 0.99, 192.0, 0.0, 0.0, 0.0, 0.0, 0.0, 0.0, 0.0, 0.0, 0.0, 1.645922998415218E9, 0.0, 2022-02-27 11:49:58.415
32.0, 4.850328546801633, -2502.3671987494467, -2017.5355097693814, -8969.576235959083, 382.2818854191167, 558.0783555601067, -4456.043774610016, -1400.9402872252808, -2458.5801313615, -3947.5415882517805, -3337.1154471773443, -2425.141921656361, -2733.9536230508834, -1667.1719154324433, -7855.9005684734075, -14588.424812367537, 0.01, -0.098, 0.99, 192.0, 0.0, 0.0, 0.0, 0.0, 0.0, 0.0, 0.0, 0.0, 0.0, 1.645922998422407E9, 0.0, 2022-02-27 11:49:58.422
34.0, -675.0673860391839, -3048.912054170615, -2525.4118472828686, -9559.75169655701, -248.28317740955086, 177.09287131939786, -4727.259841830712, -1709.2826019862416, -3096.4765663715084, -4646.994727491704, -3715.530480805693, -2646.3124330416244, -3070.2579701254335, -2053.812391020345, -8160.823066332707, -15236.044256215604, 0.01, -0.098, 0.99, 192.0, 0.0, 0.0, 0.0, 0.0, 0.0, 0.0, 0.0, 0.0, 0.0, 1.645922998429954E9, 0.0, 2022-02-27 11:49:58.429
36.0, -109.90352748674482, -2585.1580602119043, -2064.608283592258, -9041.437094382894, 299.58043093448055, 563.1298498070062, -4379.399642872768, -1289.9415242602258, -1180.775604340506, -3693.5810677505815, -3455.959672446212, -2406.165290613805, -2925.6421834995967, -1760.4904485333502, -7719.420816829303, -14180.818400480557, 0.01, -0.098, 0.99, 192.0, 0.0, 0.0, 0.0, 0.0, 0.0, 0.0, 0.0, 0.0, 0.0, 1.645922998437875E9, 0.0, 2022-02-27 11:49:58.437
38.0, -381.6783883188234, -2827.853301507628, -2344.8321038284425, -9326.578298399247, 3.7550930684915866, 291.66791339730185, -4707.724417176773, -1704.1417007615212, -3720.3808093524945, -4540.667479117808, -3469.5495330750387, -2566.9637402252843, -2785.832021931651, -1802.9811147428888, -8111.55982155321, -15235.083131204026, 0.01, -0.1, 0.994, 192.0, 0.0, 40.0, 126.0, 112.0, 15.5, 8.0, 0.0, 0.0, 0.0, 1.645922998451416E9, 0.0, 2022-02-27 11:49:58.451
40.0, -482.2612383677052, -2888.8512121261615, -2342.306356704993, -9364.799781417822, -38.109724296298545, 358.6560915298571, -4542.61208088542, -1471.7506136596935, -1437.1724649873336, -4100.025188925885, -3700.3759980649947, -2534.5760625095445, -3155.842799644804, -1997.7542159264347, -7898.994731783239, -14528.745654671868, 0.01, -0.1, 0.994, 192.0, 0.0, 0.0, 0.0, 0.0, 0.0, 0.0, 0.0, 0.0, 0.0, 1.645922998459764E9, 0.0, 2022-02-27 11:49:58.459
42.0, -2.458691890083777, -2512.1572628208714, -2024.8445302062669, -8978.62869246348, 380.51609760714746, 552.6915851463777, -4455.909664143284, -1421.3921334018867, -2443.917386998819, -3953.263634832339, -3349.163037438755, -2432.0933141819614, -2742.4919894328104, -1678.012511493267, -7855.721754517765, -14581.093440186196, 0.01, -0.1, 0.994, 192.0, 0.0, 0.0, 0.0, 0.0, 0.0, 0.0, 0.0, 0.0, 0.0, 1.645922998467538E9, 0.0, 2022-02-27 11:49:58.467
44.0, -677.839002351642, -3057.785696719372, -2530.1280653629383, -9567.150123971716, -261.9847967606541, 169.85090611587836, -4739.955632681326, -1716.1892910229317, -3107.6747903436176, -4674.040338282626, -3722.2136523978297, -2653.66615696742, -3076.427051595098, -2045.9445769720767, -8166.343947213167, -15243.286221419123, 0.01, -0.1, 0.994, 192.0, 0.0, 0.0, 0.0, 0.0, 0.0, 0.0, 0.0, 0.0, 0.0, 1.645922998474812E9, 0.0, 2022-02-27 11:49:58.474
46.0, -109.68001004219175, -2592.2435632042366, -2065.9940917484873, -9051.137751476497, 293.14312853135215, 547.8859600884867, -4384.026453975017, -1308.9628587916923, -1161.5978075978528, -3690.9435619048554, -3458.4630678252065, -2407.752264470132, -2930.24664285739, -1768.4476695594394, -7726.975706455196, -14174.00111842169, 0.012, -0.10200000000000001, 0.99, 192.0, 0.0, 56.0, 126.0, 96.0, 15.0, 104.0, 0.0, 0.0, 0.0, 1.645922998482214E9, 0.0, 2022-02-27 11:49:58.482
48.0, -369.49668759068106, -2818.9126037255055, -2337.8360078139317, -9327.584126899736, 6.034971002932907, 290.1256430298857, -4714.541699235642, -1695.4468721684066, -3702.231192854785, -4521.2885166750575, -3460.832352737469, -2565.712042535787, -2775.103184593104, -1816.5709753717156, -8107.5365075512545, -15230.657485801876, 0.012, -0.10200000000000001, 0.99, 192.0, 0.0, 0.0, 0.0, 0.0, 0.0, 0.0, 0.0, 0.0, 0.0, 1.645922998490219E9, 0.0, 2022-02-27 11:49:58.490
50.0, -480.54015404464656, -2885.8113748802393, -2343.602757883401, -9368.890150653142, -48.03389883445488, 348.46369605823713, -4530.050400501537, -1457.512552441663, -1433.8644068079482, -4087.3070463308154, -3695.749186962746, -2532.9667369087624, -3148.7125931635615, -2002.291620050862, -7893.004464269217, -14530.466738994926, 0.012, -0.10200000000000001, 0.99, 192.0, 0.0, 0.0, 0.0, 0.0, 0.0, 0.0, 0.0, 0.0, 0.0, 1.6459229984982E9, 0.0, 2022-02-27 11:49:58.498
52.0, 9.700657093603265, -2495.68402715731, -2018.7648557144232, -8969.464477236805, 393.0554262465747, 556.0666985591291, -4441.8727686253515, -1404.9188977383253, -2405.1594621133163, -3934.845797401166, -3349.0065752275677, -2428.71820076921, -2742.201416754892, -1684.3604069185744, -7842.198949122304, -14567.257710368362, 0.012, -0.10200000000000001, 0.99, 192.0, 0.0, 0.0, 0.0, 0.0, 0.0, 0.0, 0.0, 0.0, 0.0, 1.645922998504269E9, 0.0, 2022-02-27 11:49:58.504
54.0, -674.2180197498823, -3049.403792548632, -2531.6703357303545, -9563.41738264768, -241.55530232850342, 173.65070267328056, -4730.210272098812, -1721.3972474810182, -3166.0351951164243, -4681.170544763869, -3713.630582526992, -2653.1744185894036, -3062.434859566076, -2052.091306697286, -8166.813333846729, -15264.520378651665, 0.012, -0.10200000000000001, 0.99, 192.0, 0.0, 0.0, 0.0, 0.0, 0.0, 0.0, 0.0, 0.0, 0.0, 1.645922998511762E9, 0.0, 2022-02-27 11:49:58.511
56.0, -121.5487863479598, -2593.7634818271977, -2074.018368007942, -9051.897710787978, 296.2723727550951, 545.293157731671, -4382.3500731408685, -1299.5080708870973, -1147.493856846554, -3692.5528875056375, -3468.9236842302903, -2407.0593603920174, -2943.702393019485, -1776.4719458188947, -7729.322639623004, -14185.42285983835, 0.014, -0.10500000000000001, 0.99, 192.0, 0.0, 64.0, 126.0, 80.0, 15.0, 120.0, 0.0, 0.0, 0.0, 1.64592299851978E9, 0.0, 2022-02-27 11:49:58.519
58.0, -373.6988155482788, -2816.185690901958, -2335.198501968205, -9317.883469806131, 15.266241462974724, 288.3598552179164, -4692.346416991522, -1698.8443373256132, -3691.435300282872, -4510.984362481161, -3464.2968731280416, -2561.912245978385, -2774.5220392372657, -1792.296980893252, -8101.881516204062, -15221.403863597377, 0.014, -0.10500000000000001, 0.99, 192.0, 0.0, 0.0, 0.0, 0.0, 0.0, 0.0, 0.0, 0.0, 0.0, 1.645922998527768E9, 0.0, 2022-02-27 11:49:58.527
60.0, -488.6314855374677, -2888.8512121261615, -2345.4579526731914, -9372.578188488269, -55.65584369371459, 335.70084997425676, -4552.178627512291, -1481.317160286565, -1456.5514274300847, -4104.719055261499, -3706.455672556838, -2542.332117835536, -3154.3899362552092, -2006.8513759197447, -7900.469946917289, -14547.16349210304, 0.014, -0.10500000000000001, 0.99, 192.0, 0.0, 0.0, 0.0, 0.0, 0.0, 0.0, 0.0, 0.0, 0.0, 1.6459229985344E9, 0.0, 2022-02-27 11:49:58.534
62.0, -1.452863389594959, -2505.809367395564, -2021.0894371377751, -8969.240959792252, 389.6356093449127, 552.6021781685565, -4427.813521362963, -1395.061778433535, -2388.7085781942105, -3926.6874106749788, -3350.861770017358, -2430.5063403256345, -2742.6484516439978, -1686.014436008267, -7844.769399734664, -14563.368506833138, 0.014, -0.10500000000000001, 0.99, 192.0, 0.0, 0.0, 0.0, 0.0, 0.0, 0.0, 0.0, 0.0, 0.0, 1.645922998542517E9, 0.0, 2022-02-27 11:49:58.542
64.0, -681.4599849534018, -3055.1258391291904, -2537.012402655173, -9566.479571638058, -252.73117455615696, 168.9791880821214, -4733.853606445027, -1726.269927772275, -3182.8660586912706, -4687.384329722444, -3724.8064547546455, -2661.511619271233, -3073.5883800492743, -2057.165152688641, -8170.724889126407, -15264.609785629485, 0.014, -0.10500000000000001, 0.99, 192.0, 0.0, 0.0, 0.0, 0.0, 0.0, 0.0, 0.0, 0.0, 0.0, 1.645922998550551E9, 0.0, 2022-02-27 11:49:58.550
66.0, -130.33302191889547, -2599.284362707658, -2082.5567343898697, -9057.060963757154, 289.29862848503933, 558.458335215847, -4397.661018092754, -1304.9618965341922, -1153.0817929603807, -3684.7074252018247, -3472.052928454033, -2409.0933691374507, -2938.0474016722924, -1773.58857078416, -7725.813415743521, -14180.214903380263, 0.015, -0.10750000000000001, 0.99, 192.0, 0.0, 64.0, 126.0, 72.0, 15.0, 120.0, 0.0, 0.0, 0.0, 1.645922998557559E9, 0.0, 2022-02-27 11:49:58.557
68.0, -367.1497544228738, -2812.4305978334664, -2334.438542656725, -9318.688132606523, 23.558738655893645, 290.4609191967153, -4688.747786134218, -1692.5187936447614, -3698.8337276975785, -4503.340065877445, -3468.3648906189073, -2566.2261326582593, -2774.0079491147935, -1806.4679868779167, -8105.636609272553, -15220.755663008174, 0.015, -0.10750000000000001, 0.99, 192.0, 0.0, 0.0, 0.0, 0.0, 0.0, 0.0, 0.0, 0.0, 0.0, 1.645922998565097E9, 0.0, 2022-02-27 11:49:58.565
70.0, -497.8180525085989, -2895.1097005736474, -2354.5551126665014, -9382.815287448799, -59.768564673491085, 337.9136726753322, -4539.99692678415, -1500.3608465624866, -1479.3055032855873, -4115.492596088958, -3712.557698793137, -2548.814123727575, -3156.848628145293, -2015.1885766015741, -7905.856717331018, -14562.250919610373, 0.015, -0.10750000000000001, 0.99, 192.0, 0.0, 0.0, 0.0, 0.0, 0.0, 0.0, 0.0, 0.0, 0.0, 1.645922998580096E9, 0.0, 2022-02-27 11:49:58.580
72.0, -2.7045610790921546, -2507.2175272962486, -2023.4363703055824, -8973.644253449947, 389.99323725619763, 552.3786607240035, -4437.73769590112, -1400.7167697807276, -2361.171229025272, -3920.58538443868, -3354.3039386634755, -2432.227424648693, -2748.839884858118, -1685.209773207876, -7845.2164346237705, -14564.508445800358, 0.015, -0.10750000000000001, 0.99, 192.0, 0.0, 0.0, 0.0, 0.0, 0.0, 0.0, 0.0, 0.0, 0.0, 1.645922998586728E9, 0.0, 2022-02-27 11:49:58.586
74.0, -679.0683482966839, -3052.309519327822, -2538.8899491894185, -9571.016975762484, -257.9167792697882, 166.4534409586717, -4741.386144326466, -1716.3457532341188, -3215.656067807206, -4696.079158315559, -3730.170873423919, -2670.0946891420713, -3068.6709962691066, -2054.6394055651913, -8174.010595561337, -15274.06457353408, 0.015, -0.10750000000000001, 0.99, 192.0, 0.0, 0.0, 0.0, 0.0, 0.0, 0.0, 0.0, 0.0, 0.0, 1.645922998594735E9, 0.0, 2022-02-27 11:49:58.594
76.0, -142.49237090258254, -2603.9558772988175, -2087.4741181700374, -9066.64986212848, 272.3336544434612, 544.3990879534588, -4393.145965712782, -1308.6722861137732, -1129.008964182015, -3685.6461984689477, -3471.5388383315612, -2409.115720881906, -2941.020183684848, -1779.8247074871908, -7724.6734767763, -14183.880589470935, 0.014499999999999999, -0.10775000000000001, 0.99, 192.0, 0.0, 56.0, 126.0, 80.0, 15.0, 120.0, 0.0, 0.0, 0.0, 1.645922998602981E9, 0.0, 2022-02-27 11:49:58.602
78.0, -376.38102488291565, -2814.0175716897934, -2331.532815877535, -9311.982609269931, 28.342011969329356, 292.5172796866035, -4690.804146624106, -1714.9599450778896, -3702.6782277438915, -4510.827900269974, -3473.5057918436282, -2566.65081580291, -2787.195478343425, -1812.5029578808496, -8101.456833059411, -15216.888811217406, 0.014499999999999999, -0.10775000000000001, 0.99, 192.0, 0.0, 0.0, 0.0, 0.0, 0.0, 0.0, 0.0, 0.0, 0.0, 1.64592299860988E9, 0.0, 2022-02-27 11:49:58.609
80.0, -514.8277300390876, -2912.6558199710635, -2358.757240624099, -9383.441136293548, -61.48964899654973, 339.12066687591874, -4527.748170822641, -1469.604846191984, -1507.53575653264, -4129.998878240452, -3721.6772105309024, -2546.8024667265972, -3168.3821282842314, -2015.8144254463227, -7901.9228103068845, -14567.660041768557, 0.014499999999999999, -0.10775000000000001, 0.99, 192.0, 0.0, 0.0, 0.0, 0.0, 0.0, 0.0, 0.0, 0.0, 0.0, 1.64592299861727E9, 0.0, 2022-02-27 11:49:58.617
82.0, -6.839633803323961, -2508.4468732412906, -2021.000030159954, -8974.985358117267, 385.56759185404684, 556.424326470414, -4431.568614431455, -1399.4650720912305, -2374.8728483763753, -3926.1286170635963, -3361.7247178226376, -2434.082619438484, -2756.886512862028, -1683.175764462443, -7838.197986864804, -14548.750465959367, 0.014499999999999999, -0.10775000000000001, 0.99, 192.0, 0.0, 0.0, 0.0, 0.0, 0.0, 0.0, 0.0, 0.0, 0.0, 1.645922998626446E9, 0.0, 2022-02-27 11:49:58.626
84.0, -690.0877583131503, -3061.8313624657826, -2539.5157980341673, -9570.882865295753, -262.9906252611429, 180.53503996551515, -4784.189734958379, -1725.8452446276242, -3240.131227985767, -4694.916867603883, -3721.788969253179, -2659.544665759166, -3062.010176421425, -2046.1233909277191, -8173.384746716589, -15283.161733527391, 0.014499999999999999, -0.10775000000000001, 0.99, 192.0, 0.0, 0.0, 0.0, 0.0, 0.0, 0.0, 0.0, 0.0, 0.0, 1.645922998632308E9, 0.0, 2022-02-27 11:49:58.632
86.0, -168.6662636597471, -2630.196825289348, -2098.471176442048, -9077.490458189304, 254.96634900168766, 551.1046112900509, -4404.902983296273, -1303.3972744223208, -1141.6153480548082, -3699.9960184092547, -3492.795347308558, -2416.558851785523, -2962.6119688286744, -1792.296980893252, -7733.81534025852, -14178.80674347958, 0.014249999999999999, -0.108875, 0.989, 192.0, 0.0, 56.0, 126.0, 72.0, 15.0, 112.0, 0.0, 0.0, 0.0, 1.645922998639519E9, 0.0, 2022-02-27 11:49:58.639
88.0, -357.8737804739214, -2800.740635483341, -2319.0605424714736, -9297.006940484875, 33.34880272731814, 303.71550365871235, -4666.999538779204, -1691.5800203776384, -3687.0767101140873, -4487.962065692194, -3471.650597053838, -2561.9793012117507, -2780.445251517922, -1802.4223211315061, -8097.008835912805, -15199.812078453551, 0.014249999999999999, -0.108875, 0.989, 192.0, 0.0, 0.0, 0.0, 0.0, 0.0, 0.0, 0.0, 0.0, 0.0, 1.645922998646996E9, 0.0, 2022-02-27 11:49:58.646
90.0, -516.1241312174953, -2909.571279236231, -2367.5191244505795, -9398.059177167319, -76.5994282483373, 335.1644081073294, -4550.658708889331, -1501.053750640601, -1565.8067543276256, -4149.0202127719185, -3725.8793384885003, -2551.094001662016, -3173.2324568310332, -2021.804692960345, -7920.742979138253, -14600.472402628948, 0.014249999999999999, -0.108875, 0.989, 192.0, 0.0, 0.0, 0.0, 0.0, 0.0, 0.0, 0.0, 0.0, 0.0, 1.645922998655091E9, 0.0, 2022-02-27 11:49:58.655
92.0, -4.984439013533475, -2507.6645621853545, -2017.803730702845, -8971.051451093132, 390.4626238897591, 565.0744515746178, -4418.604602647377, -1363.7916879405605, -2309.024609211041, -3892.5562968917247, -3354.9521392526794, -2421.722104754699, -2753.01966107126, -1680.1582789609765, -7831.939498417319, -14528.633895949592, 0.014249999999999999, -0.108875, 0.989, 192.0, 0.0, 0.0, 0.0, 0.0, 0.0, 0.0, 0.0, 0.0, 0.0, 1.645922998662939E9, 0.0, 2022-02-27 11:49:58.662
94.0, -688.2325635233598, -3064.625330522696, -2539.426391056346, -9572.402783918713, -259.213180448196, 151.9471588071774, -4725.605812741019, -1727.432218483951, -3262.1700480187, -4697.755539149706, -3720.6713820304135, -2660.1481628594593, -3055.6846327405733, -2036.6909547675796, -8171.216627504424, -15277.953777069304, 0.014249999999999999, -0.108875, 0.989, 192.0, 0.0, 0.0, 0.0, 0.0, 0.0, 0.0, 0.0, 0.0, 0.0, 1.645922998669573E9, 0.0, 2022-02-27 11:49:58.669
96.0, -156.86454258734497, -2621.9266798408844, -2094.134938017719, -9074.696490132392, 258.2744071810731, 546.7236693768108, -4384.942875497684, -1296.7588063190944, -1129.7242200045848, -3704.086387644576, -3492.2365536971756, -2412.0885028944617, -2964.310701407278, -1791.5146698373164, -7726.618078543911, -14177.197417878799, 0.014124999999999999, -0.1094375, 0.9895, 192.0, 0.0, 56.0, 126.0, 72.0, 15.0, 120.0, 0.0, 0.0, 0.0, 1.645922998677907E9, 0.0, 2022-02-27 11:49:58.677
98.0, -349.7600972366449, -2793.476318535366, -2312.377370879337, -9293.967103238952, 35.22634926156393, 305.88362287087716, -4684.523306432165, -1680.2476859387978, -3665.4849249702606, -4471.801754451008, -3457.25607362462, -2549.9317109503404, -2770.4316700019444, -1789.4583093474282, -8088.515173019788, -15185.417555024333, 0.014124999999999999, -0.1094375, 0.9895, 192.0, 0.0, 0.0, 0.0, 0.0, 0.0, 0.0, 0.0, 0.0, 0.0, 1.645922998685745E9, 0.0, 2022-02-27 11:49:58.685
100.0, -513.8219015385988, -2911.0017908813707, -2362.534685437046, -9395.19815387704, -86.74712023104671, 329.62117548241326, -4546.948319309749, -1497.0080848941905, -1548.4618006303074, -4147.0309075153955, -3721.2525273862516, -2550.3116906060804, -3164.224703815544, -2012.5287190113927, -7920.13948203796, -14592.22460892494, 0.014124999999999999, -0.1094375, 0.9895, 192.0, 0.0, 0.0, 0.0, 0.0, 0.0, 0.0, 0.0, 0.0, 0.0, 1.64592299869921E9, 0.0, 2022-02-27 11:49:58.699
102.0, 1.9446017676117144, -2503.7083034167654, -2015.546204512859, -8965.329404512573, 383.80180404207755, 563.5321812072017, -4428.64053590781, -1386.3222463515099, -2298.2287166391275, -3894.456195170426, -3356.583816597917, -2419.2187093757047, -2752.8184953711625, -1674.0339009802224, -7834.26407984067, -14529.103282583152, 0.014124999999999999, -0.1094375, 0.9895, 192.0, 0.0, 0.0, 0.0, 0.0, 0.0, 0.0, 0.0, 0.0, 0.0, 1.645922998707334E9, 0.0, 2022-02-27 11:49:58.707
104.0, -691.7641391472982, -3065.631159023185, -2544.7908097256195, -9571.195789718127, -267.61743636339145, 164.39708046878346, -4744.761257739217, -1738.9657186228894, -3295.0047606235457, -4708.037341599148, -3719.6432017854695, -2659.6564244814426, -3050.990766404959, -2034.1205041552194, -8183.063052065737, -15301.64662619193, 0.014124999999999999, -0.1094375, 0.9895, 192.0, 0.0, 0.0, 0.0, 0.0, 0.0, 0.0, 0.0, 0.0, 0.0, 1.645922998715367E9, 0.0, 2022-02-27 11:49:58.715
106.0, -167.1016415478756, -2634.9577468583284, -2101.5557171768805, -9084.08422280362, 252.08297396695306, 542.3203757191153, -4395.470547136134, -1307.5323471465526, -1133.3899060952551, -3697.7831957081794, -3497.8468415554576, -2417.3858663303695, -2961.181457183535, -1784.5856290561712, -7732.027200702096, -14186.227522638741, 0.0120625, -0.10771875, 0.98775, 192.0, 0.0, 40.0, 126.0, 88.0, 15.0, 104.0, 0.0, 0.0, 0.0, 1.645922998721868E9, 0.0, 2022-02-27 11:49:58.721
108.0, -349.983614681198, -2804.965115185394, -2309.2034231666835, -9288.759146780867, 48.25741627900795, 321.1275125893966, -4666.574855634553, -1673.564514346661, -3658.1982562778303, -4479.915437688284, -3456.362003846408, -2559.3194436215695, -2758.898169863006, -1782.0598819327215, -8089.0516148867155, -15191.072546371526, 0.0120625, -0.10771875, 0.98775, 192.0, 0.0, 0.0, 0.0, 0.0, 0.0, 0.0, 0.0, 0.0, 0.0, 1.645922998729961E9, 0.0, 2022-02-27 11:49:58.729
110.0, -558.7712596382213, -2958.499247848898, -2383.5676769694896, -9414.375950619693, -89.36227433231764, 327.9671463927205, -4545.629566386887, -1492.0459976251122, -1609.7279321823041, -4189.298056280381, -3732.7413240362794, -2575.3456443960245, -3167.0633753613683, -2019.25659409244, -7931.225947287792, -14621.661856372579, 0.0120625, -0.10771875, 0.98775, 192.0, 0.0, 0.0, 0.0, 0.0, 0.0, 0.0, 0.0, 0.0, 0.0, 1.645922998737937E9, 0.0, 2022-02-27 11:49:58.737
112.0, -31.694773637625413, -2542.5332835356335, -2017.513158024926, -8968.972738858789, 397.5257751376361, 575.3339022796038, -4416.816463090952, -1380.4437375597643, -2269.8420011808876, -3908.2025180104397, -3369.8160493154587, -2437.5694915735116, -2758.0041000847937, -1672.312816657164, -7823.915222157863, -14510.663093407524, 0.0120625, -0.10771875, 0.98775, 192.0, 0.0, 0.0, 0.0, 0.0, 0.0, 0.0, 0.0, 0.0, 0.0, 1.645922998745064E9, 0.0, 2022-02-27 11:49:58.745
114.0, -748.5152183193229, -3122.7175143620393, -2548.5906062830218, -9574.772068830976, -254.31814841248377, 173.27072301754035, -4746.392935084455, -1739.9715471233783, -3328.934708706702, -4723.415341784399, -3722.2583558867404, -2674.140354888482, -3042.69826921204, -2022.2070243605406, -8180.71611889793, -15303.45711749281, 0.0120625, -0.10771875, 0.98775, 192.0, 0.0, 0.0, 0.0, 0.0, 0.0, 0.0, 0.0, 0.0, 0.0, 1.645922998751479E9, 0.0, 2022-02-27 11:49:58.751
116.0, -266.4104421628049, -2735.4958934182996, -2108.6188684247577, -9094.678949675435, 271.8642678098998, 552.2221985128162, -4387.960360999151, -1308.5605273914966, -1142.5094178330205, -3726.59459431107, -3516.21997549772, -2439.357631129936, -2960.2873874053225, -1783.1774691554867, -7728.607383800434, -14181.131324902932, 0.008, -0.10200000000000001, 0.992, 192.0, 0.0, 32.0, 126.0, 104.0, 15.5, 0.0, 0.0, 0.0, 0.0, 1.645922998759676E9, 0.0, 2022-02-27 11:49:58.759
118.0, -489.2126308933057, -2937.0639249162587, -2315.4619116141694, -9296.40344338458, 66.67525371018097, 327.6989254592568, -4660.6963468428075, -1674.2350666803202, -3678.828916410079, -4510.3138101475015, -3483.2288006816866, -2586.1862404568483, -2758.808762885185, -1784.0268354447885, -8079.350957793112, -15175.269863041623, 0.008, -0.10200000000000001, 0.992, 192.0, 0.0, 0.0, 0.0, 0.0, 0.0, 0.0, 0.0, 0.0, 0.0, 1.645922998767641E9, 0.0, 2022-02-27 11:49:58.767
120.0, -744.6483665285548, -3127.8584155867597, -2396.8893166648527, -9424.68010481359, -85.60718126382605, 330.58230049399145, -4541.986232040672, -1492.4930325142184, -1659.3935083619963, -4226.133731142728, -3778.741214125301, -2607.0180662891944, -3171.5337242524297, -2017.222585347007, -7926.822653630096, -14612.899972546098, 0.008, -0.10200000000000001, 0.992, 192.0, 0.0, 0.0, 0.0, 0.0, 0.0, 0.0, 0.0, 0.0, 0.0, 1.645922998775004E9, 0.0, 2022-02-27 11:49:58.775
122.0, -253.93816875674355, -2753.1761232824474, -2037.8308937348002, -8989.223419335296, 400.5432606391026, 586.7332919518104, -4409.1721664872375, -1366.518600764108, -2335.7796473240433, -3960.8855796915987, -3432.311526812497, -2496.1534137908716, -2772.2645130472797, -1689.3895494210185, -7823.468187268757, -14503.577590415192, 0.008, -0.10200000000000001, 0.992, 192.0, 0.0, 0.0, 0.0, 0.0, 0.0, 0.0, 0.0, 0.0, 0.0, 1.645922998782185E9, 0.0, 2022-02-27 11:49:58.782
124.0, -949.5468079503546, -3319.815196968937, -2565.4438216023236, -9595.156859774215, -242.94111048473246, 172.30959800596216, -4736.17818786838, -1745.91711114849, -3443.286233340053, -4807.793177103184, -3787.167821784952, -2743.386059211023, -3053.404754806132, -2042.1447804146744, -8180.71611889793, -15310.654379207419, 0.008, -0.10200000000000001, 0.992, 192.0, 0.0, 0.0, 0.0, 0.0, 0.0, 0.0, 0.0, 0.0, 0.0, 1.645922998790686E9, 0.0, 2022-02-27 11:49:58.790
126.0, -434.8978918669095, -2883.8444213681723, -2133.608118725791, -9109.386397527027, 255.3910321463385, 542.6333001414896, -4371.822401502419, -1287.907515514793, -1201.2274505171122, -3773.5109059227593, -3580.5482960400936, -2492.3759689779245, -2983.510849894387, -1803.0481699762547, -7725.947526210252, -14182.070098170054, 0.008, -0.1, 0.992, 192.0, 0.0, 32.0, 126.0, 112.0, 15.5, 0.0, 0.0, 0.0, 0.0, 1.645922998797361E9, 0.0, 2022-02-27 11:49:58.797
128.0, -562.6381114289894, -3001.749873369917, -2312.042094712507, -9281.293664132794, 85.16014637471991, 346.1391146348852, -4642.904358256383, -1644.820170977136, -3709.3837510804838, -4513.487757860155, -3518.4551499432505, -2608.940316312351, -2765.603693199598, -1772.1804108834758, -8070.901998389006, -15146.61492664992, 0.008, -0.1, 0.992, 192.0, 0.0, 0.0, 0.0, 0.0, 0.0, 0.0, 0.0, 0.0, 0.0, 1.645922998804765E9, 0.0, 2022-02-27 11:49:58.804
130.0, -788.189564727493, -3167.108078850279, -2411.2838400940705, -9437.845282297765, -98.66060002572537, 321.8651201564217, -4556.671328147809, -1497.7233407167603, -1742.1843698244536, -4246.764391274976, -3800.2882957802176, -2626.70995315432, -3177.211067344078, -2005.1749950855965, -7940.636031703477, -14639.722065892467, 0.008, -0.1, 0.992, 192.0, 0.0, 0.0, 0.0, 0.0, 0.0, 0.0, 0.0, 0.0, 0.0, 1.64592299881281E9, 0.0, 2022-02-27 11:49:58.812
132.0, -224.88090096484436, -2715.6251925975316, -2029.4266378196048, -8970.962044115311, 407.85228107598795, 585.7051117068663, -4403.561878628955, -1359.7013187052391, -2265.729280201111, -3936.1198468351186, -3425.114265097888, -2485.9610183192517, -2773.6503212035086, -1680.6723690834488, -7816.02505636514, -14474.185046456463, 0.008, -0.1, 0.992, 192.0, 0.0, 0.0, 0.0, 0.0, 0.0, 0.0, 0.0, 0.0, 0.0, 1.64592299882691E9, 0.0, 2022-02-27 11:49:58.826
134.0, -891.9463624890284, -3254.9951380485463, -2558.1795046543484, -9574.392089175235, -245.93624424174362, 175.7070631631688, -4741.006164670725, -1733.5789482091604, -3448.7624107316033, -4779.18294420039, -3765.710147107857, -2714.3064396746686, -3043.2794145678777, -2002.582192728781, -8177.720985140919, -15304.664111693397, 0.008, -0.1, 0.992, 192.0, 0.0, 0.0, 0.0, 0.0, 0.0, 0.0, 0.0, 0.0, 0.0, 1.645922998834469E9, 0.0, 2022-02-27 11:49:58.834
136.0, -374.6822923043123, -2823.3606008721117, -2130.7470954355117, -9109.833432416133, 235.4532760922046, 539.4817041732913, -4385.971055742629, -1302.5255563885637, -1167.3198541784113, -3760.859818561056, -3564.9020749213787, -2468.0572710105507, -2990.015207530881, -1798.6448763185592, -7730.686096034778, -14175.990423678211, 0.012, -0.106, 0.986, 192.0, 0.0, 48.0, 126.0, 88.0, 15.0, 104.0, 0.0, 0.0, 0.0, 1.6459229988425E9, 0.0, 2022-02-27 11:49:58.842
138.0, -473.61111326350135, -2925.731590477418, -2294.473623570636, -9266.183884881006, 79.86278293881213, 340.7299924767009, -4647.575872847542, -1653.7161652703483, -3660.4557824678163, -4486.5986092804205, -3489.7778618070915, -2589.427243402868, -2765.8272106441514, -1781.7022540214366, -8070.477315244355, -15141.42932193629, 0.012, -0.106, 0.986, 192.0, 0.0, 0.0, 0.0, 0.0, 0.0, 0.0, 0.0, 0.0, 0.0, 1.645922998850513E9, 0.0, 2022-02-27 11:49:58.850
140.0, -703.6329154530663, -3092.0285692249026, -2411.663819749811, -9439.186386965082, -120.5876613363816, 308.63288743887995, -4571.870514377417, -1521.0362101836456, -1742.2737768022748, -4266.255112440003, -3773.17562975593, -2610.415531446401, -3180.563829012374, -2035.7521815004566, -7954.874092921507, -14665.7618481829, 0.012, -0.106, 0.986, 192.0, 0.0, 0.0, 0.0, 0.0, 0.0, 0.0, 0.0, 0.0, 0.0, 1.645922998856934E9, 0.0, 2022-02-27 11:49:58.856
142.0, -137.44087665568313, -2644.099610340549, -2024.8221784618115, -8975.722965684292, 389.09916747798536, 584.0510826171735, -4415.900041568285, -1364.0375571295688, -2197.422349145693, -3903.687465630468, -3398.9850758296343, -2468.0572710105507, -2779.864106162084, -1695.111596001577, -7814.683951697822, -14466.227825430373, 0.012, -0.106, 0.986, 192.0, 0.0, 0.0, 0.0, 0.0, 0.0, 0.0, 0.0, 0.0, 0.0, 1.645922998865055E9, 0.0, 2022-02-27 11:49:58.865
144.0, -811.0330475608167, -3187.3140558378764, -2557.3077866205917, -9586.126755014271, -262.87886653886636, 160.95491182266616, -4756.697089278351, -1749.4710385168837, -3433.9879076466455, -4756.428868344888, -3740.8773590180112, -2706.9080122599617, -3044.106429112724, -2028.2643471079289, -8188.941560857483, -15317.382254288466, 0.012, -0.106, 0.986, 192.0, 0.0, 0.0, 0.0, 0.0, 0.0, 0.0, 0.0, 0.0, 0.0, 1.645922998873142E9, 0.0, 2022-02-27 11:49:58.873
146.0, -302.77673039158947, -2759.412259985478, -2132.892862903221, -9120.04817963221, 231.76523825707892, 520.2815556861825, -4396.923410525729, -1314.8190158389828, -1132.3840775947665, -3745.4818183758043, -3549.0993915914764, -2462.91636978583, -2990.5740011422636, -1804.2551641768414, -7734.597651314456, -14181.444249325306, 0.012, -0.10400000000000001, 0.986, 192.0, 0.0, 48.0, 126.0, 96.0, 15.0, 104.0, 0.0, 0.0, 0.0, 1.645922998879974E9, 0.0, 2022-02-27 11:49:58.879
148.0, -412.3449817115047, -2865.1136595146254, -2301.536774818513, -9275.951597207975, 71.190306090153, 326.9613178922317, -4657.835323552528, -1663.9085607419684, -3624.6482878504144, -4465.476210770155, -3473.930474988279, -2574.3621676399907, -2764.6202164435645, -1776.6284080300818, -8069.426783254956, -15141.80930159203, 0.012, -0.10400000000000001, 0.986, 192.0, 0.0, 0.0, 0.0, 0.0, 0.0, 0.0, 0.0, 0.0, 0.0, 1.645922998886627E9, 0.0, 2022-02-27 11:49:58.886
150.0, -640.9586240003854, -3028.817835905294, -2409.5404040265566, -9439.700477087556, -123.33692590438437, 301.6144396799135, -4567.936607353283, -1519.5609950495952, -1704.4769769283507, -4229.93352770013, -3769.599350643081, -2597.585630129055, -3187.5375732824295, -2039.4625710800376, -7951.677793464398, -14659.61511845769, 0.012, -0.10400000000000001, 0.986, 192.0, 0.0, 0.0, 0.0, 0.0, 0.0, 0.0, 0.0, 0.0, 0.0, 1.645922998894702E9, 0.0, 2022-02-27 11:49:58.894
152.0, -79.59456200534845, -2589.293132936136, -2022.6093557607362, -8981.802640176134, 373.3188358925386, 557.3630997375369, -4430.786303375519, -1368.1055746204347, -2192.14733745424, -3908.649552899546, -3392.7489391266035, -2459.2506836951598, -2786.9496091544165, -1690.305970943686, -7824.652829724888, -14478.43187790297, 0.012, -0.10400000000000001, 0.986, 192.0, 0.0, 0.0, 0.0, 0.0, 0.0, 0.0, 0.0, 0.0, 0.0, 1.64592299890311E9, 0.0, 2022-02-27 11:49:58.903
154.0, -748.962253208429, -3130.3841627102092, -2546.824818471053, -9581.70110961212, -271.46193640970426, 146.89566456027802, -4768.61056907303, -1779.5341348092718, -3430.0092971336007, -4754.46191483282, -3721.5207483197155, -2693.2734481422244, -3041.6477372226404, -2035.0816291667975, -8196.965837116937, -15333.140234129458, 0.012, -0.10400000000000001, 0.986, 192.0, 0.0, 0.0, 0.0, 0.0, 0.0, 0.0, 0.0, 0.0, 0.0, 1.645922998909822E9, 0.0, 2022-02-27 11:49:58.909
156.0, -250.9430349997324, -2709.1878901944033, -2124.2427377990175, -9115.153147596497, 220.72347649615725, 518.4487126408474, -4408.591021131399, -1320.004620552614, -1098.1859085781466, -3718.860890729534, -3536.1353798073987, -2447.8959975118637, -2987.981198785448, -1809.3066584237408, -7740.811436273031, -14190.76492676317, 0.012, -0.10400000000000001, 0.988, 192.0, 0.0, 48.0, 126.0, 96.0, 15.0, 112.0, 0.0, 0.0, 0.0, 1.645922998917376E9, 0.0, 2022-02-27 11:49:58.917
158.0, -357.80672524055547, -2813.4587780784104, -2281.107280386362, -9260.953576678465, 78.63343699377025, 331.0069836386423, -4648.402887392389, -1653.112668170055, -3592.3947206014063, -4445.3372890159235, -3463.536913816561, -2566.427298358357, -2761.5803791976427, -1775.6225795295932, -8071.17021932247, -15137.227193978692, 0.012, -0.10400000000000001, 0.988, 192.0, 0.0, 0.0, 0.0, 0.0, 0.0, 0.0, 0.0, 0.0, 0.0, 1.645922998925445E9, 0.0, 2022-02-27 11:49:58.925
160.0, -606.1793096279275, -2996.83248958975, -2406.0088284026183, -9444.461398656536, -126.51087361703797, 295.49006169915936, -4565.90259860785, -1517.2587653706987, -1731.589642952638, -4251.726478544054, -3762.9608825398545, -2588.7566910692085, -3182.039044146424, -2043.575292059814, -7955.835217933085, -14683.486781535958, 0.012, -0.10400000000000001, 0.988, 192.0, 0.0, 0.0, 0.0, 0.0, 0.0, 0.0, 0.0, 0.0, 0.0, 1.645922998932325E9, 0.0, 2022-02-27 11:49:58.932
162.0, -32.767657371480155, -2537.705306733287, -2008.3042393093397, -8969.933863870367, 394.4188826583484, 571.7129196778441, -4411.16147174376, -1359.2989873050437, -2118.252470284995, -3852.9043022280102, -3382.802412843992, -2440.00583171914, -2780.579361984654, -1691.177688977443, -7807.263172538659, -14451.47567408987, 0.012, -0.10400000000000001, 0.988, 192.0, 0.0, 0.0, 0.0, 0.0, 0.0, 0.0, 0.0, 0.0, 0.0, 1.64592299894702E9, 0.0, 2022-02-27 11:49:58.947
164.0, -702.9623631194071, -3087.46881335602, -2533.9502136647957, -9574.168571730683, -259.5931601039362, 159.12206877733098, -4787.028406504203, -1776.8295737301796, -3436.1113233698993, -4729.830292443072, -3699.571335264604, -2682.298741614669, -3021.2182427904895, -2037.5626728013365, -8192.361377759145, -15336.045960908648, 0.012, -0.10400000000000001, 0.988, 192.0, 0.0, 0.0, 0.0, 0.0, 0.0, 0.0, 0.0, 0.0, 0.0, 1.645922998955085E9, 0.0, 2022-02-27 11:49:58.955
166.0, -233.2851568800398, -2691.194735907881, -2130.344764035316, -9126.597240757614, 200.71866520865743, 509.9550497478306, -4405.864108307852, -1311.8238820819715, -1076.2588472674904, -3732.562510080637, -3528.736952392692, -2448.454791123246, -2996.0725302782694, -1820.683696351492, -7745.77352354211, -14189.267359884663, 0.014, -0.108, 0.988, 192.0, 0.0, 56.0, 126.0, 80.0, 15.0, 112.0, 0.0, 0.0, 0.0, 1.645922998962134E9, 0.0, 2022-02-27 11:49:58.962
168.0, -321.887471900877, -2781.004045129305, -2272.5912657488902, -9250.671774229024, 80.53333527247135, 334.5385592625808, -4652.5379601166205, -1655.3031391266752, -3566.399641799884, -4428.171149274248, -3451.1763991327766, -2555.877274975452, -2760.8874751195285, -1773.9909021843557, -8067.146905320515, -15120.306923426024, 0.014, -0.108, 0.988, 192.0, 0.0, 0.0, 0.0, 0.0, 0.0, 0.0, 0.0, 0.0, 0.0, 1.645922998969542E9, 0.0, 2022-02-27 11:49:58.969
170.0, -588.744948952788, -2972.6479020891074, -2405.517090024601, -9436.593584608268, -133.5963766093703, 308.90110837234363, -4579.827735403506, -1517.5493380486178, -1733.556596464705, -4232.951013201597, -3761.2621499612515, -2577.3796531414573, -3187.2246488600554, -2042.4800565815042, -7965.714688982331, -14684.425554803081, 0.014, -0.108, 0.988, 192.0, 0.0, 0.0, 0.0, 0.0, 0.0, 0.0, 0.0, 0.0, 0.0, 1.645922998977779E9, 0.0, 2022-02-27 11:49:58.977
172.0, -13.388694928728931, -2511.263193042659, -2003.7221316960017, -8958.467418964794, 382.3936441413932, 578.3960912699808, -4430.406323719779, -1362.674100717795, -2111.3010777593945, -3841.7507817448122, -3380.9695697986567, -2420.425703576291, -2785.3626352980896, -1684.628627852038, -7816.360332531969, -14451.296860134229, 0.014, -0.108, 0.988, 192.0, 0.0, 0.0, 0.0, 0.0, 0.0, 0.0, 0.0, 0.0, 0.0, 1.645922998985771E9, 0.0, 2022-02-27 11:49:58.985
174.0, -690.1995170354268, -3074.1248219162017, -2531.6479839858994, -9566.725440827066, -260.4648781376932, 149.0637837724428, -4770.443412118365, -1773.1638876395093, -3460.0500416815335, -4724.085894118059, -3687.63550372547, -2662.1821716048926, -3015.630306676663, -2017.4684545360155, -8197.323465028223, -15343.869071468005, 0.014, -0.108, 0.988, 192.0, 0.0, 0.0, 0.0, 0.0, 0.0, 0.0, 0.0, 0.0, 0.0, 1.645922998992344E9, 0.0, 2022-02-27 11:49:58.992
176.0, -239.47659009415986, -2697.319113888635, -2131.1941303246176, -9128.027752402753, 199.86929891935574, 499.6061920650235, -4425.108960283871, -1344.5691877089964, -1074.0460245664149, -3736.630527571503, -3528.088751803488, -2448.5441981010676, -3001.4816524364537, -1829.26676622233, -7743.739514796676, -14198.118650688964, 0.016, -0.10400000000000001, 0.984, 192.0, 0.0, 64.0, 126.0, 96.0, 15.0, 96.0, 0.0, 0.0, 0.0, 1.64592299899939E9, 0.0, 2022-02-27 11:49:58.999
178.0, -325.9331376472876, -2789.3412458111343, -2268.3891377912923, -9240.345268290672, 87.50707954252715, 335.8573121854439, -4660.986919520727, -1666.7695840322476, -3541.969185110234, -4416.30237296848, -3442.9509571732233, -2559.297091877114, -2756.6182919285648, -1769.855829460124, -8064.710565174886, -15113.623751833888, 0.016, -0.10400000000000001, 0.984, 192.0, 0.0, 0.0, 0.0, 0.0, 0.0, 0.0, 0.0, 0.0, 0.0, 1.645922999007292E9, 0.0, 2022-02-27 11:49:59.007
180.0, -643.3279089126479, -3025.800350403828, -2422.1914913882606, -9447.076552757806, -148.79556283897912, 286.54936391703654, -4588.544915741077, -1549.73585006426, -1796.0520739617436, -4270.144315975227, -3774.3379204676057, -2601.3183714530915, -3191.7397012400274, -2047.3303851283058, -7974.208351875348, -14712.655808050135, 0.016, -0.10400000000000001, 0.984, 192.0, 0.0, 0.0, 0.0, 0.0, 0.0, 0.0, 0.0, 0.0, 0.0, 1.645922999015466E9, 0.0, 2022-02-27 11:49:59.015
182.0, -120.09592295836485, -2612.650705891932, -2024.129274383697, -8967.653985935925, 374.3246643930274, 574.7751086682212, -4412.279058966525, -1355.320376791999, -2106.22723176804, -3853.664261539491, -3408.9763056011566, -2435.8707589949086, -2802.5958302731315, -1686.886154042024, -7810.682989440321, -14438.131682650053, 0.016, -0.10400000000000001, 0.984, 192.0, 0.0, 0.0, 0.0, 0.0, 0.0, 0.0, 0.0, 0.0, 0.0, 1.645922999021913E9, 0.0, 2022-02-27 11:49:59.021
184.0, -833.0495158492943, -3210.2916491379324, -2551.518684806667, -9573.162743230194, -262.90121828332167, 156.84219084288966, -4778.311226166633, -1779.8917627205567, -3529.183987281798, -4760.5415893246645, -3733.0542484586535, -2689.473651584822, -3032.9305568850705, -2017.6249167472026, -8201.257372052356, -15343.958478445826, 0.015, -0.10400000000000001, 0.983, 192.0, 0.0, 56.0, 126.0, 96.0, 15.0, 88.0, 0.0, 0.0, 0.0, 1.645922999030128E9, 0.0, 2022-02-27 11:49:59.030
186.0, -418.6928771368119, -2862.5432089022647, -2146.1474473652183, -9137.303726351705, 214.2191188596629, 515.0512474836406, -4416.637649135309, -1345.9102923763148, -1123.1304553902694, -3768.682929120413, -3576.547333782594, -2472.304102457059, -3008.1424722841352, -1827.0539435212545, -7743.538349096579, -14196.218752410265, 0.015, -0.10400000000000001, 0.983, 192.0, 0.0, 0.0, 0.0, 0.0, 0.0, 0.0, 0.0, 0.0, 0.0, 1.64592299903785E9, 0.0, 2022-02-27 11:49:59.037
188.0, -536.7547913497438, -2983.1308702386464, -2280.056748396963, -9247.788399194289, 115.62557406730343, 369.40728061285984, -4650.705117071285, -1634.1360371274993, -3599.7707962716577, -4457.854265910896, -3496.0139985101223, -2604.3805604434683, -2756.506533206288, -1764.781983468769, -8057.35684124909, -15096.70348128122, 0.015, -0.10400000000000001, 0.983, 192.0, 0.0, 0.0, 0.0, 0.0, 0.0, 0.0, 0.0, 0.0, 0.0, 1.645922999045152E9, 0.0, 2022-02-27 11:49:59.045
190.0, -852.1602573585818, -3227.524844112974, -2447.493666111668, -9470.009442568951, -146.8286093269121, 299.1110443009191, -4580.408880759344, -1512.408436823897, -1892.298685586296, -4347.727220979598, -3838.353316587605, -2675.257942111247, -3193.7737099854603, -2056.6510625661685, -7974.655386764453, -14712.05231094984, 0.015, -0.10400000000000001, 0.983, 192.0, 0.0, 0.0, 0.0, 0.0, 0.0, 0.0, 0.0, 0.0, 0.0, 1.645922999052555E9, 0.0, 2022-02-27 11:49:59.052
192.0, -275.55230564502546, -2768.554123467699, -2037.7191350125236, -8982.137916342965, 386.1040337209742, 574.9539226238636, -4413.910736311762, -1346.9831761101696, -2138.3019850614055, -3918.4396169709707, -3461.860532982413, -2514.7947686665975, -2804.9204116964834, -1702.8676513275686, -7804.983294604218, -14422.910144675989, 0.015, -0.10400000000000001, 0.983, 192.0, 0.0, 0.0, 0.0, 0.0, 0.0, 0.0, 0.0, 0.0, 0.0, 1.645922999060623E9, 0.0, 2022-02-27 11:49:59.060
194.0, -940.6284619126872, -3301.486766515585, -2564.7956210131197, -9586.126755014271, -257.536799614048, 153.8247053414232, -4743.867187961005, -1774.9296754514785, -3597.3568078704848, -4805.178023001912, -3770.4040134434717, -2745.3977162120004, -3028.7060771830174, -2025.6938964955684, -8195.021235349326, -15353.636783794975, 0.0125, -0.10200000000000001, 0.9864999999999999, 192.0, 0.0, 40.0, 126.0, 112.0, 15.0, 120.0, 0.0, 0.0, 0.0, 1.645922999074259E9, 0.0, 2022-02-27 11:49:59.074
196.0, -473.63346500795666, -2904.318619289234, -2165.6828720191565, -9150.267738135784, 188.20168831368548, 495.26995364069387, -4403.852451306874, -1334.6003096819295, -1153.461772616121, -3791.74992939829, -3618.0545232360987, -2499.0814923145167, -3026.8061789043163, -1840.9343768280003, -7739.559738583534, -14207.886363015934, 0.0125, -0.10200000000000001, 0.9864999999999999, 192.0, 0.0, 0.0, 0.0, 0.0, 0.0, 0.0, 0.0, 0.0, 0.0, 1.645922999082167E9, 0.0, 2022-02-27 11:49:59.082
198.0, -496.4545960968252, -2945.1999598979905, -2273.887666927298, -9235.383181021594, 106.75193151854653, 346.65320475735723, -4647.240596680713, -1652.3974123474852, -3586.315046109563, -4444.711440171175, -3507.793367838069, -2593.2046882158147, -2771.9739403693607, -1775.6449312740483, -8045.5551201766875, -15094.5130103246, 0.0125, -0.10200000000000001, 0.9864999999999999, 192.0, 0.0, 0.0, 0.0, 0.0, 0.0, 0.0, 0.0, 0.0, 0.0, 1.64592299909013E9, 0.0, 2022-02-27 11:49:59.090
200.0, -789.508317650356, -3165.9234363941478, -2447.0466312225617, -9474.748012393477, -153.60118789687013, 271.3278259429724, -4607.72271248373, -1545.2207976842878, -1921.5571190782928, -4348.040145401972, -3827.4456652934155, -2649.776953432197, -3201.619172289273, -2071.157344717663, -7984.445450835879, -14745.758741588443, 0.0125, -0.10200000000000001, 0.9864999999999999, 192.0, 0.0, 0.0, 0.0, 0.0, 0.0, 0.0, 0.0, 0.0, 0.0, 1.645922999097309E9, 0.0, 2022-02-27 11:49:59.097
202.0, -184.64776094529165, -2689.9430382183837, -2027.9737744300098, -8983.881352410479, 392.6083913574686, 579.3795680260143, -4402.153718728271, -1370.4972112771525, -2064.2059521920623, -3881.201610708429, -3431.350401800919, -2481.647131639377, -2803.22167911788, -1711.0260380537557, -7796.534335200112, -14420.339694063628, 0.0125, -0.10200000000000001, 0.9864999999999999, 192.0, 0.0, 0.0, 0.0, 0.0, 0.0, 0.0, 0.0, 0.0, 0.0, 1.645922999104965E9, 0.0, 2022-02-27 11:49:59.104
204.0, -850.573283502255, -3232.4422278931415, -2566.002615213706, -9591.602932405822, -253.1558577008078, 162.6312926568142, -4759.200484657345, -1758.8811229325681, -3581.5541245405825, -4801.020598533225, -3742.59844334107, -2732.9924980393052, -3027.6778969380734, -2026.4091523181382, -8192.76370915934, -15352.22862389429, 0.013250000000000001, -0.10200000000000001, 0.98825, 192.0, 0.0, 56.0, 126.0, 104.0, 15.0, 120.0, 0.0, 0.0, 0.0, 1.645922999112741E9, 0.0, 2022-02-27 11:49:59.112
206.0, -389.2332779447172, -2837.9115865125164, -2176.85874424681, -9158.895511495533, 182.72551092213524, 517.8005120516434, -4419.521024170044, -1344.7480016646389, -1121.878757700772, -3793.3145515101614, -3602.207136417286, -2499.3720649924358, -3040.5748534887857, -1851.0373653217991, -7745.550006097556, -14200.063252456577, 0.013250000000000001, -0.10200000000000001, 0.98825, 192.0, 0.0, 0.0, 0.0, 0.0, 0.0, 0.0, 0.0, 0.0, 0.0, 1.645922999120833E9, 0.0, 2022-02-27 11:49:59.120
208.0, -416.27888873563876, -2870.0086915503375, -2280.0343966525074, -9238.266556056327, 104.87438498430073, 354.7668879946337, -4640.6244803219415, -1645.311909355153, -3551.379269525918, -4426.986506818117, -3490.1354897183764, -2583.012292744195, -2778.478298005855, -1766.6595300030149, -8047.075038799649, -15084.924111953273, 0.013250000000000001, -0.10200000000000001, 0.98825, 192.0, 0.0, 0.0, 0.0, 0.0, 0.0, 0.0, 0.0, 0.0, 0.0, 1.645922999127917E9, 0.0, 2022-02-27 11:49:59.127
210.0, -723.6377267405661, -3093.7273018035057, -2459.1165732284276, -9473.541018192891, -167.92865609272195, 273.7418143441456, -4613.422407319833, -1558.855361802025, -1908.9283834610444, -4314.71369441911, -3822.8412059356224, -2629.61567993351, -3216.013695718491, -2069.9279987726213, -7987.932322970906, -14748.30684045635, 0.013250000000000001, -0.10200000000000001, 0.98825, 192.0, 0.0, 0.0, 0.0, 0.0, 0.0, 0.0, 0.0, 0.0, 0.0, 1.645922999134457E9, 0.0, 2022-02-27 11:49:59.134
212.0, -122.62167008181454, -2615.3552669710243, -2037.6297280347023, -8975.432393006373, 366.4792020892146, 567.9578266093524, -4415.564765401455, -1353.0404988575576, -2063.0213097359315, -3850.1550376600076, -3430.0763523669666, -2447.8065905340422, -2826.5569003292208, -1705.3263432176523, -7804.8938876263965, -14420.652618486003, 0.013250000000000001, -0.10200000000000001, 0.98825, 192.0, 0.0, 0.0, 0.0, 0.0, 0.0, 0.0, 0.0, 0.0, 0.0, 1.645922999142378E9, 0.0, 2022-02-27 11:49:59.142
214.0, -768.6541400735546, -3148.4443722300975, -2554.4914668192228, -9581.499943912024, -244.55043608551458, 165.35820548036165, -4767.761202783729, -1802.914059509523, -3591.6124095454707, -4776.634845332485, -3723.4429983428718, -2697.2073551663584, -3021.6429259351407, -2032.801751232356, -8193.635427193098, -15365.952594989849, 0.014625, -0.10300000000000001, 0.989125, 192.0, 0.0, 64.0, 126.0, 96.0, 15.0, 120.0, 0.0, 0.0, 0.0, 1.64592299914957E9, 0.0, 2022-02-27 11:49:59.149
216.0, -340.35001282096067, -2792.761062712796, -2179.608008814813, -9176.061651237209, 186.83823190191174, 476.9638749317974, -4424.796035861496, -1322.0162775535916, -1099.817585923384, -3792.08520556512, -3594.026397946644, -2492.823003867031, -3036.7527051869283, -1872.1821155765197, -7744.991212486174, -14222.280886445153, 0.014625, -0.10300000000000001, 0.989125, 192.0, 0.0, 0.0, 0.0, 0.0, 0.0, 0.0, 0.0, 0.0, 0.0, 1.645922999156976E9, 0.0, 2022-02-27 11:49:59.156
218.0, -346.74261173517846, -2814.6210687900866, -2265.863390667843, -9235.763160677334, 118.41954212421682, 352.19643738227336, -4650.235730437724, -1639.8804354525132, -3501.6913416017705, -4420.549204414989, -3471.672948798293, -2584.7780805561642, -2769.1129170790814, -1787.2007831574422, -8038.380210206535, -15075.5587310265, 0.014625, -0.10300000000000001, 0.989125, 192.0, 0.0, 0.0, 0.0, 0.0, 0.0, 0.0, 0.0, 0.0, 0.0, 1.64592299916506E9, 0.0, 2022-02-27 11:49:59.165
220.0, -664.3385487006365, -3048.2191500925005, -2455.7414598156765, -9484.135745064706, -164.97822582462143, 274.3229596999836, -4614.763511987151, -1558.7659548242038, -1910.42595033955, -4343.9050726777405, -3799.4836329798263, -2629.5039212112333, -3199.9874949440355, -2076.8123360648556, -7988.804041004663, -14767.998727321474, 0.014625, -0.10300000000000001, 0.989125, 192.0, 0.0, 0.0, 0.0, 0.0, 0.0, 0.0, 0.0, 0.0, 0.0, 1.64592299917304E9, 0.0, 2022-02-27 11:49:59.173
222.0, -55.92406462717827, -2556.45842033129, -2029.1137133972304, -8975.521799984193, 395.0223797586417, 594.2211263443382, -4403.383064673312, -1340.4564667292198, -1993.485032735471, -3834.777037474756, -3410.6973899242153, -2433.367363615914, -2813.0340949337597, -1700.4089594374848, -7787.124250784427, -14403.821754911156, 0.014625, -0.10300000000000001, 0.989125, 192.0, 0.0, 0.0, 0.0, 0.0, 0.0, 0.0, 0.0, 0.0, 0.0, 1.645922999179728E9, 0.0, 2022-02-27 11:49:59.179
224.0, -705.7786829207759, -3089.346359890266, -2552.2115888847816, -9569.452353650613, -248.0820117094531, 182.2784760330291, -4765.503676593742, -1767.6653585035037, -3575.0050634151776, -4729.539719765154, -3699.3254660755956, -2668.4630117968336, -3008.3883414731436, -2005.5326229968814, -8191.266142280834, -15355.98371696278, 0.0143125, -0.10450000000000001, 0.9885625, 192.0, 0.0, 56.0, 126.0, 88.0, 15.0, 112.0, 0.0, 0.0, 0.0, 1.645922999194713E9, 0.0, 2022-02-27 11:49:59.194
226.0, -274.9935120336428, -2723.9847450238162, -2170.9802354550643, -9159.476656851371, 180.42328124323862, 507.5410613466575, -4418.984582303117, -1336.9919463386473, -1062.4454691941105, -3756.0318417587096, -3564.544447010094, -2446.7784102890982, -3023.7216381694843, -1843.5048274403607, -7743.985383985685, -14202.9019240024, 0.0143125, -0.10450000000000001, 0.9885625, 192.0, 0.0, 0.0, 0.0, 0.0, 0.0, 0.0, 0.0, 0.0, 0.0, 1.645922999202834E9, 0.0, 2022-02-27 11:49:59.202
228.0, -274.3676631888942, -2742.1343615215255, -2247.6914224256784, -9210.975076076398, 142.4029639247613, 373.6764638038235, -4627.816930749051, -1632.1914353598877, -3454.283291612064, -4368.067308433928, -3437.094800125933, -2535.716001476765, -2751.678556403942, -1757.0035763983224, -8034.088675271115, -15062.214739586681, 0.0143125, -0.10450000000000001, 0.9885625, 192.0, 0.0, 0.0, 0.0, 0.0, 0.0, 0.0, 0.0, 0.0, 0.0, 1.645922999209276E9, 0.0, 2022-02-27 11:49:59.209
230.0, -642.0762112231507, -3028.5496149718306, -2467.6102361214444, -9491.35535852377, -170.81203112745658, 257.1568199583078, -4624.732390014218, -1584.2022400143433, -1973.3461109812392, -4345.849674445352, -3788.486574707815, -2613.030685547672, -3194.220744874566, -2082.6461413676907, -8005.277276668225, -14804.946160906096, 0.0143125, -0.10450000000000001, 0.9885625, 192.0, 0.0, 0.0, 0.0, 0.0, 0.0, 0.0, 0.0, 0.0, 0.0, 1.645922999217242E9, 0.0, 2022-02-27 11:49:59.217
232.0, -35.338107983840466, -2543.1591323803823, -2030.9465564425657, -8977.578160474082, 389.2779814336278, 569.4106899989474, -4409.328628698424, -1360.6177402279068, -1922.6970580455136, -3810.011304618276, -3404.573011943461, -2426.818302490509, -2815.22456589038, -1716.3234014896634, -7786.498401939679, -14390.678929171436, 0.0143125, -0.10450000000000001, 0.9885625, 192.0, 0.0, 0.0, 0.0, 0.0, 0.0, 0.0, 0.0, 0.0, 0.0, 1.6459229992253E9, 0.0, 2022-02-27 11:49:59.225
234.0, -681.0353018087509, -3071.755537003939, -2552.703327262798, -9572.246321707526, -235.90031098131075, 143.63230986980318, -4777.75243255525, -1794.3756931275957, -3590.6736362783477, -4746.839969973561, -3688.9766083927884, -2672.218104865325, -2996.564268656286, -2021.424713304605, -8196.116470827636, -15371.585234592587, 0.013156250000000001, -0.10325000000000001, 0.98828125, 192.0, 0.0, 48.0, 126.0, 104.0, 15.0, 112.0, 0.0, 0.0, 0.0, 1.645922999232329E9, 0.0, 2022-02-27 11:49:59.232
236.0, -264.55524737301437, -2718.709733332364, -2179.451546603626, -9168.417354633493, 192.02383661554296, 478.9308284438644, -4430.763951631064, -1355.901522147837, -1054.9576348015828, -3756.501228392271, -3564.2985778210855, -2448.0971632119613, -3028.437856249554, -1864.2025428059749, -7749.081581721495, -14219.375159665962, 0.013156250000000001, -0.10325000000000001, 0.98828125, 192.0, 0.0, 0.0, 0.0, 0.0, 0.0, 0.0, 0.0, 0.0, 0.0, 1.645922999239937E9, 0.0, 2022-02-27 11:49:59.239
238.0, -245.39980237481623, -2717.770960065241, -2242.8634456233317, -9201.699102127446, 158.92090307723322, 386.90869652136524, -4629.627422049931, -1633.4654847938402, -3422.454407507707, -4350.9458721811625, -3425.2707273090755, -2524.651887971388, -2744.905977833984, -1755.7742304532803, -8032.25583222578, -15049.11661733587, 0.013156250000000001, -0.10325000000000001, 0.98828125, 192.0, 0.0, 0.0, 0.0, 0.0, 0.0, 0.0, 0.0, 0.0, 0.0, 1.645922999246914E9, 0.0, 2022-02-27 11:49:59.246
240.0, -607.4310073174247, -2995.692550622529, -2456.9931575051737, -9481.855867130264, -163.54771417948177, 271.9760265321763, -4620.217337634246, -1576.0215015437009, -1942.6348140996474, -4330.963412638118, -3770.1134407655527, -2596.4903946507447, -3184.5424395254186, -2069.2797981834174, -8001.835108022107, -14794.55259973438, 0.013156250000000001, -0.10325000000000001, 0.98828125, 192.0, 0.0, 0.0, 0.0, 0.0, 0.0, 0.0, 0.0, 0.0, 0.0, 1.645922999255015E9, 0.0, 2022-02-27 11:49:59.255
242.0, -6.794930314413347, -2512.984277365718, -2022.899928438655, -8969.375070258984, 390.10499597847416, 591.293047820693, -4407.808710075464, -1350.7829726675718, -1917.6008603097034, -3797.337865512117, -3386.6022094013942, -2413.7648837286097, -2808.5190425537876, -1700.498366415306, -7787.325416484526, -14389.628397182036, 0.013156250000000001, -0.10325000000000001, 0.98828125, 192.0, 0.0, 0.0, 0.0, 0.0, 0.0, 0.0, 0.0, 0.0, 0.0, 1.645922999262084E9, 0.0, 2022-02-27 11:49:59.262
244.0, -664.1820864894494, -3049.113219870713, -2550.334042350536, -9560.288138423937, -244.01399421858721, 158.831496099412, -4778.758261055739, -1789.9723994699002, -3592.372368856951, -4726.455179030321, -3672.7045384293247, -2657.3318430580907, -2985.0978237507134, -2003.0962828512531, -8194.529496971309, -15367.383106634989, 0.012578125, -0.10262500000000001, 0.987140625, 192.0, 0.0, 48.0, 126.0, 104.0, 15.0, 104.0, 0.0, 0.0, 0.0, 1.645922999269508E9, 0.0, 2022-02-27 11:49:59.269
246.0, -261.0236717490759, -2708.4055791384676, -2185.8217937733884, -9165.109296454108, 175.46119397416044, 485.90457271392023, -4438.8776348683405, -1357.0414611150577, -1053.0353847784263, -3748.1863794548967, -3571.629950002426, -2443.24683466516, -3041.826551178283, -1863.107307327665, -7753.954262012752, -14214.48012763025, 0.012578125, -0.10262500000000001, 0.987140625, 192.0, 0.0, 0.0, 0.0, 0.0, 0.0, 0.0, 0.0, 0.0, 0.0, 1.645922999277519E9, 0.0, 2022-02-27 11:49:59.277
