%OpenBCI Raw EEG Data
%Number of channels = 16
%Sample Rate = 125 Hz
%Board = OpenBCI_GUI$BoardCytonSerialDaisy
Sample Index, EXG Channel 0, EXG Channel 1, EXG Channel 2, EXG Channel 3, EXG Channel 4, EXG Channel 5, EXG Channel 6, EXG Channel 7, EXG Channel 8, EXG Channel 9, EXG Channel 10, EXG Channel 11, EXG Channel 12, EXG Channel 13, EXG Channel 14, EXG Channel 15, Accel Channel 0, Accel Channel 1, Accel Channel 2, Other, Other, Other, Other, Other, Other, Other, Analog Channel 0, Analog Channel 1, Analog Channel 2, Timestamp, Other, Timestamp (Formatted)
96.0, -390.99906575668643, -2801.0535599057152, -2267.5621232464464, -9316.184737227528, 33.84054110533489, 295.73593088816773, -4523.188414953758, -1722.4254277259622, -2692.8487649975737, -4438.385896490324, -3501.892507301868, -2532.6314607419326, -2919.3613433076553, -1991.6745414345912, -8019.045951252694, -15095.831763247463, 0.0, 0.0, 0.0, 192.0, 0.0, 0.0, 0.0, 0.0, 0.0, 0.0, 0.0, 0.0, 0.0, 1.645923062171031E9, 0.0, 2022-02-27 11:51:02.171
98.0, -50.24672153553028, -2540.1416468789157, -2000.7493496834459, -9016.134919659486, 349.24600711417287, 500.72377928778883, -4333.802084183942, -1446.671956380839, -1314.4166844387871, -3782.295141493695, -3378.5332296530282, -2422.794988488554, -2842.3595836591226, -1868.5387812303045, -7753.82015154602, -14388.868437870555, 0.014, -0.106, 1.004, 192.0, 0.0, 56.0, 126.0, 88.0, 15.5, 48.0, 0.0, 0.0, 0.0, 1.645923062171034E9, 0.0, 2022-02-27 11:51:02.171
0.0, 67.36815778829549, -1178.8310025728945, -925.8316070832739, -4415.877689823829, 256.0392327355424, 310.64454443985755, -2117.8501388847994, -678.2189820073822, -1740.0833058456549, -2286.1364228888065, -1712.657715398993, -1276.6869397982289, -1415.223051932222, -979.5652007538321, -4061.1778570625615, -7667.162438292795, 0.016, -0.106, 0.99, 192.0, 0.0, 64.0, 126.0, 88.0, 15.0, 120.0, 0.0, 0.0, 0.0, 1.645923062254954E9, 0.0, 2022-02-27 11:51:02.254
2.0, -85.4507190526389, -2550.132876650438, -2087.9211530591433, -9081.55847568017, 261.78363106055633, 390.68614133431214, -4519.612135840909, -1722.3136690036856, -3355.8685607753473, -4264.712842072588, -3313.6014120103614, -2472.237047223693, -2717.480387387322, -1805.7527310553469, -8007.914782513951, -15126.431301406777, 0.016, -0.106, 0.99, 192.0, 0.0, 0.0, 0.0, 0.0, 0.0, 0.0, 0.0, 0.0, 0.0, 1.645923062262413E9, 0.0, 2022-02-27 11:51:02.262
4.0, -409.37219969894886, -2786.815498687685, -2264.4552307671584, -9290.12260319264, -5.789101813924529, 308.47642522769274, -4500.344932120434, -1646.3847930890076, -1667.2389706658091, -4159.324366965815, -3647.6929363838362, -2528.652850228888, -3130.3171074768434, -2088.926981559632, -7922.620525672499, -14762.902529585665, 0.016, -0.106, 0.99, 192.0, 0.0, 0.0, 0.0, 0.0, 0.0, 0.0, 0.0, 0.0, 0.0, 1.645923062269014E9, 0.0, 2022-02-27 11:51:02.269
6.0, 178.36692075335037, -2319.9322605052307, -1848.0645833092433, -8813.292838727575, 531.2562622137383, 612.2142806308605, -4296.407615710213, -1431.7409910846939, -1896.4337583105278, -3714.1670243939193, -3272.295388256954, -2364.367528482381, -2747.5881871686206, -1730.6508696855153, -7753.261357934637, -14462.159807939508, 0.016, -0.106, 0.99, 192.0, 0.0, 0.0, 0.0, 0.0, 0.0, 0.0, 0.0, 0.0, 0.0, 1.645923062277031E9, 0.0, 2022-02-27 11:51:02.277
8.0, -499.85206125403187, -2866.410060693033, -2378.0914995779394, -9407.692779027555, -106.0143239515214, 192.85085116038934, -4663.132686988436, -1861.7438509158912, -3363.892837034802, -4600.078415880014, -3574.3792145704288, -2593.94229578284, -2974.994835256915, -2043.128257170708, -8156.799752330751, -15376.726135817307, 0.016, -0.10400000000000001, 0.988, 192.0, 0.0, 64.0, 126.0, 96.0, 15.0, 112.0, 0.0, 0.0, 0.0, 1.645923062285503E9, 0.0, 2022-02-27 11:51:02.285
10.0, -55.18645706015314, -2500.891983615397, -1988.6123524442141, -8989.290474568663, 328.7941609375669, 533.7373058482774, -4315.7865781529645, -1421.1686159573337, -930.9278048190838, -3623.731866327747, -3448.6283002648715, -2392.195450329238, -2961.4943816059094, -1872.8973713990895, -7688.217781569694, -14239.49172967574, 0.016, -0.10400000000000001, 0.988, 192.0, 0.0, 0.0, 0.0, 0.0, 0.0, 0.0, 0.0, 0.0, 0.0, 1.645923062292131E9, 0.0, 2022-02-27 11:51:02.292
12.0, -86.85887895332324, -2553.5079900631895, -2086.7588623474676, -9082.720766391845, 259.9060845263105, 387.1769174548289, -4525.334182421468, -1717.4409887124289, -3334.9920314540905, -4247.79257151992, -3318.250574857065, -2480.8424688389864, -2716.6310210980205, -1800.2765536637967, -8009.591163348099, -15113.422586133789, 0.016, -0.10400000000000001, 0.988, 192.0, 0.0, 0.0, 0.0, 0.0, 0.0, 0.0, 0.0, 0.0, 0.0, 1.645923062299674E9, 0.0, 2022-02-27 11:51:02.299
14.0, -423.140874283418, -2799.131309882559, -2276.4804692841135, -9307.869888290154, -9.566546626871423, 296.94292508875435, -4493.550001806021, -1646.273034366731, -1678.6830638269264, -4168.466230448035, -3657.9970905777327, -2546.3777835819465, -3132.328764477821, -2107.4565777130815, -7929.840139131563, -14772.513779701447, 0.016, -0.10400000000000001, 0.988, 192.0, 0.0, 0.0, 0.0, 0.0, 0.0, 0.0, 0.0, 0.0, 0.0, 1.64592306230761E9, 0.0, 2022-02-27 11:51:02.307
16.0, 173.87422011783363, -2329.923490276753, -1851.8420281221902, -8819.283106241597, 534.944300048864, 611.45432131938, -4292.026673796973, -1424.029639247613, -1890.3764355631395, -3723.4877018317825, -3288.7239204316047, -2390.3402555394478, -2755.858332617084, -1752.913207163001, -7756.748230069666, -14474.430915645471, 0.014, -0.10500000000000001, 0.985, 192.0, 0.0, 48.0, 126.0, 88.0, 15.0, 88.0, 0.0, 0.0, 0.0, 1.645923062322031E9, 0.0, 2022-02-27 11:51:02.322
18.0, -491.9842472057638, -2868.9805113053935, -2374.4034617428138, -9402.775395247389, -99.12998665928683, 193.11907209385302, -4656.605977607486, -1849.293929254285, -3370.061918504467, -4603.274715337124, -3571.89817093589, -2595.75278708372, -2961.717899050462, -2042.2118356480405, -8156.240958719369, -15381.107077730547, 0.014, -0.10500000000000001, 0.985, 192.0, 0.0, 0.0, 0.0, 0.0, 0.0, 0.0, 0.0, 0.0, 0.0, 1.645923062329295E9, 0.0, 2022-02-27 11:51:02.329
20.0, -64.8871141537564, -2517.588736723511, -1997.5977537152476, -8993.53730601517, 328.54829174855854, 524.3495731770483, -4318.289973531959, -1426.4659793932415, -922.1882727370588, -3630.9738315312666, -3447.555416531017, -2393.5812584854675, -2953.894788491105, -1887.3813018061285, -7690.587066481957, -14242.285697732652, 0.014, -0.10500000000000001, 0.985, 192.0, 0.0, 0.0, 0.0, 0.0, 0.0, 0.0, 0.0, 0.0, 0.0, 1.645923062337355E9, 0.0, 2022-02-27 11:51:02.337
22.0, -89.11640514330927, -2557.6654145318766, -2090.4469001825933, -9079.502115190282, 267.66213985230206, 400.11857749445176, -4529.223385956691, -1720.212605024887, -3328.353563350864, -4256.040365223928, -3324.263194115543, -2489.0008555651734, -2717.770960065241, -1804.8586612771346, -8015.000285506283, -15116.75299605763, 0.014, -0.10500000000000001, 0.985, 192.0, 0.0, 0.0, 0.0, 0.0, 0.0, 0.0, 0.0, 0.0, 0.0, 1.645923062344462E9, 0.0, 2022-02-27 11:51:02.344
24.0, -432.5062552101917, -2812.31883911119, -2283.1859926207057, -9314.284838948828, -22.84348283332382, 300.67566641279063, -4511.386693881356, -1646.9659384448455, -1722.4030759815068, -4206.263030321959, -3669.955273861322, -2558.291263376625, -3137.1567412801674, -2111.189319037118, -7944.972270127806, -14793.278550300427, 0.014, -0.10500000000000001, 0.985, 192.0, 0.0, 0.0, 0.0, 0.0, 0.0, 0.0, 0.0, 0.0, 0.0, 1.645923062351878E9, 0.0, 2022-02-27 11:51:02.351
26.0, 161.62546415632536, -2346.866112573876, -1852.9372636005003, -8828.849652868468, 522.8296545540875, 617.1540161554833, -4294.194793009137, -1421.6827060798057, -1859.9333596150113, -3728.650954800958, -3289.595638465362, -2390.273200306082, -2758.5852454406318, -1754.723698463881, -7757.128209725405, -14457.443589859438, 0.013000000000000001, -0.10550000000000001, 0.9875, 192.0, 0.0, 48.0, 126.0, 88.0, 15.0, 120.0, 0.0, 0.0, 0.0, 1.645923062359961E9, 0.0, 2022-02-27 11:51:02.359
28.0, -495.56052631861286, -2872.6461973960636, -2379.209086800705, -9411.090244184763, -113.03277171048782, 183.50782197807098, -4667.871256812961, -1864.269598039341, -3399.8120903744807, -4613.757683486662, -3570.244141846197, -2616.4728541937893, -2967.4846491199314, -2051.867789252733, -8165.09224952367, -15394.272255214722, 0.013000000000000001, -0.10550000000000001, 0.9875, 192.0, 0.0, 0.0, 0.0, 0.0, 0.0, 0.0, 0.0, 0.0, 0.0, 1.645923062368072E9, 0.0, 2022-02-27 11:51:02.368
30.0, -73.17961134667533, -2520.6509257138882, -2003.029227617887, -9004.914343942923, 310.7563031621341, 517.6887533293669, -4319.988706110562, -1438.7817905881157, -929.3184792183017, -3660.0758028120763, -3459.379489347874, -2411.3508953274363, -2971.9773497554484, -1907.877851471645, -7702.433491043269, -14260.189445041353, 0.013000000000000001, -0.10550000000000001, 0.9875, 192.0, 0.0, 0.0, 0.0, 0.0, 0.0, 0.0, 0.0, 0.0, 0.0, 1.645923062374095E9, 0.0, 2022-02-27 11:51:02.374
32.0, -83.08143414037634, -2548.9929376832174, -2081.282684955917, -9072.573074409136, 267.7068433412127, 395.9611530257646, -4516.281725917069, -1703.6723141279597, -3307.208813096144, -4229.151216644194, -3320.932784191702, -2481.7365386171987, -2718.843843799096, -1818.716742839425, -8011.1557854599705, -15106.605304074921, 0.013000000000000001, -0.10550000000000001, 0.9875, 192.0, 0.0, 0.0, 0.0, 0.0, 0.0, 0.0, 0.0, 0.0, 0.0, 1.645923062381548E9, 0.0, 2022-02-27 11:51:02.381
34.0, -432.8638831214766, -2813.1011501671255, -2279.0956233853844, -9316.520013394358, -28.654936391703654, 295.82533786598896, -4511.520804348088, -1650.2516448797758, -1743.6148814695935, -4212.722684469543, -3667.697747671336, -2555.631405786444, -3142.208235527067, -2127.1931680671178, -7950.157874841438, -14804.901457417185, 0.013000000000000001, -0.10550000000000001, 0.9875, 192.0, 0.0, 0.0, 0.0, 0.0, 0.0, 0.0, 0.0, 0.0, 0.0, 1.645923062389607E9, 0.0, 2022-02-27 11:51:02.389
36.0, 166.20757176966333, -2339.5570921369904, -1851.2161792774416, -8822.501757443162, 513.7771980496882, 609.3979608294918, -4299.84978435633, -1425.415447403842, -1847.684603653503, -3717.4527308288493, -3285.0805860853898, -2382.8077176580096, -2762.809725142685, -1765.5419427802497, -7759.899826037864, -14458.71763929339, 0.0105, -0.10775000000000001, 0.98975, 192.0, 0.0, 32.0, 126.0, 72.0, 15.5, 0.0, 0.0, 0.0, 0.0, 1.64592306239767E9, 0.0, 2022-02-27 11:51:02.397
38.0, -497.70629378632236, -2880.0669765552257, -2378.180906555761, -9409.257401139426, -121.72760030360226, 181.49616497709334, -4671.693405114818, -1865.454240495472, -3407.5904974449277, -4614.629401520419, -3567.2043046002755, -2603.3523801985243, -2971.3515009106995, -2054.840571265289, -8170.479019937399, -15393.847572070072, 0.0105, -0.10775000000000001, 0.98975, 192.0, 0.0, 0.0, 0.0, 0.0, 0.0, 0.0, 0.0, 0.0, 0.0, 1.645923062404768E9, 0.0, 2022-02-27 11:51:02.404
40.0, -82.90262018473389, -2528.943422906807, -2002.9845241289765, -9004.802585220647, 306.10714031543023, 512.3690381490038, -4318.513490976512, -1428.4552846497638, -928.4914646734554, -3663.6297301804702, -3462.4640300827064, -2403.3713225568918, -2977.5205823803644, -1908.6378107831254, -7704.445148044247, -14259.228320029775, 0.0105, -0.10775000000000001, 0.98975, 192.0, 0.0, 0.0, 0.0, 0.0, 0.0, 0.0, 0.0, 0.0, 0.0, 1.645923062412688E9, 0.0, 2022-02-27 11:51:02.412
42.0, -78.94636141614454, -2545.2825481036366, -2074.1077749857636, -9059.474952158327, 271.2384189651512, 409.95334505478684, -4513.353647393424, -1700.6771803709485, -3298.446929269663, -4233.822731235353, -3323.9949731820793, -2478.719053115732, -2725.3929049245007, -1809.753693312847, -8007.646561580487, -15096.949350470228, 0.0105, -0.10775000000000001, 0.98975, 192.0, 0.0, 0.0, 0.0, 0.0, 0.0, 0.0, 0.0, 0.0, 0.0, 1.645923062420081E9, 0.0, 2022-02-27 11:51:02.420
44.0, -446.72196468376694, -2823.4276561054776, -2285.6893879997, -9319.783368084833, -30.42072420367291, 292.40552096432697, -4510.380865380867, -1653.5820548036165, -1776.2260766298864, -4229.330030599836, -3673.308035529618, -2557.7324697652425, -3144.175189039134, -2118.4983394740034, -7952.817732431618, -14814.088024388317, 0.0105, -0.10775000000000001, 0.98975, 192.0, 0.0, 0.0, 0.0, 0.0, 0.0, 0.0, 0.0, 0.0, 0.0, 1.645923062427383E9, 0.0, 2022-02-27 11:51:02.427
46.0, 150.33783320639532, -2353.9069120772974, -1853.0266705783215, -8826.100388300465, 515.297116672649, 608.0792079066287, -4303.9848570805625, -1426.644793348884, -1829.7585046003467, -3725.432303599394, -3299.676275214705, -2388.865040405398, -2765.4695827328665, -1762.6138642566043, -7755.384773657892, -14451.229804900862, 0.01025, -0.106875, 0.988875, 192.0, 0.0, 40.0, 126.0, 88.0, 15.0, 112.0, 0.0, 0.0, 0.0, 1.645923062441805E9, 0.0, 2022-02-27 11:51:02.441
48.0, -496.7898722636548, -2878.1670782765245, -2374.47051697618, -9403.021264436396, -103.01919019451026, 191.35328428188376, -4676.230809239246, -1865.2530747953745, -3429.003468633112, -4625.000610947682, -3566.6902144778032, -2607.107473267016, -2960.399146127599, -2049.520856084926, -8168.221493747413, -15394.920455803927, 0.01025, -0.106875, 0.988875, 192.0, 0.0, 0.0, 0.0, 0.0, 0.0, 0.0, 0.0, 0.0, 0.0, 1.645923062449918E9, 0.0, 2022-02-27 11:51:02.449
50.0, -117.97250723511068, -2563.655682045899, -2024.0398674058758, -9024.762693019235, 297.3676082334052, 510.64795382594514, -4331.075171360394, -1427.9411945272916, -950.4632294730222, -3686.7414339472575, -3473.930474988279, -2415.1506918848386, -2980.0686812482695, -1916.1256451756533, -7708.177889368283, -14271.745296924746, 0.01025, -0.106875, 0.988875, 192.0, 0.0, 0.0, 0.0, 0.0, 0.0, 0.0, 0.0, 0.0, 0.0, 1.645923062456994E9, 0.0, 2022-02-27 11:51:02.456
52.0, -59.52269548448271, -2537.5041410331896, -2040.155475158152, -9019.957067961344, 319.56289047752506, 450.54411298562445, -4490.0631296709935, -1654.2526071372756, -3217.39950387472, -4228.212443377071, -3331.1028279188668, -2490.20784976576, -2730.511454404766, -1811.9441642694671, -7998.527049842722, -15055.464512761178, 0.01025, -0.106875, 0.988875, 192.0, 0.0, 0.0, 0.0, 0.0, 0.0, 0.0, 0.0, 0.0, 0.0, 1.645923062464405E9, 0.0, 2022-02-27 11:51:02.464
54.0, -369.2508184016727, -2764.776678654752, -2202.049160247941, -9225.123730316607, 77.22527709308591, 370.83779225799947, -4479.423699310267, -1633.9348714274015, -2073.1690017186406, -4278.526220145967, -3625.408247161895, -2536.6100712549774, -3065.050013667347, -2063.4012893916715, -7959.992642401772, -14905.551362699434, 0.01025, -0.106875, 0.988875, 192.0, 0.0, 0.0, 0.0, 0.0, 0.0, 0.0, 0.0, 0.0, 0.0, 1.64592306247245E9, 0.0, 2022-02-27 11:51:02.472
56.0, -356.8679519734326, -2803.132272140059, -2218.5223959115024, -9219.938125602976, 108.8753472418007, 305.0789600704861, -4549.85404608894, -1706.3321717181411, -1986.1760122985856, -3943.7641434388333, -3444.4038205628185, -2491.079567799517, -2894.886183129094, -1886.0178453943547, -7856.057030684595, -14634.357647223193, 0.011125, -0.10743749999999999, 0.9904375, 192.0, 0.0, 48.0, 126.0, 80.0, 15.5, 0.0, 0.0, 0.0, 0.0, 1.645923062479557E9, 0.0, 2022-02-27 11:51:02.479
58.0, -202.8197291874563, -2640.9256626278952, -2033.807579732845, -9033.971611734822, 311.1809863067849, 506.87050901299824, -4363.015814187028, -1502.4619105412855, -2331.666926344267, -4165.471096691024, -3518.5222051766164, -2571.903475749907, -2946.5187128208536, -1976.162430782608, -7960.1491046129595, -14803.538001005412, 0.011125, -0.10743749999999999, 0.9904375, 192.0, 0.0, 0.0, 0.0, 0.0, 0.0, 0.0, 0.0, 0.0, 0.0, 1.645923062487091E9, 0.0, 2022-02-27 11:51:02.487
60.0, -342.853408199955, -2788.9836178998494, -2145.2980810759163, -9152.838188748145, 200.74101695311273, 398.1516239823847, -4484.966931935183, -1622.6025369885608, -2236.895529853765, -4053.891188370131, -3418.028762105556, -2425.2313286341823, -2822.220661904891, -1843.9071588405561, -7817.455568010279, -14745.02113402142, 0.011125, -0.10743749999999999, 0.9904375, 192.0, 0.0, 0.0, 0.0, 0.0, 0.0, 0.0, 0.0, 0.0, 0.0, 1.645923062495543E9, 0.0, 2022-02-27 11:51:02.495
62.0, -414.334286968027, -2849.065106995715, -2184.123061194785, -9176.754555315323, 164.50883919106, 387.3557314104714, -4491.381882593856, -1615.1370543404882, -2452.2769394251036, -4294.105386031316, -3621.7425610712244, -2673.581561277099, -3030.8965481396376, -2055.108792198753, -8038.268451484258, -14916.034330848972, 0.011125, -0.10743749999999999, 0.9904375, 192.0, 0.0, 0.0, 0.0, 0.0, 0.0, 0.0, 0.0, 0.0, 0.0, 1.645923062503559E9, 0.0, 2022-02-27 11:51:02.503
64.0, -296.3170762440057, -2736.9487568078944, -2044.6034723047583, -9042.822902539123, 311.00217235114246, 520.4156661529144, -4359.86421821883, -1487.2850760561319, -2194.740139811056, -4040.256624252394, -3414.9442213707234, -2427.4441513352576, -2816.0739321796814, -1822.3377254411848, -7802.345788758492, -14675.753077954421, 0.011125, -0.10743749999999999, 0.9904375, 192.0, 0.0, 0.0, 0.0, 0.0, 0.0, 0.0, 0.0, 0.0, 0.0, 1.645923062509706E9, 0.0, 2022-02-27 11:51:02.509
66.0, -533.0891052590734, -2977.6770445915517, -2260.1189923428287, -9261.959405178954, 86.05421615293218, 289.07511104048626, -4547.9988512991495, -1715.8763666005573, -2410.8815086938753, -4213.862623436764, -3554.1061823494656, -2580.039510731639, -2946.1610849095687, -1958.2363317294516, -7934.578708956088, -14862.770123811975, 0.010562499999999999, -0.10671875, 0.99321875, 192.0, 0.0, 40.0, 126.0, 88.0, 15.5, 16.0, 0.0, 0.0, 0.0, 1.645923062516684E9, 0.0, 2022-02-27 11:51:02.516
68.0, -319.3617247774273, -2759.0769838186484, -2047.3750886172163, -9044.968670006832, 303.00024783614253, 517.3981806514479, -4345.179122111693, -1498.4609482837855, -2357.3937842123255, -4203.536117498412, -3579.2965983505965, -2619.199767017337, -2975.3524631682, -1985.617218687203, -7961.445505791367, -14808.164812107661, 0.010562499999999999, -0.10671875, 0.99321875, 192.0, 0.0, 0.0, 0.0, 0.0, 0.0, 0.0, 0.0, 0.0, 0.0, 1.645923062524712E9, 0.0, 2022-02-27 11:51:02.524
70.0, -425.688973151323, -2865.7395083593738, -2152.85297070181, -9161.19774117443, 194.2590110610737, 385.4781848762256, -4467.174943348759, -1614.4888537512845, -2267.428012779714, -4073.873647913176, -3436.3571925589076, -2445.7278782996987, -2823.7852840167625, -1828.0150685328329, -7812.202908063282, -14741.713075842034, 0.010562499999999999, -0.10671875, 0.99321875, 192.0, 0.0, 0.0, 0.0, 0.0, 0.0, 0.0, 0.0, 0.0, 0.0, 1.645923062532772E9, 0.0, 2022-02-27 11:51:02.532
72.0, -439.9046826248983, -2876.401290464555, -2185.374758884282, -9183.77300307429, 158.11624027684215, 367.4850305897034, -4482.396481322823, -1639.9698424303344, -2466.716166343232, -4279.956731791107, -3641.1885787473416, -2694.681608042909, -3047.034507636369, -2073.5713331188363, -8036.390904950012, -14919.342389028358, 0.010562499999999999, -0.10671875, 0.99321875, 192.0, 0.0, 0.0, 0.0, 0.0, 0.0, 0.0, 0.0, 0.0, 0.0, 1.645923062539345E9, 0.0, 2022-02-27 11:51:02.539
74.0, -269.49498289763727, -2715.1781577084253, -2032.935861699088, -9038.88899551499, 319.24996605515076, 518.7392853187663, -4352.868122204319, -1507.8039774661038, -2176.836392502355, -4028.097275268707, -3397.0181223175673, -2423.689058266766, -2803.154623884514, -1814.4475596484615, -7791.885172353408, -14673.674365720079, 0.010562499999999999, -0.10671875, 0.99321875, 192.0, 0.0, 0.0, 0.0, 0.0, 0.0, 0.0, 0.0, 0.0, 0.0, 1.645923062547386E9, 0.0, 2022-02-27 11:51:02.547
76.0, -467.5537905161131, -2900.9658576209376, -2247.1102770698403, -9246.626108482613, 96.89481221375611, 307.694114171757, -4551.396316456356, -1682.2146394508648, -2393.76007244111, -4180.6032276872675, -3533.3861152393956, -2568.2824931481473, -2941.020183684848, -1946.4122589125943, -7932.634107188476, -14867.128713980761, 0.010281249999999999, -0.103359375, 0.993609375, 192.0, 0.0, 40.0, 126.0, 112.0, 15.5, 8.0, 0.0, 0.0, 0.0, 1.645923062555399E9, 0.0, 2022-02-27 11:51:02.555
78.0, -226.46787482117116, -2663.970311161317, -2029.381934330694, -9021.92402147341, 325.06141961353063, 536.1736459939058, -4337.244252830059, -1489.8778784129477, -2299.0333794395187, -4165.404041457658, -3542.7738479106247, -2581.9170572658845, -2957.404012370588, -1966.3053114778177, -7948.705011451842, -14788.852904898276, 0.010281249999999999, -0.103359375, 0.993609375, 192.0, 0.0, 0.0, 0.0, 0.0, 0.0, 0.0, 0.0, 0.0, 0.0, 1.645923062569068E9, 0.0, 2022-02-27 11:51:02.569
80.0, -339.50064653165896, -2774.9914258708272, -2146.5944822543242, -9151.765305014289, 196.8071099289787, 396.96698152625345, -4470.035966639039, -1596.1604232979325, -2234.3921344747705, -3996.849536520188, -3401.4437677197184, -2398.14101435435, -2805.345094841134, -1803.8751845211011, -7803.172803303338, -14739.187328718583, 0.010281249999999999, -0.103359375, 0.993609375, 192.0, 0.0, 0.0, 0.0, 0.0, 0.0, 0.0, 0.0, 0.0, 0.0, 1.645923062577026E9, 0.0, 2022-02-27 11:51:02.577
82.0, -385.5228883651362, -2820.8348537486618, -2197.8470322903436, -9197.854602081134, 134.28928068748482, 363.1264404209185, -4505.619943811887, -1632.9290429269129, -2434.082619438484, -4278.682682357155, -3630.7726658311685, -2680.667064269431, -3053.7176792285063, -2058.394498633683, -8041.710620130375, -14919.90118263974, 0.010281249999999999, -0.103359375, 0.993609375, 192.0, 0.0, 0.0, 0.0, 0.0, 0.0, 0.0, 0.0, 0.0, 0.0, 1.64592306258511E9, 0.0, 2022-02-27 11:51:02.585
84.0, -197.09768260689768, -2645.6195289635098, -2022.1846726160852, -9030.350629133061, 323.02741086809766, 514.8277300390876, -4344.5756250114, -1498.6621139838833, -2162.598331284324, -3989.451109105481, -3384.344683211408, -2409.7415697266542, -2803.6910657514413, -1825.1540452425536, -7795.282637510614, -14684.313796080805, 0.010281249999999999, -0.103359375, 0.993609375, 192.0, 0.0, 0.0, 0.0, 0.0, 0.0, 0.0, 0.0, 0.0, 0.0, 1.645923062592225E9, 0.0, 2022-02-27 11:51:02.592
86.0, -430.7404673982224, -2874.769613119318, -2254.084021339896, -9263.099344146174, 79.14752711624232, 283.04014003755333, -4574.440964989778, -1720.503177702806, -2379.052624589518, -4205.368960543748, -3524.423065712818, -2552.1445336514157, -2944.216483141957, -1962.2149422424964, -7930.264822276214, -14880.629167631767, 0.008, -0.106, 0.994, 192.0, 0.0, 32.0, 126.0, 88.0, 15.5, 8.0, 0.0, 0.0, 0.0, 1.645923062599623E9, 0.0, 2022-02-27 11:51:02.599
88.0, -181.0044265990766, -2625.346496742546, -2025.7385999844792, -9029.031876210198, 318.53471023258095, 525.4671603998138, -4342.3180988214135, -1481.2277533087438, -2282.9401234316974, -4186.705253923566, -3534.41429548434, -2590.2095544588037, -2965.4729921189537, -1974.6425121596471, -7953.421229531912, -14802.129841104728, 0.008, -0.106, 0.994, 192.0, 0.0, 0.0, 0.0, 0.0, 0.0, 0.0, 0.0, 0.0, 0.0, 1.645923062607648E9, 0.0, 2022-02-27 11:51:02.607
90.0, -293.6348669093689, -2737.8875300750174, -2149.7907817114333, -9155.878025994067, 194.0131418720653, 396.25172570368363, -4484.050510412516, -1618.9368508978905, -2236.2249775201058, -4027.9184613130647, -3387.8539070908914, -2399.8620986774085, -2807.4238070754777, -1821.0636760072323, -7804.625666692933, -14748.351543945259, 0.008, -0.106, 0.994, 192.0, 0.0, 0.0, 0.0, 0.0, 0.0, 0.0, 0.0, 0.0, 0.0, 1.645923062614852E9, 0.0, 2022-02-27 11:51:02.614
92.0, -339.0536116425528, -2771.6610159469865, -2201.8703462922986, -9194.926523557488, 127.36023990633964, 364.0428619435861, -4505.172908922781, -1640.1039528970664, -2411.9320406832744, -4271.440717153635, -3622.3013546826073, -2664.8867326839845, -3058.3891938196653, -2063.289530669395, -8043.521111431255, -14918.023636105496, 0.008, -0.106, 0.994, 192.0, 0.0, 0.0, 0.0, 0.0, 0.0, 0.0, 0.0, 0.0, 0.0, 1.645923062621233E9, 0.0, 2022-02-27 11:51:02.621
94.0, -142.26885345802944, -2582.721720066276, -2020.284774337384, -9021.8793179845, 324.6367364688798, 521.7344190757775, -4357.137305395282, -1493.7894336926263, -2156.406898070204, -3991.7980422732885, -3381.841287832414, -2400.2197265886934, -2805.121577396581, -1811.7429985693693, -7799.484765468213, -14674.166104098094, 0.008, -0.106, 0.994, 192.0, 0.0, 0.0, 0.0, 0.0, 0.0, 0.0, 0.0, 0.0, 0.0, 1.64592306262933E9, 0.0, 2022-02-27 11:51:02.629
96.0, -378.37033013943795, -2813.7269990118743, -2261.0354138654966, -9258.45018129947, 71.8608584238122, 293.43370120927113, -4552.290386234568, -1711.920107831968, -2366.736813394644, -4166.901608336164, -3512.0401992845777, -2536.0289258991393, -2935.3875440821107, -1946.971052523977, -7929.817787387108, -14875.443562918135, 0.012, -0.10400000000000001, 0.99, 192.0, 0.0, 48.0, 126.0, 96.0, 15.0, 120.0, 0.0, 0.0, 0.0, 1.645923062637311E9, 0.0, 2022-02-27 11:51:02.637
98.0, -120.5876613363816, -2560.258216888692, -2023.8834051946885, -9016.961934204333, 319.20526256624015, 537.6712128724114, -4326.157787580227, -1478.6796544408387, -2250.6865561826894, -4148.036736015884, -3523.998382568167, -2574.585685084544, -2966.344710152711, -1977.7047011500242, -7950.359040541535, -14793.479716000524, 0.012, -0.10400000000000001, 0.99, 192.0, 0.0, 0.0, 0.0, 0.0, 0.0, 0.0, 0.0, 0.0, 0.0, 1.64592306264455E9, 0.0, 2022-02-27 11:51:02.644
100.0, -229.1724359002633, -2671.2122763648363, -2131.060019857886, -9136.208490873396, 198.4164355297608, 403.09135950700755, -4466.951425904206, -1618.5121677532397, -2217.293049966461, -3999.285876665816, -3354.773325297037, -2378.337368766948, -2789.9223911669724, -1803.5846118431823, -7797.696625911788, -14750.519663157424, 0.012, -0.10400000000000001, 0.99, 192.0, 0.0, 0.0, 0.0, 0.0, 0.0, 0.0, 0.0, 0.0, 0.0, 1.645923062651894E9, 0.0, 2022-02-27 11:51:02.651
102.0, -287.93517207326556, -2718.128587976526, -2188.414596130204, -9185.136459486062, 133.2611004425407, 362.433536342804, -4496.254562885113, -1634.2924993386864, -2366.021557572074, -4225.485530553524, -3587.253819376686, -2640.5233312277, -3036.1492080866346, -2050.21376016304, -8030.847672325096, -14918.671836694699, 0.012, -0.10400000000000001, 0.99, 192.0, 0.0, 0.0, 0.0, 0.0, 0.0, 0.0, 0.0, 0.0, 0.0, 1.645923062660144E9, 0.0, 2022-02-27 11:51:02.660
104.0, -85.40601556372829, -2528.8987194178962, -2001.2410880614625, -9004.064977653621, 332.1022191169523, 534.4078581819366, -4344.910901178229, -1489.0508638681013, -2119.414760996671, -3968.3063588507607, -3345.0726682034338, -2374.9622553541967, -2782.5239637522654, -1797.7284547958918, -7789.225314763226, -14675.641319232145, 0.012, -0.10400000000000001, 0.99, 192.0, 0.0, 0.0, 0.0, 0.0, 0.0, 0.0, 0.0, 0.0, 0.0, 1.645923062667953E9, 0.0, 2022-02-27 11:51:02.667
106.0, -346.2061698682511, -2785.2955800647237, -2254.1287248288068, -9261.7358877344, 53.42066924818388, 281.76609060360084, -4592.657636720853, -1737.4234482554732, -2341.6805078602442, -4150.897759306164, -3486.313341416519, -2518.4381030128125, -2924.7481137213845, -1936.8457122857228, -7933.28230777768, -14888.89931308023, 0.012, -0.11, 0.988, 192.0, 0.0, 48.0, 126.0, 72.0, 15.0, 112.0, 0.0, 0.0, 0.0, 1.645923062674489E9, 0.0, 2022-02-27 11:51:02.674
108.0, -100.20287039314157, -2541.5498067796, -2023.3469633277612, -9022.974553462811, 297.23349776667334, 512.1455207044507, -4372.7835265139975, -1504.0712361420676, -2232.7157536406226, -4146.96385228203, -3523.8195686125246, -2577.1784874413597, -2976.179477713046, -1991.2722100343956, -7975.9964914317725, -14818.468966301558, 0.012, -0.11, 0.988, 192.0, 0.0, 0.0, 0.0, 0.0, 0.0, 0.0, 0.0, 0.0, 0.0, 1.645923062689536E9, 0.0, 2022-02-27 11:51:02.689
110.0, -199.377560541339, -2643.004374862239, -2118.699505174101, -9128.81006345869, 202.30563906498423, 393.7706820691445, -4464.492734014122, -1631.9008626819686, -2206.631267861279, -3992.1109666956627, -3343.776267025026, -2363.6075691709007, -2779.4617747618886, -1806.6691525780145, -7799.104785812472, -14761.24850049597, 0.012, -0.11, 0.988, 192.0, 0.0, 0.0, 0.0, 0.0, 0.0, 0.0, 0.0, 0.0, 0.0, 1.645923062697556E9, 0.0, 2022-02-27 11:51:02.697
112.0, -284.5377069160589, -2721.056666500171, -2196.9976660010416, -9202.526116672292, 120.69942005865813, 339.41123955383773, -4512.03489447056, -1660.9134269849571, -2359.5171999355794, -4234.69444926911, -3590.3830636004286, -2648.167627831415, -3039.725487199484, -2069.5256673724257, -8031.764093847763, -14930.473557767102, 0.012, -0.11, 0.988, 192.0, 0.0, 0.0, 0.0, 0.0, 0.0, 0.0, 0.0, 0.0, 0.0, 1.64592306270438E9, 0.0, 2022-02-27 11:51:02.704
114.0, -75.99593114804401, -2523.489597259712, -2003.4986142514485, -9013.49741381376, 333.37626855090485, 520.4380178973696, -4356.332642594891, -1498.1927273503218, -2124.6897726881234, -3971.0556234187634, -3343.910377491758, -2384.081767091962, -2785.4967457648213, -1806.6691525780145, -7796.221410777737, -14687.018357159897, 0.012, -0.11, 0.988, 192.0, 0.0, 0.0, 0.0, 0.0, 0.0, 0.0, 0.0, 0.0, 0.0, 1.645923062712229E9, 0.0, 2022-02-27 11:51:02.712
116.0, -339.85827444294387, -2774.678501448453, -2255.1569050737507, -9262.384088323604, 61.82492516337933, 275.6417126228467, -4587.539087240588, -1725.2193957828756, -2352.9457870657193, -4175.887009607197, -3495.3657979209183, -2529.9939548962066, -2936.371020838144, -1956.9846340399545, -7938.534967724678, -14895.649539905733, 0.008, -0.108, 0.988, 192.0, 0.0, 32.0, 126.0, 80.0, 15.0, 112.0, 0.0, 0.0, 0.0, 1.645923062720209E9, 0.0, 2022-02-27 11:51:02.720
118.0, -87.26121035351878, -2525.009515882673, -2012.7075329670351, -9015.285553370184, 315.74074217566755, 531.1445034914617, -4348.62129075781, -1477.2267910512437, -2216.3989801882485, -4141.375916168203, -3512.733103362692, -2569.1318594374493, -2962.790782784317, -1984.0749483197867, -7954.449409776857, -14793.54677123389, 0.008, -0.108, 0.988, 192.0, 0.0, 0.0, 0.0, 0.0, 0.0, 0.0, 0.0, 0.0, 0.0, 1.645923062726879E9, 0.0, 2022-02-27 11:51:02.726
120.0, -212.18511011422996, -2652.5262180001996, -2126.8578919002885, -9142.712848509891, 197.4776622626379, 401.593792628502, -4467.532571260044, -1610.1749670714103, -2221.450474435148, -4006.8631180361654, -3348.4477816161852, -2372.615322186389, -2782.0992806076147, -1812.4806061363945, -7793.583904932011, -14756.420523693625, 0.008, -0.108, 0.988, 192.0, 0.0, 0.0, 0.0, 0.0, 0.0, 0.0, 0.0, 0.0, 0.0, 1.645923062734812E9, 0.0, 2022-02-27 11:51:02.734
122.0, -286.1023290279304, -2720.453169399878, -2198.1376049682626, -9206.348264974149, 123.02400148201008, 353.1575623938516, -4516.058208472516, -1645.0660401661446, -2358.46666794618, -4251.681775055144, -3595.501613080694, -2655.610758735032, -3045.9392721580593, -2069.3021499278725, -8028.456035668378, -14922.918668141207, 0.008, -0.108, 0.988, 192.0, 0.0, 0.0, 0.0, 0.0, 0.0, 0.0, 0.0, 0.0, 0.0, 1.645923062741826E9, 0.0, 2022-02-27 11:51:02.741
124.0, -69.6256839782815, -2512.06785584305, -1993.909715880122, -9007.618905022015, 344.0827541449969, 542.7674106082214, -4333.3326975503805, -1477.249142795699, -2126.2767465444504, -3976.352986854671, -3348.559540338462, -2391.659008462311, -2783.060405619193, -1811.1171497246207, -7791.371082230936, -14678.032955888862, 0.008, -0.108, 0.988, 192.0, 0.0, 0.0, 0.0, 0.0, 0.0, 0.0, 0.0, 0.0, 0.0, 1.645923062750129E9, 0.0, 2022-02-27 11:51:02.750
126.0, -342.3616698219383, -2773.247989803313, -2251.5582742164465, -9263.144047635085, 70.49740201203848, 286.3705499613941, -4571.781107399596, -1713.2612124992863, -2344.7874003395323, -4140.05716324534, -3485.8216030385024, -2517.2534605566816, -2921.060075886259, -1945.741706578935, -7928.7449036532535, -14889.972196814084, 0.006, -0.108, 0.986, 192.0, 0.0, 24.0, 126.0, 80.0, 15.0, 104.0, 0.0, 0.0, 0.0, 1.645923062756477E9, 0.0, 2022-02-27 11:51:02.756
128.0, -98.83941398136783, -2539.0240596561503, -2014.518024267915, -9016.961934204333, 317.90886138783236, 528.5293493901908, -4336.730162707587, -1466.475601968241, -2223.7750558585, -4149.735468594488, -3525.8088738690467, -2579.2795514201584, -2969.2280851874457, -1998.4918234934598, -7963.032479647694, -14801.88397191572, 0.006, -0.108, 0.986, 192.0, 0.0, 0.0, 0.0, 0.0, 0.0, 0.0, 0.0, 0.0, 0.0, 1.645923062764606E9, 0.0, 2022-02-27 11:51:02.764
130.0, -207.89357517881098, -2651.654499966443, -2115.726723161545, -9136.946098440421, 213.72738048164612, 400.49855715019197, -4451.2605012965805, -1615.2264613183095, -2227.5972041603573, -4017.4354931635257, -3350.3476798948864, -2370.46955471868, -2778.5230014947656, -1811.8324055471905, -7797.16018404486, -14762.544901674379, 0.006, -0.108, 0.986, 192.0, 0.0, 0.0, 0.0, 0.0, 0.0, 0.0, 0.0, 0.0, 0.0, 1.645923062772532E9, 0.0, 2022-02-27 11:51:02.772
132.0, -297.99345707815377, -2730.2432334713026, -2193.9131252662096, -9208.114052786119, 128.92486201821114, 339.3218325760165, -4496.612190796398, -1638.0475924071782, -2352.9234353212637, -4256.420344879669, -3589.0419589331104, -2652.1685900889147, -3034.606937719219, -2067.446955138082, -8022.376361176534, -14931.121758356305, 0.006, -0.108, 0.986, 192.0, 0.0, 0.0, 0.0, 0.0, 0.0, 0.0, 0.0, 0.0, 0.0, 1.645923062779639E9, 0.0, 2022-02-27 11:51:02.779
134.0, -69.6256839782815, -2510.726751175732, -1985.1478320536414, -9003.126204386497, 350.3859460813935, 533.2232157258053, -4322.089770089361, -1490.9731138912575, -2127.5284442339475, -3976.0847659212072, -3346.1455519372885, -2388.7756334275764, -2779.2159055728803, -1821.778931829802, -7787.191306017793, -14687.95713042702, 0.006, -0.108, 0.986, 192.0, 0.0, 0.0, 0.0, 0.0, 0.0, 0.0, 0.0, 0.0, 0.0, 1.645923062787109E9, 0.0, 2022-02-27 11:51:02.787
136.0, -372.4918213476922, -2805.8591849636064, -2258.0626318529407, -9270.296605860784, 64.75300368702456, 280.6708551252908, -4560.404069471845, -1690.9988750218006, -2367.049737817018, -4168.667396148133, -3496.2151642102203, -2527.5352630061225, -2927.8773579451276, -1942.388944910639, -7920.094778549049, -14889.6145689028, 0.008, -0.106, 0.984, 192.0, 0.0, 32.0, 126.0, 88.0, 15.0, 96.0, 0.0, 0.0, 0.0, 1.645923062795038E9, 0.0, 2022-02-27 11:51:02.795
138.0, -119.06774271342073, -2558.5371325656333, -2022.8328732052892, -9024.762693019235, 319.0935038439636, 528.10466624554, -4332.460979516623, -1465.8721048679479, -2251.245349794072, -4178.658625919656, -3545.612519456449, -2608.448577934334, -2983.220277216468, -2006.1808235860854, -7958.71859296782, -14800.162887592662, 0.008, -0.106, 0.984, 192.0, 0.0, 0.0, 0.0, 0.0, 0.0, 0.0, 0.0, 0.0, 0.0, 1.645923062803111E9, 0.0, 2022-02-27 11:51:02.803
140.0, -214.1967671152076, -2652.5709214891103, -2121.3370110198275, -9136.454360062404, 217.795397972512, 419.4528364482923, -4449.427658251245, -1603.5588507126392, -2239.9800705885973, -4013.970972772953, -3356.8296857869254, -2386.495755493135, -2785.02735913126, -1807.5408706117717, -7791.8628206089525, -14748.910337556641, 0.008, -0.106, 0.984, 192.0, 0.0, 0.0, 0.0, 0.0, 0.0, 0.0, 0.0, 0.0, 0.0, 1.645923062816722E9, 0.0, 2022-02-27 11:51:02.816
142.0, -319.27231779960607, -2744.9506813228945, -2215.706076110134, -9221.525099459303, 115.8490915118565, 329.3753062934049, -4508.302153146524, -1647.4129733339516, -2372.615322186389, -4258.052022224906, -3607.504499853194, -2666.071375140116, -3055.9752054184924, -2070.6656063396463, -8034.4463031824, -14930.585316489378, 0.008, -0.106, 0.984, 192.0, 0.0, 0.0, 0.0, 0.0, 0.0, 0.0, 0.0, 0.0, 0.0, 1.645923062824812E9, 0.0, 2022-02-27 11:51:02.824
144.0, -87.41767256470592, -2528.3175740620586, -1994.9155443806108, -9003.461480553327, 350.45300131475943, 535.9948320382633, -4339.099447619849, -1444.414430190853, -2149.3884503112376, -3983.907876480565, -3362.9764155121347, -2404.3100958240148, -2793.2304493463575, -1814.2240422039083, -7795.282637510614, -14675.887188421153, 0.008, -0.106, 0.984, 192.0, 0.0, 0.0, 0.0, 0.0, 0.0, 0.0, 0.0, 0.0, 0.0, 1.645923062832826E9, 0.0, 2022-02-27 11:51:02.832
146.0, -362.85821948745485, -2793.699835979919, -2254.8439806513766, -9269.111963404652, 63.121326341787146, 278.99447429114275, -4558.99590957116, -1719.7655701357808, -2371.207162285705, -4164.465268190535, -3497.31039968853, -2531.1115421189716, -2926.826825955728, -1947.485142646449, -7924.18514778437, -14890.061603791906, 0.01, -0.1, 0.986, 192.0, 0.0, 40.0, 126.0, 112.0, 15.0, 104.0, 0.0, 0.0, 0.0, 1.645923062839377E9, 0.0, 2022-02-27 11:51:02.839
148.0, -121.66054507023634, -2560.3476238665135, -2026.9902976739763, -9032.518748345226, 306.48711997117044, 510.64795382594514, -4312.344409506847, -1477.1597358178778, -2246.0820968248963, -4150.294262205871, -3543.1985310552755, -2600.558412141611, -2980.1133847371802, -2001.2634398059179, -7962.451334291856, -14808.567143507857, 0.01, -0.1, 0.986, 192.0, 0.0, 0.0, 0.0, 0.0, 0.0, 0.0, 0.0, 0.0, 0.0, 1.645923062847228E9, 0.0, 2022-02-27 11:51:02.847
150.0, -220.83523521843378, -2659.4999622702558, -2123.70629593209, -9137.661354262991, 199.4222640302496, 399.3809699274266, -4444.622033193354, -1584.895144092458, -2249.2336927930946, -4020.095350753707, -3364.138706223811, -2387.6803979492665, -2785.228524831358, -1807.719684567414, -7792.77924213162, -14752.307802713849, 0.01, -0.1, 0.986, 192.0, 0.0, 0.0, 0.0, 0.0, 0.0, 0.0, 0.0, 0.0, 0.0, 1.645923062855408E9, 0.0, 2022-02-27 11:51:02.855
152.0, -310.8680618844106, -2739.385096953523, -2207.413578917215, -9215.333666245184, 99.42055933720582, 354.0739839165192, -4516.75111255063, -1643.4120110764518, -2375.498697221124, -4255.07924021235, -3602.7435782842135, -2654.604930234543, -3045.179312846579, -2054.7288125430123, -8031.920556058951, -14923.969200130607, 0.01, -0.1, 0.986, 192.0, 0.0, 0.0, 0.0, 0.0, 0.0, 0.0, 0.0, 0.0, 0.0, 1.645923062862005E9, 0.0, 2022-02-27 11:51:02.862
154.0, -86.27773359748527, -2530.6421554854105, -1987.8523931327336, -9005.473137554305, 348.84367571397735, 535.3913349379701, -4324.5708137239, -1484.088776599023, -2147.935586921643, -3987.506507337869, -3357.1873136982103, -2402.5443080120453, -2790.995274900827, -1799.5165943523164, -7799.395358490391, -14682.458601291013, 0.01, -0.10300000000000001, 0.988, 192.0, 0.0, 40.0, 126.0, 88.0, 15.0, 120.0, 0.0, 0.0, 0.0, 1.645923062868981E9, 0.0, 2022-02-27 11:51:02.868
156.0, -375.17403068232903, -2812.1400251555474, -2261.25893131005, -9283.148858922585, 47.87743662326773, 254.04992747902008, -4582.778165671607, -1743.7266401918698, -2377.7785751555652, -4149.690765105577, -3497.6233241109044, -2540.879254445941, -2933.2641283588564, -1946.0546310013094, -7933.192900799859, -14904.90316211023, 0.01, -0.10300000000000001, 0.988, 192.0, 0.0, 0.0, 0.0, 0.0, 0.0, 0.0, 0.0, 0.0, 0.0, 1.645923062877261E9, 0.0, 2022-02-27 11:51:02.877
158.0, -141.24067321308533, -2577.6031705860105, -2040.2448821359733, -9037.413780380939, 278.63684637985784, 498.8015292646324, -4364.178104898704, -1488.6038289789951, -2257.2579690525495, -4185.364149256247, -3551.6027869704712, -2623.1560257859264, -2997.883021579149, -2023.391666816672, -7985.473631080822, -14825.308600104881, 0.01, -0.10300000000000001, 0.988, 192.0, 0.0, 0.0, 0.0, 0.0, 0.0, 0.0, 0.0, 0.0, 0.0, 1.645923062885031E9, 0.0, 2022-02-27 11:51:02.885
160.0, -213.21329035917407, -2648.748773187253, -2118.1183598182633, -9124.295011078717, 198.28232506302896, 405.57240314154666, -4474.618074252377, -1604.6093827020388, -2256.4980097410694, -4021.2129379764724, -3364.451630646185, -2382.763014169099, -2796.985542414849, -1802.265858920319, -7805.273867282137, -14753.15716900315, 0.01, -0.10300000000000001, 0.988, 192.0, 0.0, 0.0, 0.0, 0.0, 0.0, 0.0, 0.0, 0.0, 0.0, 1.645923062891543E9, 0.0, 2022-02-27 11:51:02.891
162.0, -320.63577421137984, -2749.130457536037, -2217.896547066754, -9220.318105258717, 95.75487324653545, 334.5609110070361, -4496.36632160739, -1637.8911301959909, -2376.0351390880514, -4258.096725713816, -3602.0730259505544, -2649.2181598208144, -3053.1588856171234, -2057.3663183887384, -8037.35202996159, -14928.461900766124, 0.01, -0.10300000000000001, 0.988, 192.0, 0.0, 0.0, 0.0, 0.0, 0.0, 0.0, 0.0, 0.0, 0.0, 1.64592306289961E9, 0.0, 2022-02-27 11:51:02.899
164.0, -77.58290500437082, -2523.0872658595167, -1990.2663815339067, -8997.940599672866, 333.242158084173, 546.008413554241, -4318.75936016552, -1452.997500061691, -2147.577959010358, -3992.133318440118, -3362.864656789858, -2403.2819155790708, -2804.4957285518326, -1813.687600336981, -7806.279695782626, -14684.269092591894, 0.01, -0.1005, 0.989, 192.0, 0.0, 40.0, 126.0, 120.0, 15.0, 120.0, 0.0, 0.0, 0.0, 1.645923062907665E9, 0.0, 2022-02-27 11:51:02.907
166.0, -352.3976030823712, -2787.0166643877824, -2248.607843948346, -9259.679527244512, 55.991119860544195, 283.73304411566784, -4577.167877813325, -1710.266078742275, -2356.7455836231215, -4156.351584953259, -3477.64086456786, -2514.4371407553126, -2923.1164363761472, -1922.0935609452201, -7925.414493729412, -14885.971234556584, 0.01, -0.1005, 0.989, 192.0, 0.0, 0.0, 0.0, 0.0, 0.0, 0.0, 0.0, 0.0, 0.0, 1.645923062914691E9, 0.0, 2022-02-27 11:51:02.914
168.0, -116.36318163432857, -2552.5692167960665, -2025.8950621956662, -9026.9308122314, 302.68732341376824, 510.782064292677, -4321.28510728897, -1486.7486341892045, -2240.449457222159, -4168.577989170312, -3537.2306152857086, -2600.267839463692, -2987.668274363074, -1991.8980588791442, -7975.549456542666, -14817.641951756712, 0.01, -0.1005, 0.989, 192.0, 0.0, 0.0, 0.0, 0.0, 0.0, 0.0, 0.0, 0.0, 0.0, 1.645923062922185E9, 0.0, 2022-02-27 11:51:02.922
170.0, -210.66519149126907, -2648.0558691091383, -2119.0347813409307, -9125.434950045938, 203.1550053542859, 412.41203694487064, -4446.5666349609655, -1593.2994000076533, -2237.476675209603, -4001.9457342559976, -3351.3311566509196, -2368.949636095719, -2788.8495074331177, -1783.4456900889506, -7792.712186898254, -14753.313631214338, 0.01, -0.1005, 0.989, 192.0, 0.0, 0.0, 0.0, 0.0, 0.0, 0.0, 0.0, 0.0, 0.0, 1.645923062937254E9, 0.0, 2022-02-27 11:51:02.937
172.0, -312.1644630628184, -2742.7155068773636, -2216.689552866167, -9220.049884325254, 105.63434429578118, 325.46375101372615, -4509.553850836021, -1631.0961998815776, -2375.2528280321158, -4243.568091817867, -3596.66390379237, -2643.227892306792, -3052.4883332834643, -2042.2341873924956, -8032.479349670333, -14929.959467644629, 0.01, -0.1005, 0.989, 192.0, 0.0, 0.0, 0.0, 0.0, 0.0, 0.0, 0.0, 0.0, 0.0, 1.645923062944351E9, 0.0, 2022-02-27 11:51:02.944
174.0, -69.51392525600497, -2513.274850043637, -1991.9204106235995, -8997.292399083663, 346.5861495239913, 539.8840355734868, -4304.610705925311, -1459.4571542092747, -2142.682926974646, -3986.6571410485676, -3354.9521392526794, -2389.826165416976, -2803.8475279626286, -1802.1317484535873, -7802.479899225224, -14687.33128158227, 0.009000000000000001, -0.09925, 0.9895, 192.0, 0.0, 32.0, 126.0, 120.0, 15.0, 120.0, 0.0, 0.0, 0.0, 1.645923062951788E9, 0.0, 2022-02-27 11:51:02.951
176.0, -337.8913209308769, -2774.4996874928106, -2248.563140459435, -9255.20917835345, 60.550875729426835, 294.48423319867055, -4571.445831232766, -1702.0853402716327, -2351.7164411206772, -4142.9181865356195, -3473.952826732734, -2498.2544777696703, -2921.373000308633, -1914.6951335305137, -7916.384388969468, -14888.631092146767, 0.009000000000000001, -0.09925, 0.9895, 192.0, 0.0, 0.0, 0.0, 0.0, 0.0, 0.0, 0.0, 0.0, 0.0, 1.645923062959995E9, 0.0, 2022-02-27 11:51:02.959
178.0, -117.19019617917493, -2561.3087488780916, -2033.2487861214622, -9031.35645763355, 294.8865645988661, 510.1115119590178, -4336.149017351749, -1480.7136631862716, -2240.2259397776056, -4168.9803205705075, -3532.1344175498984, -2590.813051559097, -2989.5234691528644, -1995.876669392189, -7977.270540865725, -14819.966533180062, 0.009000000000000001, -0.09925, 0.9895, 192.0, 0.0, 0.0, 0.0, 0.0, 0.0, 0.0, 0.0, 0.0, 0.0, 1.64592306296793E9, 0.0, 2022-02-27 11:51:02.967
180.0, -220.36584858487234, -2662.070412882616, -2126.544967477914, -9128.921822180966, 194.54958373899268, 408.5451851541025, -4435.748390644597, -1557.8495333015364, -2228.9383088276754, -3997.5647923427578, -3347.7325257936154, -2373.1294123088614, -2789.8776876780616, -1798.3766553850955, -7790.722881641732, -14750.67612536861, 0.009000000000000001, -0.09925, 0.9895, 192.0, 0.0, 0.0, 0.0, 0.0, 0.0, 0.0, 0.0, 0.0, 0.0, 1.645923062974527E9, 0.0, 2022-02-27 11:51:02.974
182.0, -326.44722776975965, -2755.5007047057993, -2229.2288815055945, -9221.100416314652, 72.30789331291835, 325.888434158377, -4528.709295834219, -1634.6501272499713, -2394.8776596638754, -4253.64872856721, -3610.074950465554, -2650.156933087937, -3071.46496432602, -2066.865809782244, -8037.799064850697, -14926.33848504287, 0.009000000000000001, -0.09925, 0.9895, 192.0, 0.0, 0.0, 0.0, 0.0, 0.0, 0.0, 0.0, 0.0, 0.0, 1.645923062982515E9, 0.0, 2022-02-27 11:51:02.982
184.0, -86.43419580867241, -2528.5410915066113, -2005.3761607856943, -9004.780233476191, 320.0099253666312, 527.4117621674254, -4339.635889486777, -1463.4581164667745, -2155.9375114366426, -3998.2129929319613, -3369.4360696597187, -2393.9612381412076, -2819.113769425603, -1813.1958619589643, -7816.852070909986, -14688.270054849394, 0.0105, -0.100625, 0.98775, 192.0, 0.0, 48.0, 126.0, 104.0, 15.0, 104.0, 0.0, 0.0, 0.0, 1.645923062989586E9, 0.0, 2022-02-27 11:51:02.989
186.0, -347.2343501131952, -2786.12259460957, -2250.3959835047704, -9256.483227787403, 65.4906112540497, 283.71069237121253, -4563.443906717766, -1691.8929448000129, -2365.1274877938617, -4161.090154777784, -3480.8148122805137, -2502.4342539828126, -2929.0396486568034, -1930.743686049424, -7923.246374517247, -14886.910007823708, 0.0105, -0.100625, 0.98775, 192.0, 0.0, 0.0, 0.0, 0.0, 0.0, 0.0, 0.0, 0.0, 0.0, 1.645923062998198E9, 0.0, 2022-02-27 11:51:02.998
188.0, -124.0521817269542, -2563.007481456695, -2039.7531437579567, -9034.508053601749, 299.20045127874033, 518.0687329851071, -4341.960470910129, -1470.9459508593025, -2263.3152917999378, -4174.68001540661, -3545.0313741006107, -2598.971438285284, -2997.7042076235066, -2005.5326229968814, -7980.3997850894675, -14826.292076860915, 0.0105, -0.100625, 0.98775, 192.0, 0.0, 0.0, 0.0, 0.0, 0.0, 0.0, 0.0, 0.0, 0.0, 1.645923063004376E9, 0.0, 2022-02-27 11:51:03.004
190.0, -214.8449677044115, -2661.2881018266803, -2123.214557554073, -9129.815891959179, 214.8449677044115, 403.40428392938185, -4454.16622807577, -1581.9447138243574, -2229.4523989501477, -4003.443301134503, -3340.870540245836, -2362.8699616038757, -2781.8757631630615, -1784.8762017340903, -7785.269055994637, -14744.194119476571, 0.0105, -0.100625, 0.98775, 192.0, 0.0, 0.0, 0.0, 0.0, 0.0, 0.0, 0.0, 0.0, 0.0, 1.645923063012265E9, 0.0, 2022-02-27 11:51:03.012
192.0, -319.7193526887122, -2750.4939139478106, -2222.0986750243515, -9216.942991845965, 97.8112337364237, 322.06628585651947, -4527.345839422445, -1645.311909355153, -2383.9253048807745, -4261.114211215283, -3601.4471771058056, -2644.0325551071833, -3051.7730774608945, -2056.002861976965, -8035.16155900497, -14936.754397959043, 0.0105, -0.100625, 0.98775, 192.0, 0.0, 0.0, 0.0, 0.0, 0.0, 0.0, 0.0, 0.0, 0.0, 1.64592306302018E9, 0.0, 2022-02-27 11:51:03.020
194.0, -85.49542254154952, -2526.1494548498936, -2003.5433177403593, -8997.672378739402, 329.7999894380557, 530.3845441799813, -4326.9400986361625, -1459.054822809079, -2156.965691681587, -3990.2334201614167, -3372.4312034167297, -2401.493776022646, -2814.151682156525, -1817.5991556166598, -7815.466262753757, -14691.175781628584, 0.00825, -0.1013125, 0.986875, 192.0, 0.0, 24.0, 126.0, 104.0, 15.0, 104.0, 0.0, 0.0, 0.0, 1.645923063026698E9, 0.0, 2022-02-27 11:51:03.026
196.0, -355.59390253948004, -2792.8951731795282, -2255.44747775167, -9263.904006946565, 53.86770413729002, 268.9138375417993, -4576.720842924219, -1704.4546251838954, -2365.529819194057, -4153.647023874167, -3481.4630128697177, -2507.4410447408018, -2923.250546842879, -1921.3783051226503, -7920.18418552687, -14884.026632788973, 0.00825, -0.1013125, 0.986875, 192.0, 0.0, 0.0, 0.0, 0.0, 0.0, 0.0, 0.0, 0.0, 0.0, 1.645923063034956E9, 0.0, 2022-02-27 11:51:03.034
198.0, -129.37189690731728, -2567.4778303477565, -2041.2507106364621, -9034.709219301847, 282.81662259300026, 513.3972183939479, -4348.956566924639, -1448.4600959372635, -2261.4824487546025, -4180.312655009348, -3550.3287375365185, -2603.5982493875326, -3003.2921437373334, -2006.3596375417278, -7986.0324246922055, -14821.777024480944, 0.00825, -0.1013125, 0.986875, 192.0, 0.0, 0.0, 0.0, 0.0, 0.0, 0.0, 0.0, 0.0, 0.0, 1.645923063042867E9, 0.0, 2022-02-27 11:51:03.042
200.0, -203.11030186537528, -2646.3794882749903, -2113.6033074382913, -9120.338752310128, 217.25895610558464, 423.8561301059878, -4433.2449952656025, -1552.5968733545392, -2232.8498641073543, -3989.9204957390425, -3344.9162059922464, -2369.1731535402723, -2782.0992806076147, -1778.6400650310595, -7788.800631618576, -14734.694628083067, 0.00825, -0.1013125, 0.986875, 192.0, 0.0, 0.0, 0.0, 0.0, 0.0, 0.0, 0.0, 0.0, 0.0, 1.645923063049882E9, 0.0, 2022-02-27 11:51:03.049
202.0, -327.83303592598867, -2756.484181461833, -2229.8547303503433, -9220.653381425545, 90.21164062161931, 326.5366347475809, -4522.383752153368, -1630.9173859259352, -2381.37720601287, -4250.251263410004, -3598.4520433487946, -2643.540816729166, -3047.1909698475565, -2037.160341401141, -8026.176157733937, -14920.750548929043, 0.00825, -0.1013125, 0.986875, 192.0, 0.0, 0.0, 0.0, 0.0, 0.0, 0.0, 0.0, 0.0, 0.0, 1.645923063064571E9, 0.0, 2022-02-27 11:51:03.064
204.0, -77.64996023773674, -2520.852091413986, -1992.0768728347866, -8988.195239090353, 347.5249227911142, 546.8577798435426, -4322.42504625619, -1445.6214243914396, -2149.611967755791, -3988.065300949252, -3368.318482436953, -2398.3198283099923, -2806.3062198527123, -1807.5632223562268, -7811.2864865406145, -14681.273958834883, 0.011125, -0.10165625, 0.9854375, 192.0, 0.0, 56.0, 126.0, 104.0, 15.0, 96.0, 0.0, 0.0, 0.0, 1.645923063072509E9, 0.0, 2022-02-27 11:51:03.072
206.0, -353.8057629830555, -2794.012760402293, -2254.1287248288068, -9258.539588277292, 73.4254805356837, 289.74566337414547, -4556.358403725434, -1681.499383628295, -2367.4520692172136, -4148.930805794097, -3478.7137483017145, -2500.8025766375754, -2914.6898287164963, -1915.8127207532789, -7911.7799296116755, -14881.389126943246, 0.011125, -0.10165625, 0.9854375, 192.0, 0.0, 0.0, 0.0, 0.0, 0.0, 0.0, 0.0, 0.0, 0.0, 1.645923063079638E9, 0.0, 2022-02-27 11:51:03.079
208.0, -132.8587690423452, -2577.781984541653, -2046.5927775612806, -9041.012411238244, 287.24226799515105, 494.59940130703467, -4349.582415769389, -1458.9654158312578, -2261.3930417767815, -4180.625579431722, -3555.402583527873, -2611.5107669247113, -3003.470957692976, -2016.6414399911691, -7985.764203758741, -14825.532117549434, 0.011125, -0.10165625, 0.9854375, 192.0, 0.0, 0.0, 0.0, 0.0, 0.0, 0.0, 0.0, 0.0, 0.0, 1.64592306308706E9, 0.0, 2022-02-27 11:51:03.087
210.0, -196.65064771779154, -2643.6749271958984, -2108.6635719136684, -9109.922839393956, 223.20452013069632, 436.0825343230408, -4448.779457662041, -1568.377204939986, -2235.3309077418935, -4001.878679022632, -3340.445857101185, -2360.7688976250765, -2781.0487486182155, -1796.074425706199, -7791.8628206089525, -14745.512872399435, 0.011125, -0.10165625, 0.9854375, 192.0, 0.0, 0.0, 0.0, 0.0, 0.0, 0.0, 0.0, 0.0, 0.0, 1.645923063095119E9, 0.0, 2022-02-27 11:51:03.095
212.0, -335.1644081073294, -2765.2013617994025, -2230.0782477948965, -9225.257840783339, 89.13875688776457, 336.6172714969244, -4535.638336615364, -1635.27597609472, -2383.5229734805794, -4229.955879444585, -3595.032226447133, -2639.9868893607727, -3049.917882671104, -2043.7764577599119, -8032.2334804813245, -14928.037217621473, 0.011125, -0.10165625, 0.9854375, 192.0, 0.0, 0.0, 0.0, 0.0, 0.0, 0.0, 0.0, 0.0, 0.0, 1.645923063103053E9, 0.0, 2022-02-27 11:51:03.103
214.0, -80.26511433900767, -2525.1436263494047, -1985.103128564731, -8987.323521056596, 353.4704868162259, 544.8908263314755, -4306.443548970646, -1426.5330346266073, -2157.435078315148, -3986.7241962819335, -3375.582799384928, -2407.5510987700345, -2815.3363246126564, -1817.4203416610173, -7816.427387765335, -14681.788048957354, 0.0125625, -0.104828125, 0.98671875, 192.0, 0.0, 56.0, 126.0, 80.0, 15.0, 112.0, 0.0, 0.0, 0.0, 1.645923063109676E9, 0.0, 2022-02-27 11:51:03.109
216.0, -354.1857426387957, -2791.6881789789413, -2247.959643359142, -9252.705782974457, 74.0736811248876, 291.53380293057, -4555.2184647582135, -1671.66461606796, -2365.5521709385125, -4145.332174936792, -3473.550495332539, -2492.8900591003967, -2909.906555403061, -1909.6436392836142, -7903.733301607765, -14870.839103560342, 0.0125625, -0.104828125, 0.98671875, 192.0, 0.0, 0.0, 0.0, 0.0, 0.0, 0.0, 0.0, 0.0, 0.0, 1.645923063116907E9, 0.0, 2022-02-27 11:51:03.116
218.0, -126.48852187258267, -2563.9015512349074, -2039.5743298023142, -9036.74322804728, 293.54545993154767, 516.2358899397719, -4339.702944720143, -1451.701098883283, -2259.7837161759994, -4180.804393387365, -3553.726202693725, -2607.398045944935, -3001.079321036258, -2005.77849218589, -7986.144183414482, -14822.469928559058, 0.0125625, -0.104828125, 0.98671875, 192.0, 0.0, 0.0, 0.0, 0.0, 0.0, 0.0, 0.0, 0.0, 0.0, 1.645923063124804E9, 0.0, 2022-02-27 11:51:03.124
220.0, -202.12682510934178, -2642.4008777619456, -2106.875432357244, -9117.433025530938, 225.0150114315762, 428.25942376368334, -4427.2547277515805, -1561.0234810141899, -2234.34743098586, -3981.1586119125623, -3340.6917262901934, -2362.6687959037777, -2776.5336962382435, -1785.367940112107, -7785.805497861565, -14740.260212452438, 0.0125625, -0.104828125, 0.98671875, 192.0, 0.0, 0.0, 0.0, 0.0, 0.0, 0.0, 0.0, 0.0, 0.0, 1.645923063131867E9, 0.0, 2022-02-27 11:51:03.131
222.0, -341.4005448103601, -2775.1702398264697, -2234.1686170302173, -9232.656268198047, 88.06587315390982, 323.8767771573993, -4519.567432351999, -1632.9066911824575, -2388.909743894308, -4261.538894359934, -3597.468566592761, -2648.324090042602, -3051.013118149414, -2051.577216574814, -8025.103274000082, -14933.960429902128, 0.0125625, -0.104828125, 0.98671875, 192.0, 0.0, 0.0, 0.0, 0.0, 0.0, 0.0, 0.0, 0.0, 0.0, 1.645923063139378E9, 0.0, 2022-02-27 11:51:03.139
224.0, -80.6897974836585, -2527.915242661863, -1995.876669392189, -8996.711253727824, 342.4063733108489, 546.4554484433471, -4314.736046163564, -1434.154979485867, -2161.3913370837377, -4001.6551615780786, -3380.678997120738, -2413.0272761615847, -2822.4888828383546, -1824.5952516311709, -7816.405036020879, -14689.767621727899, 0.012, -0.10400000000000001, 0.986, 192.0, 0.0, 48.0, 126.0, 96.0, 15.0, 104.0, 0.0, 0.0, 0.0, 1.64592306314748E9, 0.0, 2022-02-27 11:51:03.147
226.0, -344.9321204342986, -2781.316969551679, -2252.854675394854, -9256.147951620575, 64.48478275356088, 288.9186488292991, -4568.964787598227, -1684.405110407485, -2370.044871574029, -4135.899738776653, -3478.0655477125106, -2495.1252335459276, -2919.4283985410216, -1913.9351742190331, -7910.461176688812, -14883.087859521851, 0.012, -0.10400000000000001, 0.986, 192.0, 0.0, 0.0, 0.0, 0.0, 0.0, 0.0, 0.0, 0.0, 0.0, 1.645923063155389E9, 0.0, 2022-02-27 11:51:03.155
228.0, -134.04341149847644, -2572.909304250396, -2051.5325130859032, -9048.79081830869, 277.98864579065395, 500.6343723099676, -4353.404564071246, -1462.2958257550986, -2265.6398732232897, -4176.11052705175, -3562.175162097831, -2611.4660634358006, -3015.3620857431993, -2013.4004370451496, -7992.939113728895, -14832.751731008499, 0.012, -0.10400000000000001, 0.986, 192.0, 0.0, 0.0, 0.0, 0.0, 0.0, 0.0, 0.0, 0.0, 0.0, 1.645923063161974E9, 0.0, 2022-02-27 11:51:03.161
230.0, -181.6526271882805, -2629.816845633608, -2102.8297666108333, -9110.235763816328, 223.71861025316838, 429.24290051971684, -4455.797905421007, -1565.6055886275278, -2222.836282591377, -3992.7815190293218, -3339.5964908118835, -2365.082784304951, -2773.4268037589554, -1778.751823753336, -7789.359425229958, -14739.544956629868, 0.012, -0.10400000000000001, 0.986, 192.0, 0.0, 0.0, 0.0, 0.0, 0.0, 0.0, 0.0, 0.0, 0.0, 1.64592306317011E9, 0.0, 2022-02-27 11:51:03.170
232.0, -316.52305323160334, -2748.1469807800036, -2230.212358261628, -9229.21409955193, 75.0348061364658, 320.2781463000949, -4557.408935714833, -1655.9960432047897, -2373.665854175789, -4238.583652804334, -3592.9088107238786, -2634.2871945246693, -3044.039373879358, -2037.1826931455962, -8035.0498002826935, -14932.23934557907, 0.012, -0.10400000000000001, 0.986, 192.0, 0.0, 0.0, 0.0, 0.0, 0.0, 0.0, 0.0, 0.0, 0.0, 1.645923063184994E9, 0.0, 2022-02-27 11:51:03.184
234.0, -56.84048614984586, -2501.718998160243, -1982.3985674856388, -8984.462497766317, 353.1575623938516, 548.6012159110566, -4325.733104435576, -1439.8546743219704, -2137.3632117942825, -3959.3433093241824, -3370.9112847937686, -2398.699807965733, -2814.777531001274, -1816.3698096716178, -7820.07072211155, -14695.57907528628, 0.008, -0.1, 0.986, 192.0, 0.0, 32.0, 126.0, 112.0, 15.0, 104.0, 0.0, 0.0, 0.0, 1.645923063191749E9, 0.0, 2022-02-27 11:51:03.191
236.0, -334.67266972931264, -2768.8446961456175, -2244.3610125018376, -9250.604718995657, 72.82198343539041, 296.7864628775672, -4545.249586731146, -1658.9017699839796, -2356.0303278005517, -4130.222395685005, -3472.388204620863, -2486.3186462305366, -2911.1359013481024, -1902.558136291282, -7902.816880085097, -14874.549493139923, 0.008, -0.1, 0.986, 192.0, 0.0, 0.0, 0.0, 0.0, 0.0, 0.0, 0.0, 0.0, 0.0, 1.645923063199744E9, 0.0, 2022-02-27 11:51:03.199
238.0, -133.9093010317446, -2565.779097769153, -2054.102963698264, -9049.729591575813, 275.90993355631036, 499.4720815982916, -4340.328793564891, -1454.092735540001, -2261.4600970101474, -4180.938503854097, -3564.857371432468, -2610.683752379865, -3012.3446002417327, -2005.6890852080687, -7988.312302626647, -14831.36592285227, 0.008, -0.1, 0.986, 192.0, 0.0, 0.0, 0.0, 0.0, 0.0, 0.0, 0.0, 0.0, 0.0, 1.645923063207794E9, 0.0, 2022-02-27 11:51:03.207
240.0, -175.12591780733084, -2614.595307659544, -2096.057188040875, -9105.027807358243, 231.11703766787502, 429.57817668654644, -4419.431617192223, -1546.4501436293297, -2225.742009370567, -3983.1479171690844, -3347.777229282526, -2359.338385979937, -2778.12067009457, -1779.265913875808, -7782.855067593464, -14739.746122329965, 0.008, -0.1, 0.986, 192.0, 0.0, 0.0, 0.0, 0.0, 0.0, 0.0, 0.0, 0.0, 0.0, 1.645923063215023E9, 0.0, 2022-02-27 11:51:03.215
242.0, -328.4141812818267, -2758.4511349739, -2238.370744987815, -9241.686372957989, 72.4867072685608, 308.18585254977376, -4544.511979164121, -1655.593711804594, -2368.949636095719, -4238.985984204529, -3592.171203156853, -2632.677868923887, -3039.859597666216, -2038.1214664127192, -8018.665971596954, -14931.09940661185, 0.008, -0.1, 0.986, 192.0, 0.0, 0.0, 0.0, 0.0, 0.0, 0.0, 0.0, 0.0, 0.0, 1.645923063223129E9, 0.0, 2022-02-27 11:51:03.223
244.0, -58.89684663973411, -2498.4556434697683, -1982.6891401635578, -8989.11166061302, 347.72608849121195, 548.7576781222436, -4313.2608310295145, -1423.0461624915795, -2139.6654414731793, -3990.725158539434, -3379.2708372200536, -2412.759055228121, -2818.1973479029357, -1818.5379288837826, -7815.8685941539525, -14687.018357159897, 0.012, -0.1, 0.99, 192.0, 0.0, 48.0, 126.0, 112.0, 15.0, 120.0, 0.0, 0.0, 0.0, 1.645923063229557E9, 0.0, 2022-02-27 11:51:03.229
246.0, -336.01377439663105, -2767.861219389584, -2245.568006702424, -9251.767009707333, 60.84144840734582, 289.8350703519667, -4566.126116052404, -1682.9745987623453, -2352.1634760097836, -4131.161168952128, -3474.9810069776786, -2488.978503820718, -2912.76757869334, -1916.5279765758487, -7906.236696986759, -14878.438696675146, 0.012, -0.1, 0.99, 192.0, 0.0, 0.0, 0.0, 0.0, 0.0, 0.0, 0.0, 0.0, 0.0, 1.645923063236695E9, 0.0, 2022-02-27 11:51:03.236
248.0, -138.37964992280604, -2572.0152344721837, -2052.9853764754985, -9053.015298010743, 270.9701980316875, 500.72377928778883, -4358.299596106958, -1458.250160008688, -2260.0295853650077, -4178.613922430744, -3572.8145924585574, -2620.786740873664, -3017.97723984447, -2021.581175515792, -7997.588276575599, -14834.897498476208, 0.012, -0.1, 0.99, 192.0, 0.0, 0.0, 0.0, 0.0, 0.0, 0.0, 0.0, 0.0, 0.0, 1.645923063244895E9, 0.0, 2022-02-27 11:51:03.244
250.0, -186.27943829052907, -2629.101589811038, -2098.6052869087803, -9108.492327748816, 222.71278175267958, 432.03686857663024, -4435.837797622418, -1542.9185680053913, -2207.346523683849, -3986.0536439482744, -3341.8540170018696, -2354.7786301110546, -2771.862181647084, -1778.0812714196768, -7780.374023958925, -14725.888040767675, 0.012, -0.1, 0.99, 192.0, 0.0, 0.0, 0.0, 0.0, 0.0, 0.0, 0.0, 0.0, 0.0, 1.645923063252636E9, 0.0, 2022-02-27 11:51:03.252
252.0, -350.81062922604434, -2780.7134724513858, -2243.6234049348122, -9248.011916638841, 60.752041429524596, 301.1897565352627, -4554.905540335839, -1650.1398861574992, -2382.5618484690012, -4265.875132784264, -3610.4549301212946, -2645.865398152518, -3052.3765745611877, -2050.1020014407636, -8032.546404903699, -14941.33650557238, 0.012, -0.1, 0.99, 192.0, 0.0, 0.0, 0.0, 0.0, 0.0, 0.0, 0.0, 0.0, 0.0, 1.645923063259262E9, 0.0, 2022-02-27 11:51:03.259
254.0, -82.41088180671714, -2526.9317659058293, -1983.650265175136, -8990.54217225816, 345.37915532340475, 544.9131780759309, -4315.384246752768, -1424.9013572813699, -2141.7888571964336, -4006.4607866359697, -3394.581782171939, -2428.1370554133723, -2823.22649040538, -1830.8090365897463, -7831.000725150196, -14698.753022998933, 0.01, -0.106, 0.986, 192.0, 0.0, 40.0, 126.0, 88.0, 15.0, 104.0, 0.0, 0.0, 0.0, 1.645923063267438E9, 0.0, 2022-02-27 11:51:03.267
0.0, -358.38787059639344, -2796.247934847824, -2230.8158553619214, -9244.346230548172, 83.48376554057188, 299.22280302319564, -4548.490589677166, -1659.3488048730858, -2347.916644563275, -4139.408962656136, -3471.2706173980973, -2488.687931142799, -2897.277819785812, -1901.261735112874, -7895.507859648212, -14870.347365182324, 0.01, -0.106, 0.986, 192.0, 0.0, 0.0, 0.0, 0.0, 0.0, 0.0, 0.0, 0.0, 0.0, 1.645923063275434E9, 0.0, 2022-02-27 11:51:03.275
2.0, -177.8751823753336, -2617.6351449054655, -2055.8240480213226, -9056.435114912405, 266.857477051911, 490.2855146271604, -4378.952607983662, -1462.899322855392, -2261.549503987969, -4191.73439642601, -3571.7193569802475, -2619.75856062872, -3005.6167251606853, -2009.8465096767557, -7988.513468326744, -14832.282344374937, 0.01, -0.106, 0.986, 192.0, 0.0, 0.0, 0.0, 0.0, 0.0, 0.0, 0.0, 0.0, 0.0, 1.645923063281936E9, 0.0, 2022-02-27 11:51:03.281
4.0, -247.07618320896427, -2694.3686836205347, -2105.6907899011126, -9115.689589463424, 225.57380504295887, 419.3187259815605, -4424.527814928033, -1548.9982424972347, -2233.989803074575, -4012.2722401943497, -3367.2008952141878, -2381.9359996242524, -2781.1828590849473, -1792.654608804537, -7786.5878089175, -14743.165939231629, 0.01, -0.106, 0.986, 192.0, 0.0, 0.0, 0.0, 0.0, 0.0, 0.0, 0.0, 0.0, 0.0, 1.645923063289965E9, 0.0, 2022-02-27 11:51:03.289
6.0, -409.59571714350193, -2837.1069237121255, -2243.5339979569912, -9239.406495023548, 69.78214618946865, 306.7106374157235, -4540.443961673255, -1640.886263953002, -2397.470462020691, -4266.121001973272, -3614.7688168011687, -2648.5029039982446, -3043.8382081792606, -2043.7988095043672, -8015.670837839943, -14930.294743811459, 0.01, -0.106, 0.986, 192.0, 0.0, 0.0, 0.0, 0.0, 0.0, 0.0, 0.0, 0.0, 0.0, 1.64592306329936E9, 0.0, 2022-02-27 11:51:03.299
8.0, -173.8071648844677, -2620.876147851485, -2002.6715997066021, -8996.867715939012, 345.04387915657514, 539.5711111511125, -4316.121854319794, -1429.9081480393588, -2176.612875057802, -4032.813493348777, -3420.6662679512824, -2449.371212645914, -2839.856188280128, -1842.2307780064082, -7827.156225103882, -14695.57907528628, 0.01, -0.10400000000000001, 0.988, 192.0, 0.0, 40.0, 126.0, 96.0, 15.0, 112.0, 0.0, 0.0, 0.0, 1.645923063311659E9, 0.0, 2022-02-27 11:51:03.311
10.0, -464.558656759102, -2904.3633227781443, -2254.8663323958317, -9254.560977764248, 69.15629734472004, 289.99153256315384, -4559.957034582739, -1678.3924911490074, -2390.7202351951883, -4174.523553195423, -3505.0664550145216, -2519.9803733802287, -2911.515881003843, -1914.941002719522, -7895.41845267039, -14873.342498939337, 0.01, -0.10400000000000001, 0.988, 192.0, 0.0, 0.0, 0.0, 0.0, 0.0, 0.0, 0.0, 0.0, 0.0, 1.645923063319841E9, 0.0, 2022-02-27 11:51:03.319
12.0, -301.1897565352627, -2737.5969573970983, -2069.860943539255, -9063.721783604835, 264.8234683064781, 485.59164829154594, -4379.086718450394, -1478.9478753743024, -2316.624202325845, -4242.472856339557, -3615.305258668096, -2665.780802462197, -3027.566138215797, -2036.8027134898562, -7996.984779475306, -14838.540832822424, 0.01, -0.10400000000000001, 0.988, 192.0, 0.0, 0.0, 0.0, 0.0, 0.0, 0.0, 0.0, 0.0, 0.0, 1.645923063327572E9, 0.0, 2022-02-27 11:51:03.327
14.0, -369.0049492126643, -2814.218737389891, -2104.4390922116154, -9110.347522538606, 242.4270203622604, 431.1875022873285, -4420.616259648355, -1563.3033589486313, -2270.467850025636, -4043.4305719650474, -3392.0783867929445, -2405.204165602227, -2773.7844316702403, -1791.5817250706823, -7774.137887255894, -14735.856918794743, 0.01, -0.10400000000000001, 0.988, 192.0, 0.0, 0.0, 0.0, 0.0, 0.0, 0.0, 0.0, 0.0, 0.0, 1.645923063334772E9, 0.0, 2022-02-27 11:51:03.334
16.0, -556.3125677481374, -2988.0035505299034, -2256.1850853186947, -9254.49392253088, 75.3030270699295, 311.0468758400531, -4544.690793119764, -1646.4742000668289, -2451.114648713428, -4314.668990930199, -3654.7113841428027, -2689.6077620515543, -3044.9557954020256, -2049.0961729402748, -8013.0333319942165, -14934.183947346683, 0.01, -0.10400000000000001, 0.988, 192.0, 0.0, 0.0, 0.0, 0.0, 0.0, 0.0, 0.0, 0.0, 0.0, 1.645923063342212E9, 0.0, 2022-02-27 11:51:03.342
18.0, -300.5862594349694, -2747.118800535059, -1996.3907595146609, -8997.135936872475, 363.2829026321057, 564.5380097076904, -4304.476595458579, -1416.8770810219146, -2220.1317215122845, -4077.226409581472, -3456.898445713335, -2492.3536172334693, -2827.6744875519857, -1841.8284466062125, -7817.008533121173, -14689.00766241642, 0.01, -0.108, 0.99, 192.0, 0.0, 40.0, 126.0, 80.0, 15.0, 120.0, 0.0, 0.0, 0.0, 1.645923063350304E9, 0.0, 2022-02-27 11:51:03.350
20.0, -574.261018545749, -3008.88007985116, -2251.893550383276, -9255.8350271982, 90.07753015488747, 308.16350080531845, -4540.3098512065235, -1634.2701475942313, -2423.8008169890427, -4203.871393665242, -3530.927423349312, -2547.0259841711504, -2894.014465095337, -1905.3521043481953, -7879.526362362667, -14855.394048141725, 0.01, -0.108, 0.99, 192.0, 0.0, 0.0, 0.0, 0.0, 0.0, 0.0, 0.0, 0.0, 0.0, 1.645923063358238E9, 0.0, 2022-02-27 11:51:03.358
22.0, -385.65699883186807, -2818.51027232531, -2076.1194319867413, -9069.041498785198, 283.44247143774885, 503.58480257806815, -4337.1548458522375, -1445.0179272911464, -2350.6435573868225, -4270.278426441959, -3645.9942038052327, -2693.5640208201435, -3018.8713096226825, -2031.1477221426635, -7985.786555503197, -14830.74007400752, 0.01, -0.108, 0.99, 192.0, 0.0, 0.0, 0.0, 0.0, 0.0, 0.0, 0.0, 0.0, 0.0, 1.64592306336445E9, 0.0, 2022-02-27 11:51:03.364
24.0, -401.81731007305507, -2844.214778448913, -2105.4225689676487, -9107.307685292684, 250.78657278854524, 458.74720320072214, -4411.273230466036, -1527.1382364199444, -2284.5270972880244, -4047.9232726005644, -3407.165814300277, -2416.5141482966123, -2763.8602571320844, -1775.6225795295932, -7762.6267388614115, -14717.662598808123, 0.01, -0.108, 0.99, 192.0, 0.0, 0.0, 0.0, 0.0, 0.0, 0.0, 0.0, 0.0, 0.0, 1.645923063371854E9, 0.0, 2022-02-27 11:51:03.371
26.0, -552.6915851463777, -2983.533201638842, -2257.5038382415582, -9258.718402232935, 86.88123069777855, 325.9331376472876, -4520.126225963381, -1614.5112054957397, -2444.0291457210956, -4313.014961840506, -3656.8124481216014, -2694.5922010650875, -3025.152149814624, -2037.8308937348002, -8000.941038243895, -14919.051816350438, 0.01, -0.108, 0.99, 192.0, 0.0, 0.0, 0.0, 0.0, 0.0, 0.0, 0.0, 0.0, 0.0, 1.645923063379871E9, 0.0, 2022-02-27 11:51:03.379
28.0, -261.18013396026305, -2705.2539831702693, -1999.4305967605826, -8989.469288524306, 362.27707413161687, 568.4495649873692, -4296.1840982656595, -1396.5816970564958, -2201.5350701254692, -4056.0146040933855, -3452.53985554455, -2486.4304049528128, -2824.411132861511, -1841.2473012503747, -7818.193175577305, -14683.062098391307, 0.014, -0.108, 0.988, 192.0, 0.0, 56.0, 126.0, 80.0, 15.0, 112.0, 0.0, 0.0, 0.0, 1.645923063387882E9, 0.0, 2022-02-27 11:51:03.387
30.0, -502.06488395510723, -2933.1970731254905, -2250.530093971502, -9242.513387502837, 95.41959707970585, 323.0944661014636, -4550.94928156725, -1678.660712082471, -2394.341217796948, -4174.501201450968, -3507.860423071435, -2521.008553625173, -2887.1077760586472, -1894.712673987469, -7882.722661819776, -14855.908138264196, 0.014, -0.108, 0.988, 192.0, 0.0, 0.0, 0.0, 0.0, 0.0, 0.0, 0.0, 0.0, 0.0, 1.645923063394398E9, 0.0, 2022-02-27 11:51:03.394
32.0, -299.58043093448055, -2729.863253815562, -2069.5256673724257, -9055.518693389737, 277.407500434816, 513.4866253717692, -4348.084848890883, -1440.4358196778082, -2322.3238971619485, -4235.655574280689, -3624.9388605283334, -2665.333767573091, -3024.3251352697775, -2013.132216111686, -7994.414328862946, -14834.629277542745, 0.014, -0.108, 0.988, 192.0, 0.0, 0.0, 0.0, 0.0, 0.0, 0.0, 0.0, 0.0, 0.0, 1.645923063402596E9, 0.0, 2022-02-27 11:51:03.402
34.0, -313.9749543636983, -2756.7300506508413, -2094.22434499554, -9095.997702598299, 253.73700305664576, 464.5363050146467, -4395.291733180491, -1513.8165967245814, -2239.2201112771168, -4019.9835920314304, -3368.2737789480425, -2382.8300694024647, -2747.185855768425, -1766.9724544253893, -7752.702564323255, -14709.325398126293, 0.014, -0.108, 0.988, 192.0, 0.0, 0.0, 0.0, 0.0, 0.0, 0.0, 0.0, 0.0, 0.0, 1.645923063410497E9, 0.0, 2022-02-27 11:51:03.410
36.0, -465.8774096819651, -2893.5003749728653, -2258.084983597396, -9251.856416685154, 74.02897763597699, 326.0225446251088, -4534.721915092697, -1630.0456678921782, -2419.196357631249, -4287.645731883733, -3626.659944851392, -2662.6962617273643, -3025.6438881926406, -2036.5121408119371, -8001.052796966172, -14925.019732120007, 0.014, -0.108, 0.988, 192.0, 0.0, 0.0, 0.0, 0.0, 0.0, 0.0, 0.0, 0.0, 0.0, 1.645923063417089E9, 0.0, 2022-02-27 11:51:03.417
38.0, -169.2921125044957, -2612.963630314306, -1994.580268213781, -8987.457631523328, 360.10895491945206, 558.9277218494084, -4291.669045885688, -1401.4096738588423, -2172.1425261667405, -4041.6871358975336, -3422.901442396813, -2459.429497650802, -2823.22649040538, -1843.9518623294668, -7818.819024422053, -14690.460525806015, 0.014, -0.11, 0.986, 192.0, 0.0, 56.0, 126.0, 72.0, 15.0, 104.0, 0.0, 0.0, 0.0, 1.645923063432192E9, 0.0, 2022-02-27 11:51:03.432
40.0, -417.84351084751023, -2849.5121418848207, -2244.897454368765, -9238.02068686732, 84.98133241907745, 318.0429718545642, -4568.405993986845, -1671.2175811788538, -2363.2499412596158, -4136.860863788231, -3474.936303488768, -2489.537297432101, -2872.2885694847787, -1899.4735955564495, -7878.65464432891, -14864.200635457115, 0.014, -0.11, 0.986, 192.0, 0.0, 0.0, 0.0, 0.0, 0.0, 0.0, 0.0, 0.0, 0.0, 1.64592306344007E9, 0.0, 2022-02-27 11:51:03.440
42.0, -243.20933141819614, -2669.714709486331, -2093.1738130061403, -9069.533237163216, 245.3327471414503, 497.72864553077767, -4417.866995080351, -1461.1782385323334, -2302.900231230287, -4221.685733996122, -3605.2916771521186, -2648.458200509334, -3025.822702148283, -2029.0019546749538, -8009.211183692359, -14850.521367850468, 0.014, -0.11, 0.986, 192.0, 0.0, 0.0, 0.0, 0.0, 0.0, 0.0, 0.0, 0.0, 0.0, 1.645923063446725E9, 0.0, 2022-02-27 11:51:03.446
44.0, -237.3978778598163, -2679.258904368747, -2098.8735078422437, -9093.315493263663, 238.5825203159476, 455.5509037436132, -4422.516157927055, -1542.0021464827237, -2226.0102303040303, -3995.486080108414, -3357.9472730096904, -2367.5414761950346, -2766.5201147222656, -1775.2202481293975, -7786.386643217403, -14723.6752180666, 0.014, -0.11, 0.986, 192.0, 0.0, 0.0, 0.0, 0.0, 0.0, 0.0, 0.0, 0.0, 0.0, 1.645923063454746E9, 0.0, 2022-02-27 11:51:03.454
46.0, -397.4363681598149, -2827.026286962782, -2253.6146347063345, -9240.613489224135, 71.14560260124237, 334.31504181802774, -4532.03970575806, -1626.6705544794268, -2391.3460840399366, -4258.923740258663, -3599.726092782747, -2639.606909705032, -3020.8382631347495, -2040.1778269026074, -8007.1101197135595, -14924.818566419908, 0.015, -0.10600000000000001, 0.986, 192.0, 0.0, 64.0, 126.0, 104.0, 15.0, 104.0, 0.0, 0.0, 0.0, 1.645923063462735E9, 0.0, 2022-02-27 11:51:03.462
48.0, -111.62461180980347, -2559.4312023438456, -1989.4617187335157, -8984.350739044039, 353.29167286058345, 580.3853965265032, -4304.878926858774, -1411.4009036303644, -2148.516732277481, -4016.9884582744194, -3398.091006051422, -2432.6968112822547, -2819.8737287370836, -1838.5427401712825, -7825.949230903296, -14686.705432737523, 0.015, -0.10600000000000001, 0.986, 192.0, 0.0, 0.0, 0.0, 0.0, 0.0, 0.0, 0.0, 0.0, 0.0, 1.645923063469909E9, 0.0, 2022-02-27 11:51:03.469
50.0, -389.1662227113513, -2827.1380456850584, -2253.3240620284155, -9256.594986509679, 78.00758814902164, 289.34333197394994, -4535.481874404178, -1653.8726274815356, -2358.913702835286, -4151.098925006262, -3470.0412714530557, -2493.9182393453407, -2884.872601613117, -1915.6786102865472, -7886.343644421536, -14873.521312894978, 0.015, -0.10600000000000001, 0.986, 192.0, 0.0, 0.0, 0.0, 0.0, 0.0, 0.0, 0.0, 0.0, 0.0, 1.645923063477497E9, 0.0, 2022-02-27 11:51:03.477
52.0, -192.20265057118544, -2625.1676827869037, -2079.0251587659313, -9071.567245908647, 257.40268914731615, 473.65581675241197, -4366.86031423334, -1463.1898955333108, -2283.476565298625, -4225.709047998077, -3588.4831653217275, -2647.09474409756, -3017.038466577347, -2049.543207829381, -8001.946866744383, -14856.578690597857, 0.015, -0.10600000000000001, 0.986, 192.0, 0.0, 0.0, 0.0, 0.0, 0.0, 0.0, 0.0, 0.0, 0.0, 1.645923063484418E9, 0.0, 2022-02-27 11:51:03.484
54.0, -198.4387872742161, -2645.105438841038, -2092.480908928026, -9094.053100830686, 264.6670060952909, 455.4167932768814, -4396.29756168098, -1521.1479689059222, -2205.6477911052457, -3982.164440413051, -3336.131970421311, -2357.7961156125207, -2750.650376158998, -1792.654608804537, -7767.67823310831, -14722.691741310568, 0.015, -0.10600000000000001, 0.986, 192.0, 0.0, 0.0, 0.0, 0.0, 0.0, 0.0, 0.0, 0.0, 0.0, 1.645923063492372E9, 0.0, 2022-02-27 11:51:03.492
56.0, -370.05548120206373, -2802.3946645730334, -2255.313367284938, -9248.458951527948, 83.57317251839311, 313.9973061081536, -4530.0951039904485, -1654.5208280707393, -2377.108022821906, -4253.313452400381, -3587.0303019321327, -2627.939299099362, -3012.12108279718, -2035.9980506894651, -8002.4386051224, -14930.406502533735, 0.0135, -0.10500000000000001, 0.986, 192.0, 0.0, 48.0, 126.0, 96.0, 15.0, 104.0, 0.0, 0.0, 0.0, 1.645923063499533E9, 0.0, 2022-02-27 11:51:03.499
58.0, -76.30885557041832, -2531.558577008078, -1988.9252768665883, -8977.39934651844, 366.94858872277604, 575.2668470462379, -4285.634074882755, -1388.1103859079344, -2135.7091827045897, -4019.357743186682, -3394.2912094940198, -2434.19437816076, -2811.4247693329776, -1843.594234418182, -7821.83650992352, -14682.995043157942, 0.0135, -0.10500000000000001, 0.986, 192.0, 0.0, 0.0, 0.0, 0.0, 0.0, 0.0, 0.0, 0.0, 0.0, 1.645923063507085E9, 0.0, 2022-02-27 11:51:03.507
60.0, -341.7805244661003, -2783.0827573636484, -2245.6797654247007, -9244.413285781537, 88.66937025420312, 313.39380900786034, -4548.445886188256, -1654.8784559820242, -2334.952632779197, -4126.422599127603, -3448.5612450315057, -2474.4498699247683, -2865.918322315016, -1892.1869268640194, -7878.4981821177225, -14852.13069345125, 0.0135, -0.10500000000000001, 0.986, 192.0, 0.0, 0.0, 0.0, 0.0, 0.0, 0.0, 0.0, 0.0, 0.0, 1.645923063515085E9, 0.0, 2022-02-27 11:51:03.515
62.0, -158.4962199325824, -2599.1055487520157, -2075.001844763976, -9068.527408662727, 255.14516295733011, 504.54592758964634, -4379.91373299524, -1460.8206106210484, -2259.984881876097, -4195.780062172421, -3567.5172290226496, -2625.301793253636, -3002.018094303381, -2027.0797046517976, -8006.663084824453, -14850.923699250663, 0.0135, -0.10500000000000001, 0.986, 192.0, 0.0, 0.0, 0.0, 0.0, 0.0, 0.0, 0.0, 0.0, 0.0, 1.64592306352299E9, 0.0, 2022-02-27 11:51:03.522
64.0, -155.7693071090349, -2610.4825866797673, -2077.3934814206937, -9092.622589185547, 248.59610183192515, 460.6694532238786, -4422.069123037949, -1543.9467482503353, -2182.513735594003, -3967.8593239616544, -3314.1155021328336, -2346.0390980290294, -2740.1003527760927, -1765.6984049914367, -7777.468297179735, -14724.099901211252, 0.0135, -0.10500000000000001, 0.986, 192.0, 0.0, 0.0, 0.0, 0.0, 0.0, 0.0, 0.0, 0.0, 0.0, 1.645923063529505E9, 0.0, 2022-02-27 11:51:03.529
66.0, -354.90099846136553, -2791.3976063010227, -2263.404698777759, -9261.713535989946, 45.01641333298842, 288.113986028908, -4577.726671424708, -1655.6831187824152, -2362.624092414867, -4232.2581091234815, -3569.439479045806, -2616.942240827351, -3005.437911205043, -2036.5344925563925, -8019.425930908434, -14953.227633622604, 0.012750000000000001, -0.10250000000000001, 0.988, 192.0, 0.0, 48.0, 126.0, 112.0, 15.0, 120.0, 0.0, 0.0, 0.0, 1.645923063537693E9, 0.0, 2022-02-27 11:51:03.537
68.0, -47.1398290562426, -2500.601410937478, -1978.48701220596, -8971.364375515506, 355.34803335047167, 574.909219134953, -4319.318153776902, -1407.6681623063282, -2128.154293078696, -4013.546289628302, -3386.9821890571343, -2427.9358897132743, -2816.0515804352262, -1847.2152170199415, -7839.159111876383, -14700.496459066448, 0.012750000000000001, -0.10250000000000001, 0.988, 192.0, 0.0, 0.0, 0.0, 0.0, 0.0, 0.0, 0.0, 0.0, 0.0, 1.645923063545542E9, 0.0, 2022-02-27 11:51:03.545
70.0, -315.42781775329325, -2758.8534663740957, -2231.1958350176615, -9238.11009384514, 86.21067836411935, 309.2140327947179, -4543.662612874819, -1658.3876798615074, -2316.177167436739, -4111.2234128979935, -3428.087047110444, -2455.7638115601317, -2855.6141681211197, -1879.2452668243966, -7883.214400197792, -14866.055830246905, 0.012750000000000001, -0.10250000000000001, 0.988, 192.0, 0.0, 0.0, 0.0, 0.0, 0.0, 0.0, 0.0, 0.0, 0.0, 1.645923063559279E9, 0.0, 2022-02-27 11:51:03.559
72.0, -157.55744666545948, -2604.2464499767366, -2081.6850163561126, -9080.306777990672, 241.01886046157605, 477.9249999433756, -4363.57460779841, -1461.1111832989675, -2264.879913911809, -4216.634239749222, -3573.798069214591, -2630.845025878552, -3012.0540275638136, -2039.3061088688505, -8011.53576511571, -14860.065562732883, 0.012750000000000001, -0.10250000000000001, 0.988, 192.0, 0.0, 0.0, 0.0, 0.0, 0.0, 0.0, 0.0, 0.0, 0.0, 1.645923063567239E9, 0.0, 2022-02-27 11:51:03.567
74.0, -155.92576932022206, -2602.1230342534823, -2085.12718500223, -9087.079356560631, 236.83908424843364, 464.73747071474446, -4408.166337986749, -1517.3705240929753, -2181.709072793612, -3966.8311437167104, -3318.272926601521, -2340.0041270260963, -2746.5600069236766, -1769.3417393376517, -7778.96586405824, -14722.155299443639, 0.012750000000000001, -0.10250000000000001, 0.988, 192.0, 0.0, 0.0, 0.0, 0.0, 0.0, 0.0, 0.0, 0.0, 0.0, 1.645923063575446E9, 0.0, 2022-02-27 11:51:03.575
76.0, -354.5210188056253, -2788.804803944207, -2266.757460446055, -9261.311204589749, 38.176779529664465, 309.23638453917323, -4564.0250520736045, -1666.3449008875969, -2373.4423367312356, -4239.03068769344, -3576.770851227147, -2608.1803570008706, -3016.054989821314, -2019.2789458368954, -8021.482291398323, -14935.14507235826, 0.010375, -0.10325000000000001, 0.989, 192.0, 0.0, 32.0, 126.0, 96.0, 15.0, 120.0, 0.0, 0.0, 0.0, 1.645923063581894E9, 0.0, 2022-02-27 11:51:03.581
78.0, -55.58878846034867, -2508.357466263469, -1988.1429658106526, -8985.423622777895, 344.8427134564774, 574.1716115679278, -4304.275429758481, -1405.0530082050573, -2139.37486879526, -4013.523937883847, -3403.5671834429722, -2438.1953404182605, -2831.0719527091924, -1851.9537868444668, -7853.911263216885, -14710.085357437774, 0.010375, -0.10325000000000001, 0.989, 192.0, 0.0, 0.0, 0.0, 0.0, 0.0, 0.0, 0.0, 0.0, 0.0, 1.645923063589938E9, 0.0, 2022-02-27 11:51:03.589
80.0, -313.2596985411285, -2756.0371465727267, -2231.5534629289464, -9236.880747900099, 76.44296603715016, 321.1722160783072, -4545.674269875797, -1647.8153047341473, -2317.8759000153423, -4106.149566906639, -3432.579747745961, -2450.3546894019473, -2855.7259268433963, -1877.3453685456955, -7885.494278132234, -14858.344478409825, 0.010375, -0.10325000000000001, 0.989, 192.0, 0.0, 0.0, 0.0, 0.0, 0.0, 0.0, 0.0, 0.0, 0.0, 1.645923063597856E9, 0.0, 2022-02-27 11:51:03.597
82.0, -172.98015033962136, -2619.9597263288174, -2084.8142605798557, -9082.296083247194, 229.53006381154822, 481.0318924226633, -4381.165430684738, -1475.9750933617465, -2276.949855917675, -4220.45638805108, -3578.760156483669, -2630.286232267169, -3014.9597543430036, -2040.937786214088, -8017.078997740627, -14864.267690690482, 0.010375, -0.10325000000000001, 0.989, 192.0, 0.0, 0.0, 0.0, 0.0, 0.0, 0.0, 0.0, 0.0, 0.0, 1.645923063605792E9, 0.0, 2022-02-27 11:51:03.605
84.0, -157.49039143209356, -2615.9587640713175, -2076.253542453473, -9086.095879804598, 240.43771510573808, 467.2408660937388, -4405.752349585575, -1512.9448786908245, -2193.1084624658183, -3980.555114812269, -3323.7044005041603, -2339.825313070454, -2744.414239455967, -1770.0793469046769, -7776.060137279051, -14718.310799397326, 0.010375, -0.10325000000000001, 0.989, 192.0, 0.0, 0.0, 0.0, 0.0, 0.0, 0.0, 0.0, 0.0, 0.0, 1.645923063612158E9, 0.0, 2022-02-27 11:51:03.612
86.0, -343.434553555793, -2786.6366847320423, -2255.1569050737507, -9264.149876135574, 41.06015456439908, 303.9613728477207, -4559.755868882641, -1654.8784559820242, -2362.2888162480376, -4240.662365038677, -3565.9526069107783, -2608.4709296787896, -2999.0676640352804, -2029.5607482863365, -8010.485233126311, -14934.183947346683, 0.0111875, -0.10362500000000001, 0.9875, 192.0, 0.0, 48.0, 126.0, 96.0, 15.0, 104.0, 0.0, 0.0, 0.0, 1.645923063619454E9, 0.0, 2022-02-27 11:51:03.619
88.0, -44.323509254873905, -2498.075663814028, -1977.3023697498286, -8983.63548322147, 338.0701348865193, 567.6225504425229, -4316.457130486623, -1415.1112932099454, -2129.7859704239336, -4021.9505455434974, -3392.547773426506, -2436.407200861836, -2822.51123458281, -1853.361946745151, -7850.022059681662, -14708.252514392438, 0.0111875, -0.10362500000000001, 0.9875, 192.0, 0.0, 0.0, 0.0, 0.0, 0.0, 0.0, 0.0, 0.0, 0.0, 1.645923063627497E9, 0.0, 2022-02-27 11:51:03.627
90.0, -304.78838739256713, -2749.085754047126, -2233.319250740916, -9240.412323524037, 68.61985547779268, 323.5415009905697, -4568.674214920308, -1670.2788079117308, -2312.310315645971, -4104.495537816946, -3423.549642986017, -2445.861988766431, -2854.2954151982567, -1879.9605226469664, -7884.264932187192, -14861.920757522674, 0.0111875, -0.10362500000000001, 0.9875, 192.0, 0.0, 0.0, 0.0, 0.0, 0.0, 0.0, 0.0, 0.0, 0.0, 1.645923063634704E9, 0.0, 2022-02-27 11:51:03.634
92.0, -149.24259772808526, -2592.0200457596834, -2085.5518681468807, -9079.725632634834, 223.85272071990022, 478.9531801883197, -4410.960306043662, -1493.5882679925285, -2270.7807744480106, -4210.6439722352, -3578.514287294661, -2627.4699124658005, -3027.186158560057, -2041.8765594812107, -8030.557099647177, -14875.13063849576, 0.0111875, -0.10362500000000001, 0.9875, 192.0, 0.0, 0.0, 0.0, 0.0, 0.0, 0.0, 0.0, 0.0, 0.0, 1.645923063642197E9, 0.0, 2022-02-27 11:51:03.642
94.0, -119.11244620233134, -2569.6012460710103, -2065.859981281755, -9066.60515863957, 243.25403490710676, 467.1514591159176, -4428.215852763159, -1515.9623641922908, -2163.3582905958046, -3950.044983630775, -3303.297257816465, -2314.634897069323, -2734.0430300287044, -1752.6673379739927, -7772.617968632933, -14711.225296404995, 0.0111875, -0.10362500000000001, 0.9875, 192.0, 0.0, 0.0, 0.0, 0.0, 0.0, 0.0, 0.0, 0.0, 0.0, 1.645923063650164E9, 0.0, 2022-02-27 11:51:03.650
96.0, -319.9652218777206, -2757.9817483403385, -2255.5145329850357, -9253.398687052571, 38.6014626743153, 301.1450530463521, -4580.230066803702, -1663.1933049193985, -2343.8039235834985, -4209.92871641263, -3550.8428276589907, -2581.4923741212338, -2994.910239566593, -2008.6618672206246, -8014.396788405989, -14930.652371722743, 0.01259375, -0.1038125, 0.98875, 192.0, 0.0, 56.0, 126.0, 96.0, 15.0, 120.0, 0.0, 0.0, 0.0, 1.645923063657247E9, 0.0, 2022-02-27 11:51:03.657
98.0, -29.817227103379622, -2480.976579305718, -1980.3422069957505, -8975.946483128844, 344.23921635618404, 568.4942684762798, -4301.369702979291, -1416.4747496217192, -2116.732551662034, -4004.8514610351876, -3389.6643983917716, -2418.1905291307603, -2827.3839148740667, -1844.622414663126, -7851.519626560167, -14704.899752724143, 0.01259375, -0.1038125, 0.98875, 192.0, 0.0, 0.0, 0.0, 0.0, 0.0, 0.0, 0.0, 0.0, 0.0, 1.645923063664829E9, 0.0, 2022-02-27 11:51:03.664
100.0, -286.23643949466225, -2730.734971849319, -2223.3503727138486, -9224.363771005126, 84.42253880769478, 333.1974545952624, -4545.718973364708, -1655.0572699376667, -2303.9731149641416, -4091.8220987107875, -3418.7216661836705, -2423.018505933107, -2851.5014471413433, -1857.3852607471063, -7875.480696616256, -14852.018934728972, 0.01259375, -0.1038125, 0.98875, 192.0, 0.0, 0.0, 0.0, 0.0, 0.0, 0.0, 0.0, 0.0, 0.0, 1.645923063679755E9, 0.0, 2022-02-27 11:51:03.679
102.0, -147.186237238197, -2592.84706030453, -2090.312789715861, -9087.436984471917, 228.07720042195328, 476.13686038695107, -4393.436538390701, -1476.4668317397634, -2259.0684603534296, -4205.838347177309, -3571.4287843023285, -2611.354304713524, -3012.858690364205, -2022.8552249497445, -8018.598916363588, -14866.70403083611, 0.01259375, -0.1038125, 0.98875, 192.0, 0.0, 0.0, 0.0, 0.0, 0.0, 0.0, 0.0, 0.0, 0.0, 1.645923063687018E9, 0.0, 2022-02-27 11:51:03.687
104.0, -118.17367293520844, -2571.590551327533, -2066.061146981853, -9076.395222710995, 247.05383146450896, 471.2641800956941, -4410.960306043662, -1504.96530592028, -2159.1785143826623, -3949.2403208303836, -3312.3720660653194, -2323.4191326402583, -2735.5405969072103, -1759.4175647994955, -7775.501343667668, -14713.125194683695, 0.01259375, -0.1038125, 0.98875, 192.0, 0.0, 0.0, 0.0, 0.0, 0.0, 0.0, 0.0, 0.0, 0.0, 1.6459230636945E9, 0.0, 2022-02-27 11:51:03.694
106.0, -324.05559111304177, -2762.385041998034, -2259.3590330313486, -9261.937053434498, 33.8628928497902, 291.73496863066777, -4576.609084201942, -1667.887171255013, -2347.6707753742667, -4230.291155611415, -3558.956510896267, -2583.5710863555773, -2994.932591311049, -2013.2216230895071, -8009.702922070375, -14938.72135147111, 0.015296875000000001, -0.10490625, 0.986375, 192.0, 0.0, 72.0, 126.0, 88.0, 15.0, 96.0, 0.0, 0.0, 0.0, 1.645923063702422E9, 0.0, 2022-02-27 11:51:03.702
108.0, -26.665631135181325, -2481.1553932613606, -1976.9223900940885, -8979.947445386344, 341.6911174882791, 559.2853497606933, -4310.04217982795, -1407.1540721838562, -2116.956069106587, -4022.7999118327994, -3400.616753174872, -2427.4217995908025, -2832.0107259763154, -1858.6369584366034, -7860.3038621311025, -14718.713130797521, 0.015296875000000001, -0.10490625, 0.986375, 192.0, 0.0, 0.0, 0.0, 0.0, 0.0, 0.0, 0.0, 0.0, 0.0, 1.645923063710402E9, 0.0, 2022-02-27 11:51:03.710
110.0, -276.3793201898718, -2723.1577304789703, -2213.5826603868795, -9224.274364027306, 78.85695443832331, 322.4015620233491, -4563.220389273213, -1650.631624535516, -2294.1606991482618, -4087.3293980752705, -3419.0792940949555, -2424.33725885597, -2845.3994209050443, -1864.2248945504302, -7878.364071650991, -14861.94310926713, 0.015296875000000001, -0.10490625, 0.986375, 192.0, 0.0, 0.0, 0.0, 0.0, 0.0, 0.0, 0.0, 0.0, 0.0, 1.645923063717055E9, 0.0, 2022-02-27 11:51:03.717
112.0, -143.16292323624174, -2586.901496279418, -2084.6354466242133, -9087.526391449737, 213.81678745946735, 474.1252033859734, -4417.73288461362, -1471.1918200483108, -2253.480524239603, -4206.151271599683, -3575.0721186485434, -2609.9908483017502, -3018.0666468222917, -2028.644326763669, -8027.584317634621, -14874.638900117745, 0.015296875000000001, -0.10490625, 0.986375, 192.0, 0.0, 0.0, 0.0, 0.0, 0.0, 0.0, 0.0, 0.0, 0.0, 1.645923063725109E9, 0.0, 2022-02-27 11:51:03.725
114.0, -109.03180945298786, -2562.2922256341253, -2053.7229840425234, -9073.891827332, 256.083936224453, 475.19808711982813, -4408.747483342586, -1499.7573494621934, -2148.516732277481, -3953.285986576794, -3306.6947229736716, -2312.9138127462643, -2733.3277742061346, -1756.1318583645652, -7774.160239000349, -14718.511965097425, 0.015296875000000001, -0.10490625, 0.986375, 192.0, 0.0, 0.0, 0.0, 0.0, 0.0, 0.0, 0.0, 0.0, 0.0, 1.645923063732156E9, 0.0, 2022-02-27 11:51:03.732
116.0, -318.91468988832116, -2762.83207688714, -2252.0723643389183, -9269.000204682376, 42.89299760973425, 295.49006169915936, -4572.80928764454, -1654.6549385374713, -2341.5911008824232, -4217.461254294069, -3552.2062840707645, -2574.228057173259, -2991.244553475923, -2010.8523381772445, -8003.846765023085, -14943.974011418106, 0.018000000000000002, -0.10400000000000001, 0.98, 192.0, 0.0, 72.0, 126.0, 96.0, 15.0, 80.0, 0.0, 0.0, 0.0, 1.645923063740303E9, 0.0, 2022-02-27 11:51:03.740
118.0, -4.626811102248562, -2462.0223000076176, -1967.5123056784041, -8979.880390152979, 354.208094383251, 573.165783067439, -4314.8478048858415, -1404.8741942494148, -2108.864737613766, -4019.961240286975, -3398.5603926849835, -2425.6113082899224, -2825.7298857843743, -1855.820638635235, -7859.767420264176, -14722.6246860772, 0.018000000000000002, -0.10400000000000001, 0.98, 192.0, 0.0, 0.0, 0.0, 0.0, 0.0, 0.0, 0.0, 0.0, 0.0, 1.645923063746738E9, 0.0, 2022-02-27 11:51:03.746
120.0, -261.6048171049139, -2709.2325936833136, -2206.4301021611814, -9224.989619849875, 98.54884130344884, 338.0254313976087, -4545.026069286593, -1631.8785109375133, -2275.318178572438, -4070.9902728784414, -3402.8072241314917, -2408.780444715076, -2829.574385830687, -1849.1151152986426, -7868.819876768574, -14854.567033596879, 0.018000000000000002, -0.10400000000000001, 0.98, 192.0, 0.0, 0.0, 0.0, 0.0, 0.0, 0.0, 0.0, 0.0, 0.0, 1.645923063754679E9, 0.0, 2022-02-27 11:51:03.754
122.0, -159.43499319970527, -2605.1852232438596, -2099.834632853822, -9107.41944401496, 208.2064996011853, 459.75303170121094, -4426.87474809584, -1493.2753435701543, -2259.1131638423403, -4210.733379213021, -3577.575514027538, -2617.5680896720996, -3018.7371991559507, -2033.8522832217554, -8026.086750756115, -14882.260844977003, 0.018000000000000002, -0.10400000000000001, 0.98, 192.0, 0.0, 0.0, 0.0, 0.0, 0.0, 0.0, 0.0, 0.0, 0.0, 1.645923063762709E9, 0.0, 2022-02-27 11:51:03.762
124.0, -104.40499835073929, -2557.844228487519, -2054.2370741649956, -9074.450620943382, 262.6106456054027, 487.9385814593532, -4413.173128744737, -1498.5950587505174, -2151.0424794009305, -3957.6669284900345, -3316.4847870450963, -2324.6037750963897, -2739.832131842629, -1752.8238001851798, -7782.788012360098, -14724.971619245009, 0.018000000000000002, -0.10400000000000001, 0.98, 192.0, 0.0, 0.0, 0.0, 0.0, 0.0, 0.0, 0.0, 0.0, 0.0, 1.645923063769907E9, 0.0, 2022-02-27 11:51:03.769
126.0, -313.2820502855838, -2754.7630971387744, -2249.9936521045747, -9264.21693136894, 41.4624859645946, 302.68732341376824, -4573.256322533646, -1650.2963483686863, -2339.2218159701606, -4218.31062058337, -3549.635833458404, -2575.0103682291947, -2982.952056283004, -1997.5530502263368, -8001.745701044286, -14941.157691616738, 0.016, -0.106, 0.984, 192.0, 0.0, 64.0, 126.0, 88.0, 15.0, 96.0, 0.0, 0.0, 0.0, 1.645923063777401E9, 0.0, 2022-02-27 11:51:03.777
128.0, -1.6763808341480297, -2459.5412563730783, -1961.812610842301, -8975.87942789548, 357.6726147738236, 579.7371959372992, -4303.493118702545, -1392.8713074769148, -2100.9522200765873, -4003.845632534699, -3391.519593181562, -2422.7726367440982, -2823.1370834275585, -1850.1209437991315, -7850.2008736373045, -14713.795747017355, 0.016, -0.106, 0.984, 192.0, 0.0, 0.0, 0.0, 0.0, 0.0, 0.0, 0.0, 0.0, 0.0, 1.645923063785365E9, 0.0, 2022-02-27 11:51:03.785
130.0, -261.56011361600326, -2712.4065413959675, -2209.380532429282, -9227.582422206691, 95.35254184633993, 335.05264938505286, -4543.796723341551, -1633.3984295604741, -2276.7486902175774, -4072.6890054570445, -3403.4554247206956, -2413.943697684252, -2829.9543654864274, -1850.9703100884333, -7864.260120899692, -14852.108341706795, 0.016, -0.106, 0.984, 192.0, 0.0, 0.0, 0.0, 0.0, 0.0, 0.0, 0.0, 0.0, 0.0, 1.64592306379256E9, 0.0, 2022-02-27 11:51:03.792
132.0, -146.2251122266188, -2590.544830625633, -2095.856022340777, -9098.99283635531, 211.60396475839195, 454.880351409954, -4420.929184070728, -1498.572707006062, -2254.3298905289043, -4216.857757193775, -3574.222752359242, -2621.1443687849487, -3018.2901642668444, -2031.0583151648423, -8023.8962797994955, -14881.746754854532, 0.016, -0.106, 0.984, 192.0, 0.0, 0.0, 0.0, 0.0, 0.0, 0.0, 0.0, 0.0, 0.0, 1.645923063806974E9, 0.0, 2022-02-27 11:51:03.806
134.0, -100.56049830442647, -2557.240731387226, -2054.795867776378, -9067.119248762041, 255.16751470178542, 481.88125871196496, -4413.866032822852, -1498.7738727061599, -2143.308775819394, -3951.989585398386, -3310.5615747644397, -2319.1275977048394, -2733.5512916506877, -1755.528361264272, -7773.556741900056, -14715.785052273877, 0.016, -0.106, 0.984, 192.0, 0.0, 0.0, 0.0, 0.0, 0.0, 0.0, 0.0, 0.0, 0.0, 1.645923063815075E9, 0.0, 2022-02-27 11:51:03.815
136.0, -320.72518118920107, -2765.447230988411, -2260.54367548748, -9271.503600061369, 30.13015152575392, 297.4793669556817, -4587.5614389850425, -1636.2818045952088, -2339.445333414714, -4227.474835810046, -3551.6474904593815, -2578.2066676863037, -2989.121137752669, -1996.3013525368397, -8003.667951067442, -14933.468691524113, 0.014, -0.106, 0.986, 192.0, 0.0, 56.0, 126.0, 88.0, 15.0, 104.0, 0.0, 0.0, 0.0, 1.64592306382224E9, 0.0, 2022-02-27 11:51:03.822
138.0, -16.89791880821214, -2476.550933903567, -1973.547276681337, -8985.53538150017, 349.693042003279, 567.2872742756932, -4312.992610096051, -1400.8061767585489, -2112.9327551046317, -4035.6298131501453, -3409.3339335124415, -2448.477142867702, -2840.8173132917063, -1860.715670670947, -7866.741164534232, -14718.6237238197, 0.014, -0.106, 0.986, 192.0, 0.0, 0.0, 0.0, 0.0, 0.0, 0.0, 0.0, 0.0, 0.0, 1.645923063829606E9, 0.0, 2022-02-27 11:51:03.829
140.0, -260.1743054597742, -2709.545518105688, -2202.6526573482347, -9221.279230270295, 99.97935294858848, 330.0011551381535, -4554.436153702278, -1632.4820080378067, -2280.168507119239, -4080.4674125274914, -3405.645895677316, -2425.05251467854, -2830.2896416532567, -1851.3055862552628, -7862.516684832179, -14846.945088737619, 0.014, -0.106, 0.986, 192.0, 0.0, 0.0, 0.0, 0.0, 0.0, 0.0, 0.0, 0.0, 0.0, 1.645923063837637E9, 0.0, 2022-02-27 11:51:03.837
142.0, -156.6633768872472, -2603.41943543189, -2102.583897421825, -9104.200792813397, 207.22302284515177, 458.6801479673562, -4434.0049545770835, -1472.7787939046377, -2258.7555359310554, -4199.1551755851715, -3577.4190518163505, -2622.776046130186, -3016.6137834326964, -2029.5383965418812, -8025.617364122554, -14878.773972841977, 0.014, -0.106, 0.986, 192.0, 0.0, 0.0, 0.0, 0.0, 0.0, 0.0, 0.0, 0.0, 0.0, 1.645923063845725E9, 0.0, 2022-02-27 11:51:03.845
144.0, -96.31366685791814, -2552.613920284977, -2053.9241497426215, -9064.235873727308, 266.4551456517155, 474.3710725749818, -4419.297506725491, -1473.0023113491907, -2141.118304862774, -3960.684413991501, -3313.5790602659063, -2328.0682954869626, -2734.7582858512746, -1750.8791984175682, -7772.595616888478, -14704.408014346125, 0.014, -0.106, 0.986, 192.0, 0.0, 0.0, 0.0, 0.0, 0.0, 0.0, 0.0, 0.0, 0.0, 1.645923063852273E9, 0.0, 2022-02-27 11:51:03.852
146.0, -323.5415009905697, -2765.000196099305, -2262.220056321628, -9272.8894082176, 46.71514591159176, 286.57171566149185, -4575.223276045714, -1652.0621361806557, -2345.9720427956636, -4222.602155518789, -3553.346223037985, -2581.425318887868, -2982.147393482613, -1998.6929891935577, -7993.632017807009, -14936.061493880929, 0.014, -0.106, 0.988, 192.0, 0.0, 56.0, 126.0, 88.0, 15.0, 112.0, 0.0, 0.0, 0.0, 1.645923063859282E9, 0.0, 2022-02-27 11:51:03.859
148.0, -20.407142687695348, -2474.8969048138747, -1977.7047011500242, -8982.897875654446, 350.9670914372315, 573.4340040009027, -4331.209281827126, -1377.4262520582977, -2127.1931680671178, -4035.4062957055926, -3421.7838551740474, -2458.2225034502153, -2847.388726161567, -1865.6554061955699, -7870.1609814358935, -14728.234973935483, 0.014, -0.106, 0.988, 192.0, 0.0, 0.0, 0.0, 0.0, 0.0, 0.0, 0.0, 0.0, 0.0, 1.645923063867287E9, 0.0, 2022-02-27 11:51:03.867
150.0, -262.2753694385731, -2710.640753583998, -2205.2007562161393, -9220.563974447725, 113.6139170663258, 332.4598470282373, -4540.198092484247, -1612.9465833838683, -2282.113108886851, -4068.777450177366, -3406.5623171999837, -2420.8056832320312, -2822.958269471916, -1842.2531297508633, -7861.130876675949, -14842.072408446362, 0.014, -0.106, 0.988, 192.0, 0.0, 0.0, 0.0, 0.0, 0.0, 0.0, 0.0, 0.0, 0.0, 1.645923063875262E9, 0.0, 2022-02-27 11:51:03.875
152.0, -153.8694088303338, -2604.6264296324766, -2099.2758392424394, -9107.7994236707, 219.42707531774943, 453.60630197600153, -4408.8815938093185, -1493.0965296145118, -2270.378443047815, -4210.353399557281, -3585.577438542538, -2632.431999734879, -3012.523414197375, -2035.26044312244, -8024.678590855431, -14885.926531067675, 0.014, -0.106, 0.988, 192.0, 0.0, 0.0, 0.0, 0.0, 0.0, 0.0, 0.0, 0.0, 0.0, 1.645923063881875E9, 0.0, 2022-02-27 11:51:03.881
154.0, -104.24853613955214, -2567.0531472031057, -2051.1078299412525, -9069.399126696484, 272.6465788658355, 472.56058127410193, -4396.3199134254355, -1470.0295293366348, -2146.907406676699, -3964.998300671375, -3314.808406210948, -2333.589176367423, -2725.281146202224, -1762.9491404234338, -7768.482895908702, -14713.929857484087, 0.014, -0.106, 0.988, 192.0, 0.0, 0.0, 0.0, 0.0, 0.0, 0.0, 0.0, 0.0, 0.0, 1.645923063889924E9, 0.0, 2022-02-27 11:51:03.889
156.0, -332.370440050416, -2774.387928770534, -2264.2540650670608, -9275.8398384857, 41.39543073122868, 289.9021255853326, -4591.160069842347, -1657.0018717052785, -2359.8301243579535, -4230.402914333691, -3558.3306620515186, -2588.3543596690133, -2984.0919952502245, -2003.520965995904, -7994.660198051954, -14938.676647982198, 0.014, -0.106, 0.988, 192.0, 0.0, 56.0, 126.0, 88.0, 15.0, 112.0, 0.0, 0.0, 0.0, 1.645923063897963E9, 0.0, 2022-02-27 11:51:03.897
158.0, -35.71808763958069, -2487.905620086863, -1982.130346552175, -8986.943541400855, 344.5297890341031, 568.6060271985564, -4332.259813816526, -1378.4320805587865, -2138.704316461601, -4040.7260108859555, -3431.8868436678463, -2467.2526082101595, -2854.0495460092484, -1878.9993976353883, -7877.760574550698, -14728.883174524686, 0.014, -0.106, 0.988, 192.0, 0.0, 0.0, 0.0, 0.0, 0.0, 0.0, 0.0, 0.0, 0.0, 1.645923063905234E9, 0.0, 2022-02-27 11:51:03.905
160.0, -271.03725326505344, -2721.324887433635, -2203.658485848723, -9219.960477347431, 104.89673672875604, 331.23050108319535, -4560.5605316830315, -1622.1107986105442, -2298.8992689727866, -4084.893057929642, -3414.8771661373576, -2427.1535786573386, -2832.0107259763154, -1853.2725397673298, -7861.5555598206, -14840.708952034587, 0.014, -0.106, 0.988, 192.0, 0.0, 0.0, 0.0, 0.0, 0.0, 0.0, 0.0, 0.0, 0.0, 1.645923063912616E9, 0.0, 2022-02-27 11:51:03.912
162.0, -168.42039447073873, -2613.2094995033144, -2111.8822231152326, -9113.208545828886, 196.29301980650663, 450.6111682189904, -4480.340120832935, -1491.2636865691766, -2277.6874634847004, -4224.569109030856, -3587.119708909954, -2633.750752657742, -3019.944193356537, -2038.7696670019232, -8037.933175317428, -14891.313301481403, 0.014, -0.106, 0.988, 192.0, 0.0, 0.0, 0.0, 0.0, 0.0, 0.0, 0.0, 0.0, 0.0, 1.645923063927807E9, 0.0, 2022-02-27 11:51:03.927
164.0, -112.63044031029229, -2567.947216981318, -2053.0747834533195, -9068.058022029165, 270.0090730201093, 470.5936277620349, -4379.600808572866, -1450.2929389825988, -2152.227121857062, -3959.2986058352717, -3322.22918537011, -2337.2772142025487, -2737.8651783305622, -1765.2513701023306, -7782.005701304162, -14703.066909678808, 0.014, -0.106, 0.988, 192.0, 0.0, 0.0, 0.0, 0.0, 0.0, 0.0, 0.0, 0.0, 0.0, 1.645923063934906E9, 0.0, 2022-02-27 11:51:03.934
166.0, -338.0030796531534, -2777.6289317165533, -2267.11508835734, -9277.627978042125, 38.6014626743153, 290.41621570780467, -4559.599406671454, -1660.1534676734768, -2364.0322523155514, -4212.722684469543, -3559.627063229926, -2589.4719468917783, -2986.081300506747, -1992.5239077238928, -7992.357968373057, -14933.71456071312, 0.012, -0.10200000000000001, 0.99, 192.0, 0.0, 48.0, 126.0, 104.0, 15.0, 120.0, 0.0, 0.0, 0.0, 1.645923063942205E9, 0.0, 2022-02-27 11:51:03.942
168.0, -34.77931437245779, -2493.8958876008855, -1982.3985674856388, -8987.882314667979, 345.9603006792427, 558.1230590490173, -4312.769092651498, -1362.2494175731442, -2137.7208397055674, -4053.600615692212, -3434.189073346743, -2470.046576267073, -2858.0505082667482, -1880.3181505582513, -7877.2688361726805, -14727.385607646182, 0.012, -0.10200000000000001, 0.99, 192.0, 0.0, 0.0, 0.0, 0.0, 0.0, 0.0, 0.0, 0.0, 0.0, 1.645923063950275E9, 0.0, 2022-02-27 11:51:03.950
170.0, -269.69614859773503, -2722.420122911945, -2206.608916116824, -9214.350189489149, 105.43317859568342, 327.9671463927205, -4549.317604222012, -1586.9291528378908, -2285.8458502108874, -4081.540296261346, -3407.210517789187, -2417.0729419079953, -2824.277022394779, -1843.817751862735, -7862.360222620991, -14832.349399608303, 0.012, -0.10200000000000001, 0.99, 192.0, 0.0, 0.0, 0.0, 0.0, 0.0, 0.0, 0.0, 0.0, 0.0, 1.645923063957401E9, 0.0, 2022-02-27 11:51:03.957
172.0, -180.75855741006822, -2632.811979390619, -2118.8559673852883, -9120.942249410422, 201.90330766478868, 416.7706271136555, -4427.21002426267, -1489.6543609683945, -2286.337588588904, -4233.330992857336, -3595.2557438916856, -2636.097685825549, -3024.6380596921517, -2041.7648007589341, -8034.155730504482, -14888.742850869043, 0.012, -0.10200000000000001, 0.99, 192.0, 0.0, 0.0, 0.0, 0.0, 0.0, 0.0, 0.0, 0.0, 0.0, 1.645923063964938E9, 0.0, 2022-02-27 11:51:03.964
174.0, -122.66637357072516, -2584.286342178147, -2057.8133532778447, -9068.37094645154, 266.3880904183496, 476.42743306487006, -4382.797108029975, -1447.3648604589534, -2154.864627702788, -3967.4346408170036, -3328.621784284328, -2342.2169497271716, -2736.769942852252, -1763.5079340348166, -7775.948378556774, -14702.888095723165, 0.012, -0.10200000000000001, 0.99, 192.0, 0.0, 0.0, 0.0, 0.0, 0.0, 0.0, 0.0, 0.0, 0.0, 1.645923063972962E9, 0.0, 2022-02-27 11:51:03.972
176.0, -353.4704868162259, -2802.6181820175866, -2274.379405305315, -9277.113887919651, 33.371154471773444, 294.953619832232, -4602.514756025643, -1644.5743017881277, -2373.7329094091547, -4238.024859192951, -3568.8806854344234, -2594.2552202052143, -2985.9248382955598, -1989.6181809447028, -7997.945904486884, -14929.445377522157, 0.014, -0.1, 0.986, 192.0, 0.0, 56.0, 126.0, 112.0, 15.0, 104.0, 0.0, 0.0, 0.0, 1.645923063979982E9, 0.0, 2022-02-27 11:51:03.979
178.0, -51.051384335921334, -2510.4808819867235, -1990.1769745560855, -8991.793869947656, 337.6678034863238, 555.9549398368525, -4328.661182959221, -1352.4817052461751, -2148.583787510847, -4064.4635634974916, -3444.4932275406395, -2478.517887415634, -2862.8784850690945, -1864.783688161813, -7894.747900336731, -14725.329247156293, 0.014, -0.1, 0.986, 192.0, 0.0, 0.0, 0.0, 0.0, 0.0, 0.0, 0.0, 0.0, 0.0, 1.645923063987169E9, 0.0, 2022-02-27 11:51:03.987
180.0, -280.04500628054217, -2729.796198582196, -2207.279468450483, -9215.221907522906, 111.64696355425878, 337.48898953068135, -4502.602458310421, -1595.4228157309076, -2298.2287166391275, -4090.8162702102986, -3417.805244661003, -2424.5831280449784, -2827.2051009184243, -1837.8945395820786, -7855.386478350935, -14824.347475093304, 0.014, -0.1, 0.986, 192.0, 0.0, 0.0, 0.0, 0.0, 0.0, 0.0, 0.0, 0.0, 0.0, 1.645923063994543E9, 0.0, 2022-02-27 11:51:03.994
182.0, -198.79641518550102, -2646.1783225748927, -2127.796665167411, -9126.194909357419, 193.94608663869937, 427.365353985471, -4422.069123037949, -1490.5931342355175, -2303.5484318194904, -4241.779952261442, -3607.2809824086407, -2648.704069698342, -3033.757571429917, -2033.9193384551215, -8036.301497972191, -14887.334690968359, 0.014, -0.1, 0.986, 192.0, 0.0, 0.0, 0.0, 0.0, 0.0, 0.0, 0.0, 0.0, 0.0, 1.645923064002562E9, 0.0, 2022-02-27 11:51:04.002
184.0, -119.80535028044585, -2578.296074664125, -2055.64523406568, -9060.614891125548, 267.5056776411149, 488.38561634845934, -4388.988541244094, -1460.4182792208528, -2160.184342883151, -3960.751469224867, -3332.913319219747, -2339.6017956259006, -2740.323870220646, -1751.952082151423, -7779.837582091997, -14699.982368943975, 0.015, -0.1, 0.988, 192.0, 0.0, 64.0, 126.0, 112.0, 15.0, 120.0, 0.0, 0.0, 0.0, 1.64592306401063E9, 0.0, 2022-02-27 11:51:04.010
186.0, -356.46562057323706, -2801.3217808391787, -2277.508649529058, -9277.78444025331, 23.558738655893645, 287.95752381772087, -4586.309741295546, -1635.0748103946223, -2372.883543119853, -4212.655629236177, -3560.3870225414066, -2581.648836332421, -2982.236800460434, -1986.6901024210576, -8001.231610921814, -14930.741778700565, 0.015, -0.1, 0.988, 192.0, 0.0, 0.0, 0.0, 0.0, 0.0, 0.0, 0.0, 0.0, 0.0, 1.645923064017105E9, 0.0, 2022-02-27 11:51:04.017
188.0, -57.265169294496694, -2514.951230877785, -1993.417977502105, -8989.335178057574, 331.4540185277484, 559.0171288272296, -4312.679685673676, -1360.9530163947363, -2160.296101605428, -4079.7745084493768, -3450.707012499215, -2484.7093206297545, -2870.768650861818, -1870.841010909201, -7894.0549962586165, -14725.15043320065, 0.015, -0.1, 0.988, 192.0, 0.0, 0.0, 0.0, 0.0, 0.0, 0.0, 0.0, 0.0, 0.0, 1.645923064025064E9, 0.0, 2022-02-27 11:51:04.025
190.0, -287.3763784618829, -2743.3637074665676, -2212.0403900194633, -9215.959515089931, 100.6499052822477, 334.35974530693835, -4542.1873977407695, -1594.1264145524997, -2305.0236469535407, -4096.627723768678, -3419.123997583866, -2430.7075060257325, -2831.9436707429495, -1830.0937807671764, -7862.1814086653485, -14826.135614649727, 0.015, -0.1, 0.988, 192.0, 0.0, 0.0, 0.0, 0.0, 0.0, 0.0, 0.0, 0.0, 0.0, 1.645923064034343E9, 0.0, 2022-02-27 11:51:04.034
192.0, -213.99560141510983, -2663.5232762722108, -2138.838426928333, -9132.766322227279, 172.98015033962136, 421.8891765939208, -4442.744486659109, -1489.8778784129477, -2315.1713389362503, -4259.437830381135, -3615.1040929679984, -2651.654499966443, -3042.206530834023, -2040.513103069437, -8044.862216098573, -14891.022728803484, 0.015, -0.1, 0.988, 192.0, 0.0, 0.0, 0.0, 0.0, 0.0, 0.0, 0.0, 0.0, 0.0, 1.645923064039722E9, 0.0, 2022-02-27 11:51:04.039
194.0, -137.26206270004067, -2595.998656272728, -2065.0776702258195, -9071.857818586566, 259.2802356815619, 474.61694176399016, -4401.550221627977, -1456.6855378968166, -2173.5953895563352, -3985.137222425607, -3347.196083926688, -2357.7514121236104, -2755.0536698166934, -1760.0657653886994, -7789.605294418967, -14705.302084124338, 0.0165, -0.10200000000000001, 0.986, 192.0, 0.0, 72.0, 126.0, 96.0, 15.0, 96.0, 0.0, 0.0, 0.0, 1.645923064054831E9, 0.0, 2022-02-27 11:51:04.054
196.0, -360.3324723640052, -2810.1060164101145, -2276.9051524287647, -9282.925341478032, 29.481950936550017, 268.4668026526931, -4583.113441838436, -1634.2254441053205, -2376.1916012992383, -4248.552530831401, -3566.109069121965, -2592.13180448196, -2979.4428324035207, -1990.3110850228175, -7994.727253285319, -14929.221860077603, 0.0165, -0.10200000000000001, 0.986, 192.0, 0.0, 0.0, 0.0, 0.0, 0.0, 0.0, 0.0, 0.0, 0.0, 1.645923064062728E9, 0.0, 2022-02-27 11:51:04.062
198.0, -60.684986196158675, -2520.78503618062, -1995.228468802985, -8992.866753681512, 333.5774342510026, 558.6147974270341, -4320.055761343928, -1366.3621385529207, -2160.966653939087, -4071.3702525341814, -3459.1783236477763, -2486.273942741626, -2873.5626189187315, -1882.2404005814078, -7894.390272425446, -14730.91718327012, 0.0165, -0.10200000000000001, 0.986, 192.0, 0.0, 0.0, 0.0, 0.0, 0.0, 0.0, 0.0, 0.0, 0.0, 1.64592306406938E9, 0.0, 2022-02-27 11:51:04.069
200.0, -277.69807311273496, -2729.6844398599196, -2200.506889880525, -9207.510555685825, 109.74706527555767, 339.8806261873992, -4540.935700051272, -1589.9689900838125, -2296.6193910383454, -4070.0514996113184, -3415.7488841711147, -2415.396561073847, -2821.1030746821257, -1828.7750278443132, -7854.850036484008, -14819.944181435607, 0.0165, -0.10200000000000001, 0.986, 192.0, 0.0, 0.0, 0.0, 0.0, 0.0, 0.0, 0.0, 0.0, 0.0, 1.645923064077238E9, 0.0, 2022-02-27 11:51:04.077
202.0, -215.11318863787517, -2661.5563227601438, -2133.675173959157, -9133.638040261036, 183.75369116707935, 431.7462958987112, -4437.06714356746, -1479.9090003858805, -2312.1985569236945, -4223.585632274822, -3612.2654214221743, -2644.323127785102, -3035.635117964163, -2035.0816291667975, -8041.196530007903, -14887.155877012716, 0.0165, -0.10200000000000001, 0.986, 192.0, 0.0, 0.0, 0.0, 0.0, 0.0, 0.0, 0.0, 0.0, 0.0, 1.645923064085427E9, 0.0, 2022-02-27 11:51:04.085
204.0, -120.36414389182853, -2581.8500020325187, -2047.0174607059314, -9054.69167884489, 281.5649249035031, 491.38075010547044, -4390.553163355967, -1441.6204621339396, -2159.8043632274107, -3983.93022822502, -3333.650926786772, -2342.9322055497414, -2738.3345649641237, -1762.8597334456126, -7779.055271036062, -14689.633511261167, 0.01525, -0.10300000000000001, 0.986, 192.0, 0.0, 56.0, 126.0, 96.0, 15.0, 104.0, 0.0, 0.0, 0.0, 1.645923064092493E9, 0.0, 2022-02-27 11:51:04.092
206.0, -361.18183865330684, -2813.481129822866, -2275.4522890391695, -9281.02544319933, 31.29244223742989, 278.8603638244109, -4591.3835872869, -1629.4198190474297, -2378.203258300216, -4230.961707945074, -3557.3918887843956, -2571.7246617942646, -2975.1736492125574, -1983.6055616862252, -7995.330750385613, -14919.342389028358, 0.01525, -0.10300000000000001, 0.986, 192.0, 0.0, 0.0, 0.0, 0.0, 0.0, 0.0, 0.0, 0.0, 0.0, 1.64592306410001E9, 0.0, 2022-02-27 11:51:04.100
208.0, -59.433288506661476, -2517.0969983454943, -1988.7017594220354, -8993.000864148244, 339.43359129829304, 555.5302566922018, -4321.776845666986, -1360.6400919723621, -2160.4525638166147, -4081.294427072338, -3458.1501434028323, -2486.0504252970727, -2876.5354009312873, -1886.6883977280138, -7901.453423673323, -14730.067816980818, 0.01525, -0.10300000000000001, 0.986, 192.0, 0.0, 0.0, 0.0, 0.0, 0.0, 0.0, 0.0, 0.0, 0.0, 1.645923064107E9, 0.0, 2022-02-27 11:51:04.107
210.0, -279.68737836925726, -2727.3822101810233, -2192.795538043444, -9209.164584775519, 111.22228040960795, 337.6678034863238, -4543.349688452446, -1585.8115656151256, -2294.7194927596443, -4079.2380665824494, -3410.6303346908494, -2409.0039621596293, -2821.9747927158824, -1827.4339231769948, -7860.259158642192, -14821.218230869561, 0.01525, -0.10300000000000001, 0.986, 192.0, 0.0, 0.0, 0.0, 0.0, 0.0, 0.0, 0.0, 0.0, 0.0, 1.645923064115151E9, 0.0, 2022-02-27 11:51:04.115
212.0, -220.5670142849701, -2662.8974274274624, -2130.5682814798693, -9136.007325173297, 172.91309510625544, 418.8269876035437, -4461.318786301468, -1485.9216196443583, -2306.834138254421, -4241.779952261442, -3606.409264374884, -2643.294947540158, -3033.310536540811, -2035.9980506894651, -8046.426838210445, -14890.508638681013, 0.01525, -0.10300000000000001, 0.986, 192.0, 0.0, 0.0, 0.0, 0.0, 0.0, 0.0, 0.0, 0.0, 0.0, 1.645923064123611E9, 0.0, 2022-02-27 11:51:04.123
214.0, -136.61386211083678, -2595.41751091689, -2039.8201989913225, -9056.233949212306, 279.32975045797235, 484.92109595788673, -4395.448195391678, -1447.029584292124, -2154.059964902397, -3968.3063588507607, -3332.622746541828, -2336.0031647685964, -2738.7592481087745, -1746.0065181263112, -7784.352634471969, -14690.214656617005, 0.013625, -0.10450000000000001, 0.988, 192.0, 0.0, 48.0, 126.0, 88.0, 15.0, 120.0, 0.0, 0.0, 0.0, 1.645923064129723E9, 0.0, 2022-02-27 11:51:04.129
216.0, -397.4810716487255, -2846.807580805729, -2267.6515302242674, -9285.786364768312, 32.85706434930138, 273.56300038850316, -4596.85976467845, -1638.4499238073736, -2376.862153632898, -4232.995716690507, -3562.3539760534736, -2577.424356630368, -2972.2902741778225, -1976.9223900940885, -7990.636884049998, -14925.220897820103, 0.013625, -0.10450000000000001, 0.988, 192.0, 0.0, 0.0, 0.0, 0.0, 0.0, 0.0, 0.0, 0.0, 0.0, 1.645923064137608E9, 0.0, 2022-02-27 11:51:04.137
218.0, -120.02886772499893, -2582.229981688259, -1984.4325762310716, -8996.063053138621, 350.18478038129575, 555.3961462254699, -4313.4396449851565, -1357.4661442597085, -2161.7713167394777, -4090.257476598916, -3468.0072627076224, -2496.108710301961, -2870.791002606273, -1887.7836332063239, -7894.524382892178, -14731.073645481307, 0.013625, -0.10450000000000001, 0.988, 192.0, 0.0, 0.0, 0.0, 0.0, 0.0, 0.0, 0.0, 0.0, 0.0, 1.645923064145576E9, 0.0, 2022-02-27 11:51:04.145
220.0, -369.0049492126643, -2831.787208531762, -2193.1084624658183, -9212.450291210449, 125.34858290536201, 345.11093438994106, -4527.323487677991, -1587.0632633046228, -2307.88467024382, -4100.785148237365, -3426.1424453428326, -2427.600613546445, -2812.855280978117, -1822.1812632299977, -7846.64694626891, -14812.255181342982, 0.013625, -0.10450000000000001, 0.988, 192.0, 0.0, 0.0, 0.0, 0.0, 0.0, 0.0, 0.0, 0.0, 0.0, 1.645923064152181E9, 0.0, 2022-02-27 11:51:04.152
222.0, -360.2207136417286, -2809.4801675653657, -2139.2631100729836, -9147.160845656497, 180.3338742654174, 427.0077260741861, -4456.848437410407, -1497.9692099057688, -2337.9030630472976, -4284.047101026428, -3636.695878111825, -2674.6320932664985, -3028.080228338269, -2036.2439198784734, -8038.939003817917, -14886.395917701235, 0.013625, -0.10450000000000001, 0.988, 192.0, 0.0, 0.0, 0.0, 0.0, 0.0, 0.0, 0.0, 0.0, 0.0, 1.645923064160412E9, 0.0, 2022-02-27 11:51:04.160
224.0, -293.6572186538242, -2754.092544805115, -2040.0660681803308, -9050.467199142839, 301.45797746872637, 516.7499800622439, -4376.918599238229, -1427.09182823799, -2196.729445067578, -4011.5346326273243, -3372.587665627917, -2378.0914995779394, -2732.2772422167354, -1751.0356606287553, -7771.232160476704, -14685.051403647829, 0.0138125, -0.10525000000000001, 0.988, 192.0, 0.0, 56.0, 126.0, 88.0, 15.0, 112.0, 0.0, 0.0, 0.0, 1.645923064174501E9, 0.0, 2022-02-27 11:51:04.174
226.0, -580.0724721041289, -3027.9237661270818, -2286.985789178108, -9292.134260193618, 43.18357028765325, 284.2024307492293, -4589.282523308101, -1606.4645774918292, -2429.3216978695036, -4276.648673611721, -3602.8776887509453, -2612.561298914111, -2967.7081665644846, -1969.2557417459182, -7975.504753053756, -14904.813755132409, 0.0138125, -0.10525000000000001, 0.988, 192.0, 0.0, 0.0, 0.0, 0.0, 0.0, 0.0, 0.0, 0.0, 0.0, 1.64592306418172E9, 0.0, 2022-02-27 11:51:04.181
228.0, -291.04206455255326, -2751.656204659487, -2002.2469165619514, -9005.78606197668, 343.8145332115332, 566.5049632197575, -4327.789464925464, -1347.5643214660074, -2228.670087894212, -4147.455590660046, -3524.311306990541, -2554.2232458857593, -2882.7268341454073, -1889.7729384628462, -7900.3358364505575, -14726.178613445594, 0.0138125, -0.10525000000000001, 0.988, 192.0, 0.0, 0.0, 0.0, 0.0, 0.0, 0.0, 0.0, 0.0, 0.0, 1.645923064189955E9, 0.0, 2022-02-27 11:51:04.189
230.0, -505.55175609013514, -2960.6226635721523, -2203.5020236375362, -9217.457081968438, 135.831551054901, 355.7950682395778, -4527.3905429113565, -1561.4258124143855, -2357.639653401334, -4139.967756267519, -3465.5932743064495, -2466.9396837877853, -2815.0457519347374, -1821.3095451962406, -7849.776190492653, -14808.902419674687, 0.0138125, -0.10525000000000001, 0.988, 192.0, 0.0, 0.0, 0.0, 0.0, 0.0, 0.0, 0.0, 0.0, 0.0, 1.645923064197897E9, 0.0, 2022-02-27 11:51:04.197
232.0, -454.29920605411604, -2903.6257152111193, -2154.7528689805113, -9159.163732428997, 193.99079012760998, 418.1564352698845, -4443.2809285260355, -1470.0742328255456, -2384.4617467477024, -4317.820586898397, -3674.850305897034, -2708.4055791384676, -3038.3620307877104, -2045.676356038613, -8039.900128829495, -14888.765202613498, 0.0138125, -0.10525000000000001, 0.988, 192.0, 0.0, 0.0, 0.0, 0.0, 0.0, 0.0, 0.0, 0.0, 0.0, 1.645923064204478E9, 0.0, 2022-02-27 11:51:04.204
234.0, -328.95062314875406, -2789.251838833313, -2052.7618590309453, -9067.678042373425, 295.9818000771761, 500.3437996320486, -4389.614390088844, -1434.4008486748755, -2216.577794143891, -4034.9145573275755, -3394.872354849858, -2401.7619969561097, -2743.386059211023, -1750.7674396952916, -7778.138849513394, -14681.586883257258, 0.012906250000000001, -0.105625, 0.989, 192.0, 0.0, 48.0, 126.0, 88.0, 15.0, 120.0, 0.0, 0.0, 0.0, 1.645923064212524E9, 0.0, 2022-02-27 11:51:04.212
236.0, -562.8169253846319, -3010.1094257962022, -2288.4163008232476, -9303.556001610279, 36.05336380641029, 268.4668026526931, -4587.2708663071235, -1625.731781212304, -2438.7988375185537, -4288.003359795018, -3615.7746453016575, -2633.460179979823, -2980.4263091595544, -1987.1147855657084, -7993.810831762652, -14927.411368776724, 0.012906250000000001, -0.105625, 0.989, 192.0, 0.0, 0.0, 0.0, 0.0, 0.0, 0.0, 0.0, 0.0, 0.0, 1.645923064220489E9, 0.0, 2022-02-27 11:51:04.220
238.0, -224.09858990890862, -2682.2093346368474, -1988.165317555108, -8992.665587981413, 347.2567018576505, 565.4767829748134, -4321.2404038000595, -1347.6537284438286, -2211.0345615189744, -4120.901718247142, -3514.9459260637673, -2545.7742864816532, -2887.063072569737, -1908.3248863607512, -7905.90142081993, -14736.527471128402, 0.012906250000000001, -0.105625, 0.989, 192.0, 0.0, 0.0, 0.0, 0.0, 0.0, 0.0, 0.0, 0.0, 0.0, 1.645923064227615E9, 0.0, 2022-02-27 11:51:04.227
240.0, -421.173920771351, -2876.5577526757424, -2191.834413031866, -9202.213192249917, 126.66733582822512, 349.7153937477343, -4547.216540243214, -1579.21780100081, -2319.3958186383034, -4116.274907144893, -3436.3348408144525, -2434.552006072045, -2803.6463622625306, -1808.0549607342437, -7842.936556689329, -14801.436937026614, 0.012906250000000001, -0.105625, 0.989, 192.0, 0.0, 0.0, 0.0, 0.0, 0.0, 0.0, 0.0, 0.0, 0.0, 1.645923064234219E9, 0.0, 2022-02-27 11:51:04.234
242.0, -359.77367875262246, -2813.771702500785, -2146.7956479544223, -9152.078229436664, 172.71192940615768, 416.9941445582086, -4479.669568499276, -1515.4706258142742, -2343.5580543944902, -4289.970313307084, -3648.765820117691, -2680.264732869236, -3032.2600045514114, -2032.5782337878031, -8050.40544872349, -14896.655368406222, 0.012906250000000001, -0.105625, 0.989, 192.0, 0.0, 0.0, 0.0, 0.0, 0.0, 0.0, 0.0, 0.0, 0.0, 1.645923064242223E9, 0.0, 2022-02-27 11:51:04.242
244.0, -231.9440522127214, -2695.3968638654787, -2037.5626728013365, -9054.579920122615, 306.53182346008106, 499.6955990428447, -4388.809727288452, -1419.9392700122917, -2174.1318314232626, -4002.482176122925, -3365.032776002023, -2372.078880319462, -2735.6300038850313, -1747.0570501157106, -7783.257398993659, -14685.878418192677, 0.010453125, -0.1028125, 0.9884999999999999, 192.0, 0.0, 32.0, 126.0, 112.0, 15.0, 112.0, 0.0, 0.0, 0.0, 1.645923064250178E9, 0.0, 2022-02-27 11:51:04.250
246.0, -477.9026481989203, -2926.6703637445407, -2278.0003879070746, -9289.899085748088, 43.29532900992978, 299.6698379123018, -4592.478822765211, -1613.5947839730723, -2397.403406787325, -4253.894597756219, -3579.050729161588, -2599.284362707658, -2965.0930124632137, -1967.8028783563232, -7982.970235701828, -14914.4697087371, 0.010453125, -0.1028125, 0.9884999999999999, 192.0, 0.0, 0.0, 0.0, 0.0, 0.0, 0.0, 0.0, 0.0, 0.0, 1.645923064257326E9, 0.0, 2022-02-27 11:51:04.257
248.0, -170.63321717181412, -2629.61567993351, -1996.5919252147587, -9004.44495730936, 335.29851857406123, 554.747945636266, -4336.640755729765, -1372.6876822337726, -2194.606029344324, -4114.531471077379, -3499.2997049450523, -2534.2184345982596, -2892.3604360056447, -1897.3725315776505, -7912.651647645432, -14732.571212359813, 0.010453125, -0.1028125, 0.9884999999999999, 192.0, 0.0, 0.0, 0.0, 0.0, 0.0, 0.0, 0.0, 0.0, 0.0, 1.645923064264779E9, 0.0, 2022-02-27 11:51:04.264
