%OpenBCI Raw EEG Data
%Number of channels = 16
%Sample Rate = 125 Hz
%Board = OpenBCI_GUI$BoardCytonSerialDaisy
Sample Index, EXG Channel 0, EXG Channel 1, EXG Channel 2, EXG Channel 3, EXG Channel 4, EXG Channel 5, EXG Channel 6, EXG Channel 7, EXG Channel 8, EXG Channel 9, EXG Channel 10, EXG Channel 11, EXG Channel 12, EXG Channel 13, EXG Channel 14, EXG Channel 15, Accel Channel 0, Accel Channel 1, Accel Channel 2, Other, Other, Other, Other, Other, Other, Other, Analog Channel 0, Analog Channel 1, Analog Channel 2, Timestamp, Other, Timestamp (Formatted)
0.0, -916.667391856598, -3541.1868740542977, -1718.6479829130153, -9295.151745695084, 196.65064771779154, 301.79325363555597, -4624.039485936104, -1455.925578585336, 0.0, 0.0, 0.0, 0.0, 0.0, 0.0, 0.0, 0.0, 0.0, 0.0, 0.0, 192.0, 0.0, 0.0, 0.0, 0.0, 0.0, 0.0, 0.0, 0.0, 0.0, 1.645922515551814E9, 0.0, 2022-02-27 11:41:55.551
156.0, -1260.5042768125866, -3803.462243492871, -1935.6610698295917, -9531.476739821046, -107.98127746358843, 142.380612180306, -4621.379628345922, -1400.2026796582556, -1932.7553430504017, -4679.181239507347, -3661.148686545931, -2743.6766318889418, -3147.974985596536, -1976.0506720603314, -8334.943155639548, -15052.69289644872, 0.004, -0.054, 0.485, 192.0, 0.0, 32.0, 126.0, 80.0, 15.0, 40.0, 0.0, 0.0, 0.0, 1.645922515551817E9, 0.0, 2022-02-27 11:41:55.551
0.0, -673.3015982272146, -1904.1451101476086, -1042.239492206513, -4815.079845795613, -104.38264660628398, 6.906689036689882, -2453.8639132814305, -850.5956352467102, -2084.03194952392, -2534.5090072761786, -1696.4974041578062, -1373.6711589898061, -1377.9850456696804, -870.2428186229251, -4254.118115200772, -7865.60122556701, 0.006, -0.11, 0.98, 192.0, 0.0, 24.0, 126.0, 72.0, 15.0, 80.0, 0.0, 0.0, 0.0, 1.645922515650605E9, 0.0, 2022-02-27 11:41:55.650
2.0, -1232.4304857767208, -3694.430434039883, -1938.5891483532369, -9469.562407679845, -65.42355602068378, 179.28334227601795, -4651.040393238115, -1349.1736470667895, -1723.274794015264, -4477.568504520476, -3637.120561256476, -2652.548569744655, -3136.5085406909634, -1894.913839687567, -8255.01331746737, -14917.643656449754, 0.006, -0.11, 0.98, 192.0, 0.0, 0.0, 0.0, 0.0, 0.0, 0.0, 0.0, 0.0, 0.0, 1.645922515656827E9, 0.0, 2022-02-27 11:41:55.656
4.0, -685.4609472109017, -3257.1409055162558, -1552.5745216100838, -9040.699486815869, 429.24290051971684, 496.7898722636548, -4502.736568777153, -1205.0272470745144, -2290.40560607977, -4185.744128911988, -3267.0874317988673, -2509.8326813975195, -2729.3044602041796, -1547.7465448077376, -8146.2273772033905, -14785.231922296516, 0.006, -0.11, 0.98, 192.0, 0.0, 0.0, 0.0, 0.0, 0.0, 0.0, 0.0, 0.0, 0.0, 1.64592251566466E9, 0.0, 2022-02-27 11:41:55.664
6.0, -1373.1123653784234, -3817.499139010804, -2085.50716465797, -9623.409464765724, -231.3852586013387, 45.41874473318395, -4834.369401260544, -1582.9058388359356, -3413.2454887921203, -4978.895780908559, -3598.0944154375097, -2729.483274159822, -3030.6059754617186, -1867.711766685458, -8483.694014989616, -15585.849056941159, 0.006, -0.11, 0.98, 192.0, 0.0, 0.0, 0.0, 0.0, 0.0, 0.0, 0.0, 0.0, 0.0, 1.645922515672632E9, 0.0, 2022-02-27 11:41:55.672
8.0, -869.3487488447129, -3393.643008904816, -1658.8123630061584, -9163.231749919862, 275.19467773374055, 433.3109180105827, -4488.118527903382, -1146.3539178793333, -1206.9494970976707, -4012.808682061277, -3410.3621137573855, -2516.3370390340137, -2925.6198317551416, -1666.7248805433371, -8067.728050676353, -14474.587377856658, 0.004, -0.112, 0.988, 192.0, 0.0, 16.0, 126.0, 64.0, 15.0, 112.0, 0.0, 0.0, 0.0, 1.645922515679142E9, 0.0, 2022-02-27 11:41:55.679
10.0, -1002.9227737096279, -3525.6524116578594, -1818.2250044614084, -9338.737647382934, 112.0045914655437, 251.94886350022122, -4733.563033767108, -1501.0761023850564, -3639.9368810578444, -4719.79435918264, -3332.063952930445, -2616.85283384953, -2740.8826638320284, -1622.826054433114, -8372.449382835553, -15429.364494009555, 0.004, -0.112, 0.988, 192.0, 0.0, 0.0, 0.0, 0.0, 0.0, 0.0, 0.0, 0.0, 0.0, 1.645922515687181E9, 0.0, 2022-02-27 11:41:55.687
12.0, -1231.268195065045, -3693.692826472858, -1940.5561018653038, -9469.87533210222, -69.87155316728987, 185.65358944578045, -4661.3445474320115, -1357.7567169376275, -1750.946253650934, -4475.690957986231, -3631.24205246473, -2650.9615958883282, -3134.7874563679047, -1887.2471913393965, -8255.438000612021, -14931.009999634029, 0.004, -0.112, 0.988, 192.0, 0.0, 0.0, 0.0, 0.0, 0.0, 0.0, 0.0, 0.0, 0.0, 1.645922515695312E9, 0.0, 2022-02-27 11:41:55.695
14.0, -682.3764064760693, -3256.805629349426, -1548.5512076081286, -9035.603289080058, 433.6461941774123, 503.45069211133625, -4501.194298409736, -1200.2216220166233, -2267.11508835734, -4171.439012460592, -3262.974710819091, -2500.3108382595587, -2731.450227671889, -1538.7164400477934, -8139.141874211058, -14771.575006434323, 0.004, -0.112, 0.988, 192.0, 0.0, 0.0, 0.0, 0.0, 0.0, 0.0, 0.0, 0.0, 0.0, 1.645922515701794E9, 0.0, 2022-02-27 11:41:55.701
16.0, -1370.0054728991358, -3815.845109921111, -2083.7860803349117, -9618.71559843011, -221.215214874174, 42.58007318735996, -4839.689116440906, -1584.381053969986, -3437.832407692958, -4983.500240266352, -3594.428729346839, -2724.945870035395, -3022.536995713353, -1865.8342201512123, -8479.380128309742, -15590.252350598856, 0.007, -0.111, 0.991, 192.0, 0.0, 40.0, 126.0, 72.0, 15.5, 8.0, 0.0, 0.0, 0.0, 1.645922515716811E9, 0.0, 2022-02-27 11:41:55.716
18.0, -873.282655868847, -3399.4768142076514, -1663.8415055086025, -9164.796372031733, 269.49498289763727, 428.88527260843193, -4479.624865010365, -1154.8252290278947, -1204.9378400966932, -4009.321809926249, -3417.894651638824, -2513.520719232645, -2931.1630643800577, -1672.983368990823, -8065.1576000639925, -14475.01206100131, 0.007, -0.111, 0.991, 192.0, 0.0, 0.0, 0.0, 0.0, 0.0, 0.0, 0.0, 0.0, 0.0, 1.645922515724894E9, 0.0, 2022-02-27 11:41:55.724
20.0, -997.6254102737201, -3520.0644755440326, -1815.006353259844, -9332.61326940218, 123.94042300467767, 252.08297396695306, -4719.772007438184, -1505.8817274429475, -3630.6832588533475, -4712.619449212486, -3334.388534353797, -2612.963630314306, -2738.893358575506, -1616.858138663547, -8366.593225788263, -15423.083653817614, 0.007, -0.111, 0.991, 192.0, 0.0, 0.0, 0.0, 0.0, 0.0, 0.0, 0.0, 0.0, 0.0, 1.645922515731435E9, 0.0, 2022-02-27 11:41:55.731
22.0, -1241.192369603201, -3702.6558759994364, -1947.8204188132786, -9477.094945561284, -76.53237301497138, 180.84796438788945, -4646.368878646956, -1345.4409057427533, -1784.9209052230008, -4491.627751782865, -3642.976718303766, -2657.1530291024483, -3137.3132034913547, -1899.5182990453602, -8260.713012303473, -14942.275278839503, 0.007, -0.111, 0.991, 192.0, 0.0, 0.0, 0.0, 0.0, 0.0, 0.0, 0.0, 0.0, 0.0, 1.6459225157395E9, 0.0, 2022-02-27 11:41:55.739
24.0, -680.096528541628, -3253.430515936675, -1543.7679342946929, -9032.36228613404, 433.8250081330548, 515.6323928394786, -4486.218629624681, -1179.3674444398218, -2233.0286780629967, -4164.77819261291, -3271.088394056367, -2501.584887693511, -2736.099390518593, -1548.6182628414945, -8135.878519520584, -14751.570195146824, 0.007, -0.111, 0.991, 192.0, 0.0, 0.0, 0.0, 0.0, 0.0, 0.0, 0.0, 0.0, 0.0, 1.6459225157476E9, 0.0, 2022-02-27 11:41:55.747
26.0, -1358.9190076493035, -3805.9209353829547, -2075.5606383753584, -9612.32299951589, -207.37948505633892, 51.43136399166155, -4815.459825451354, -1572.3334637085754, -3478.6243413238935, -4985.064862378224, -3586.672674020848, -2720.810797311163, -3010.9364403410486, -1854.4795339679163, -8477.055546886391, -15591.995786666368, 0.0095, -0.10650000000000001, 0.9924999999999999, 192.0, 0.0, 48.0, 126.0, 104.0, 15.5, 8.0, 0.0, 0.0, 0.0, 1.645922515754645E9, 0.0, 2022-02-27 11:41:55.754
28.0, -884.5032315854111, -3410.6973899242153, -1668.535371844217, -9172.418316890993, 258.4755728811709, 426.87361560745427, -4482.999978423117, -1142.7105835331183, -1194.454871947154, -4017.837824563721, -3424.4660645086847, -2515.577079722533, -2941.087238918214, -1674.726805058337, -8067.169257064969, -14476.129648224074, 0.0095, -0.10650000000000001, 0.9924999999999999, 192.0, 0.0, 0.0, 0.0, 0.0, 0.0, 0.0, 0.0, 0.0, 0.0, 1.645922515762116E9, 0.0, 2022-02-27 11:41:55.762
30.0, -986.6507037461644, -3510.9002603173567, -1798.6001728296487, -9315.916516294064, 134.04341149847644, 264.5775991174697, -4709.26668754419, -1478.187916062822, -3599.212002660275, -4682.086966286536, -3326.8559964723586, -2605.364037199502, -2736.5017219187885, -1603.9164786239241, -8358.121914639702, -15396.2839122157, 0.0095, -0.10650000000000001, 0.9924999999999999, 192.0, 0.0, 0.0, 0.0, 0.0, 0.0, 0.0, 0.0, 0.0, 0.0, 1.645922515769118E9, 0.0, 2022-02-27 11:41:55.769
32.0, -1252.4129453197654, -3708.757902235735, -1951.5084566484043, -9478.72662290652, -83.1931928626529, 175.23767652960737, -4659.3999456644, -1359.5895599829628, -1838.587443660193, -4509.397388624834, -3645.6142241494927, -2656.638938979976, -3143.169360538645, -1902.7816537358349, -8271.575960108752, -14966.81749425143, 0.0095, -0.10650000000000001, 0.9924999999999999, 192.0, 0.0, 0.0, 0.0, 0.0, 0.0, 0.0, 0.0, 0.0, 0.0, 1.645922515777193E9, 0.0, 2022-02-27 11:41:55.777
34.0, -676.3637872175917, -3245.4062396772197, -1539.7222685482823, -9025.41089360844, 440.172903558362, 520.0356864971741, -4479.758975477097, -1185.4694706761206, -2188.8169275303994, -4149.087268005284, -3269.032033566479, -2498.1874225363044, -2739.988594053816, -1542.9856232387572, -8130.4917491068545, -14733.755854815943, 0.0095, -0.10650000000000001, 0.9924999999999999, 192.0, 0.0, 0.0, 0.0, 0.0, 0.0, 0.0, 0.0, 0.0, 0.0, 1.645922515784273E9, 0.0, 2022-02-27 11:41:55.784
36.0, -1358.449621015742, -3803.395188259505, -2073.5042778854704, -9609.439624481158, -206.06073213347582, 53.64418669273695, -4824.422874977931, -1580.961237068324, -3499.0761875004996, -4983.522592010808, -3582.112918151965, -2721.4589979003667, -3005.2143937604897, -1845.427077463517, -8483.045814400413, -15598.433089069498, 0.01075, -0.10425000000000001, 0.99225, 192.0, 0.0, 48.0, 126.0, 104.0, 15.5, 0.0, 0.0, 0.0, 0.0, 1.645922515791777E9, 0.0, 2022-02-27 11:41:55.791
38.0, -895.5226416018775, -3416.6876574382377, -1673.3633486465633, -9178.833267549666, 263.6388258503468, 421.64330740491243, -4462.88340841334, -1148.7008510471405, -1191.7950143569726, -4019.044818764308, -3429.8751866668686, -2518.97454487974, -2942.540102307809, -1679.532430116228, -8064.934082619439, -14475.77202031279, 0.01075, -0.10425000000000001, 0.99225, 192.0, 0.0, 0.0, 0.0, 0.0, 0.0, 0.0, 0.0, 0.0, 0.0, 1.645922515799794E9, 0.0, 2022-02-27 11:41:55.799
40.0, -982.3144653218347, -3503.9712195362117, -1792.3193326377075, -9311.55792612528, 151.36601345133943, 278.1674597462964, -4696.839117627039, -1465.536828701118, -3592.819403746057, -4690.73709139074, -3329.314688362442, -2605.364037199502, -2736.032335285227, -1608.1633100704325, -8352.377516314687, -15385.130391732502, 0.01075, -0.10425000000000001, 0.99225, 192.0, 0.0, 0.0, 0.0, 0.0, 0.0, 0.0, 0.0, 0.0, 0.0, 1.645922515806909E9, 0.0, 2022-02-27 11:41:55.806
42.0, -1259.8337244789273, -3712.892974959967, -1951.843732815234, -9485.700367176578, -76.21944859259709, 184.24542954509613, -4659.869332297961, -1359.5895599829628, -1857.3852607471063, -4521.020295741594, -3649.81635210709, -2667.010148407239, -3141.783552382416, -1898.8030432227904, -8276.225122955457, -14974.90882574425, 0.01075, -0.10425000000000001, 0.99225, 192.0, 0.0, 0.0, 0.0, 0.0, 0.0, 0.0, 0.0, 0.0, 0.0, 1.645922515814512E9, 0.0, 2022-02-27 11:41:55.814
44.0, -691.0041798358178, -3266.6627486542166, -1538.6940883033383, -9031.9823064783, 451.9075693973982, 522.7402475762663, -4452.266329797069, -1159.5414471079646, -2180.636189059757, -4143.2087592135385, -3275.5140394585183, -2504.3341522615137, -2742.3802307105343, -1542.896216260936, -8128.03305721677, -14725.977447745498, 0.01075, -0.10425000000000001, 0.99225, 192.0, 0.0, 0.0, 0.0, 0.0, 0.0, 0.0, 0.0, 0.0, 0.0, 1.645922515822353E9, 0.0, 2022-02-27 11:41:55.822
46.0, -1365.8256966859933, -3817.0074006327873, -2074.331292430317, -9615.206374550626, -205.61369724436966, 50.73845991354703, -4812.755264372261, -1574.143955009455, -3531.7097344052477, -4991.636275248084, -3583.476374563739, -2723.9176897904504, -3008.589507173241, -1852.400821733573, -8482.308206833388, -15605.473888572918, 0.012375, -0.10312500000000001, 0.9901249999999999, 192.0, 0.0, 56.0, 126.0, 104.0, 15.0, 112.0, 0.0, 0.0, 0.0, 1.645922515836559E9, 0.0, 2022-02-27 11:41:55.836
48.0, -913.2028714660254, -3439.084105382455, -1679.6441888385045, -9190.143250244051, 253.91581701228824, 411.9873538002198, -4468.538399760532, -1152.3218336489003, -1193.6278574023077, -4025.1468450006064, -3431.5962709899272, -2522.5061205036786, -2952.374869868144, -1684.0251307517447, -8071.684309444941, -14483.572779127691, 0.012375, -0.10312500000000001, 0.9901249999999999, 192.0, 0.0, 0.0, 0.0, 0.0, 0.0, 0.0, 0.0, 0.0, 0.0, 1.645922515844057E9, 0.0, 2022-02-27 11:41:55.844
50.0, -988.6176572582314, -3518.7457226211695, -1788.4077773580286, -9312.072016247752, 152.68476637420255, 280.31322721400585, -4707.210327054301, -1460.7088518987719, -3587.3879298434176, -4684.4115477098885, -3328.979412195613, -2612.8518715920295, -2743.54252142221, -1595.2887052641756, -8355.260891349422, -15382.09055448658, 0.012375, -0.10312500000000001, 0.9901249999999999, 192.0, 0.0, 0.0, 0.0, 0.0, 0.0, 0.0, 0.0, 0.0, 0.0, 1.645922515852246E9, 0.0, 2022-02-27 11:41:55.852
52.0, -1284.1077189573907, -3738.619832828025, -1962.7066806205132, -9499.670207461144, -85.4283673081836, 169.0015398265767, -4648.626404836941, -1361.4000512838427, -1907.7660927493685, -4548.401182699345, -3659.9416923453446, -2683.3716253485236, -3156.4462967450972, -1915.8574242421896, -8285.568152137776, -14997.81936381094, 0.012375, -0.10312500000000001, 0.9901249999999999, 192.0, 0.0, 0.0, 0.0, 0.0, 0.0, 0.0, 0.0, 0.0, 0.0, 1.645922515859933E9, 0.0, 2022-02-27 11:41:55.859
54.0, -700.7271886738764, -3273.1224028018005, -1541.6668703158941, -9031.065884955631, 446.8560751504988, 521.6897155868669, -4452.400440263801, -1166.13521172228, -2163.805325484911, -4144.572215625312, -3281.616065694817, -2507.8657278854525, -2756.215960528369, -1550.2275884422766, -8126.89311824955, -14720.881250009686, 0.012375, -0.10312500000000001, 0.9901249999999999, 192.0, 0.0, 0.0, 0.0, 0.0, 0.0, 0.0, 0.0, 0.0, 0.0, 1.645922515866639E9, 0.0, 2022-02-27 11:41:55.866
56.0, -1373.090013633968, -3819.6002029896026, -2075.8288593088223, -9612.747682660542, -194.77310118354575, 54.80647740441292, -4820.2878022537, -1580.827126601592, -3565.214999343753, -4995.190202616478, -3580.7494617401912, -2723.962393279361, -3005.1026350382135, -1847.1034582976652, -8484.766898723472, -15615.42041485553, 0.013187500000000001, -0.1005625, 0.9890625, 192.0, 0.0, 56.0, 126.0, 120.0, 15.0, 112.0, 0.0, 0.0, 0.0, 1.645922515874667E9, 0.0, 2022-02-27 11:41:55.874
58.0, -919.7072291025197, -3441.341631572441, -1687.3555406755854, -9192.736052600867, 246.71855529767936, 411.27209797764993, -4482.843516211929, -1148.9467202361488, -1197.6735231487182, -4029.6171938916677, -3441.051058894522, -2517.87930940143, -2964.6459775741077, -1693.0328837672334, -8079.350957793112, -14486.098526251142, 0.013187500000000001, -0.1005625, 0.9890625, 192.0, 0.0, 0.0, 0.0, 0.0, 0.0, 0.0, 0.0, 0.0, 0.0, 1.645922515882611E9, 0.0, 2022-02-27 11:41:55.882
60.0, -972.6808634615975, -3504.1723852363093, -1781.232867387875, -9297.275161418338, 161.69251938969128, 293.3889977203605, -4678.868315084972, -1446.4931424251965, -3563.6280254874264, -4668.072422513059, -3318.742313235082, -2601.6759993643764, -2743.9448528224057, -1608.7444554262706, -8350.455266291532, -15363.628013566497, 0.013187500000000001, -0.1005625, 0.9890625, 192.0, 0.0, 0.0, 0.0, 0.0, 0.0, 0.0, 0.0, 0.0, 0.0, 1.645922515889788E9, 0.0, 2022-02-27 11:41:55.889
62.0, -1297.2505446971113, -3750.2874434336954, -1976.3635964827058, -9506.040454630907, -106.17078616270855, 169.6497404157806, -4647.955852503283, -1364.8645716744152, -1951.8884363041445, -4569.52358120961, -3658.7794016336684, -2675.0567764111493, -3165.163477082667, -1921.0877324447315, -8291.714881862985, -15017.175974509237, 0.013187500000000001, -0.1005625, 0.9890625, 192.0, 0.0, 0.0, 0.0, 0.0, 0.0, 0.0, 0.0, 0.0, 0.0, 1.645922515896525E9, 0.0, 2022-02-27 11:41:55.896
64.0, -716.5745754926892, -3287.963961120124, -1547.7018413188268, -9042.711143816847, 443.32449952656026, 517.4428841403585, -4453.830951908941, -1160.9943104975594, -2138.480799017048, -4144.259291202938, -3296.3235135464092, -2515.264155300159, -2773.2703415477686, -1574.0098445427234, -8121.126368180081, -14710.688854538066, 0.013187500000000001, -0.1005625, 0.9890625, 192.0, 0.0, 0.0, 0.0, 0.0, 0.0, 0.0, 0.0, 0.0, 0.0, 1.645922515904266E9, 0.0, 2022-02-27 11:41:55.904
66.0, -1374.900504934848, -3822.751798957801, -2069.9727022615316, -9616.167499562205, -197.63412447382504, 53.1748000591755, -4822.902956354971, -1602.8882983789802, -3607.6609620643812, -5011.730493513405, -3587.3879298434176, -2739.2733382312463, -3013.819815375783, -1857.9217026140336, -8486.465631302075, -15629.546717351284, 0.015593750000000002, -0.10028125, 0.98953125, 192.0, 0.0, 72.0, 126.0, 112.0, 15.0, 120.0, 0.0, 0.0, 0.0, 1.645922515912229E9, 0.0, 2022-02-27 11:41:55.912
68.0, -935.085229287771, -3451.1987508772318, -1690.6412471105157, -9200.827384093689, 238.20254066020738, 413.3061067230829, -4473.232266096147, -1157.4403831291656, -1201.9650580841374, -4042.9611853314864, -3454.8420852234467, -2523.2884315596143, -2979.1746114700572, -1702.465319927373, -8076.154658336003, -14497.453212434437, 0.015593750000000002, -0.10028125, 0.98953125, 192.0, 0.0, 0.0, 0.0, 0.0, 0.0, 0.0, 0.0, 0.0, 0.0, 1.645922515918928E9, 0.0, 2022-02-27 11:41:55.918
70.0, -960.3874040111785, -3490.7836903075804, -1769.4758498043836, -9285.719309534945, 172.55546719497053, 291.4667476972041, -4670.128783002947, -1446.7613633586602, -3545.6572229453595, -4659.221131708758, -3321.3798190808084, -2599.887859807952, -2746.5600069236766, -1602.2400977897762, -8342.408638287621, -15348.697048270351, 0.015593750000000002, -0.10028125, 0.98953125, 192.0, 0.0, 0.0, 0.0, 0.0, 0.0, 0.0, 0.0, 0.0, 0.0, 1.645922515926984E9, 0.0, 2022-02-27 11:41:55.926
72.0, -1288.6898265707287, -3741.4138008849386, -1969.9486458240326, -9508.767367454455, -110.93170773168895, 156.48456293160476, -4672.0286812816485, -1371.480688033186, -1979.358730239717, -4577.726671424708, -3660.433430723361, -2670.295854842169, -3170.7067097075833, -1920.3948283666168, -8300.722634878473, -15031.950477594195, 0.015593750000000002, -0.10028125, 0.98953125, 192.0, 0.0, 0.0, 0.0, 0.0, 0.0, 0.0, 0.0, 0.0, 0.0, 1.645922515934984E9, 0.0, 2022-02-27 11:41:55.934
74.0, -700.190746806949, -3272.36244349032, -1535.4530853573187, -9035.916213502433, 439.16707505787315, 515.878262028487, -4462.525780502055, -1164.302368676945, -2104.997885822998, -4129.395381140159, -3285.2146965521215, -2507.9551348632735, -2773.091527592126, -1560.6882048473603, -8124.568536826198, -14705.7714707579, 0.015593750000000002, -0.10028125, 0.98953125, 192.0, 0.0, 0.0, 0.0, 0.0, 0.0, 0.0, 0.0, 0.0, 0.0, 1.645922515942121E9, 0.0, 2022-02-27 11:41:55.942
76.0, -1362.3835280398762, -3820.9860111458315, -2065.211780692551, -9608.053816324928, -200.02576113054292, 53.42066924818388, -4810.698903882373, -1591.5559639401395, -3625.8776337954564, -5000.50991779684, -3569.2383133457083, -2723.4259514124337, -3001.7722251143728, -1848.9586530874556, -8491.315959848876, -15637.928621522025, 0.013796875, -0.103140625, 0.990765625, 192.0, 0.0, 48.0, 126.0, 88.0, 15.5, 0.0, 0.0, 0.0, 0.0, 1.645922515949543E9, 0.0, 2022-02-27 11:41:55.949
78.0, -957.3699185097121, -3477.7302715456813, -1707.0697792851663, -9212.182070276986, 210.01699090206517, 397.07874024853, -4492.007731438605, -1143.5375980779647, -1210.9281076107154, -4067.3916420211367, -3474.7574895331254, -2538.5099695336785, -3000.408768702599, -1720.659639913993, -8089.0516148867155, -14509.478450951392, 0.013796875, -0.103140625, 0.990765625, 192.0, 0.0, 0.0, 0.0, 0.0, 0.0, 0.0, 0.0, 0.0, 0.0, 1.645922515964563E9, 0.0, 2022-02-27 11:41:55.964
80.0, -942.2377875134692, -3480.121908202399, -1754.656643230515, -9266.139181392096, 185.54183072350392, 313.9749543636983, -4665.21139922278, -1435.0490492640793, -3507.9051265603457, -4641.540901844609, -3320.0387144134897, -2588.264952691192, -2744.8836260895287, -1595.6910366643713, -8344.733219710974, -15337.789396976163, 0.013796875, -0.103140625, 0.990765625, 192.0, 0.0, 0.0, 0.0, 0.0, 0.0, 0.0, 0.0, 0.0, 0.0, 1.64592251597176E9, 0.0, 2022-02-27 11:41:55.971
82.0, -1291.2155736941784, -3744.855969531056, -1979.5151924509041, -9511.293114577904, -116.76551303452409, 156.9539495651662, -4662.506838143688, -1385.159955639834, -2041.7871525033895, -4595.272790822124, -3662.1992185353306, -2669.602950764054, -3161.274273547444, -1909.554232305793, -8315.810062385806, -15065.321632065969, 0.013796875, -0.103140625, 0.990765625, 192.0, 0.0, 0.0, 0.0, 0.0, 0.0, 0.0, 0.0, 0.0, 0.0, 1.645922515979136E9, 0.0, 2022-02-27 11:41:55.979
84.0, -703.1858805639602, -3282.2419145395656, -1541.890387760447, -9031.781140778201, 436.52956921214695, 522.4496748983473, -4443.325632014947, -1149.684327803174, -2031.2371291204847, -4106.015456439907, -3285.773490163504, -2494.007646323162, -2777.807745672196, -1555.3461379225419, -8119.382932112567, -14675.060173876307, 0.013796875, -0.103140625, 0.990765625, 192.0, 0.0, 0.0, 0.0, 0.0, 0.0, 0.0, 0.0, 0.0, 0.0, 1.645922515987226E9, 0.0, 2022-02-27 11:41:55.987
86.0, -1365.8256966859933, -3822.036543135231, -2070.866772039744, -9606.444490724147, -195.48835700611556, 58.047480350432444, -4816.152729529468, -1589.6113621725276, -3646.731811372258, -5004.622638776617, -3571.4287843023285, -2723.023620012238, -3001.012265802892, -1842.2531297508633, -8494.981645939546, -15631.200746440978, 0.01, -0.10200000000000001, 0.988, 192.0, 0.0, 40.0, 126.0, 104.0, 15.0, 112.0, 0.0, 0.0, 0.0, 1.645922515995154E9, 0.0, 2022-02-27 11:41:55.995
88.0, -948.1609997941256, -3465.9509022177344, -1709.7072851308926, -9213.076140055196, 215.98490667163216, 397.4140164153596, -4481.345949333424, -1159.3849848967773, -1198.813462115939, -4047.4315342225477, -3471.605893564927, -2533.0561438865834, -2997.950076812515, -1717.3739334790628, -8092.717300977386, -14505.790413116267, 0.01, -0.10200000000000001, 0.988, 192.0, 0.0, 0.0, 0.0, 0.0, 0.0, 0.0, 0.0, 0.0, 0.0, 1.645922516001944E9, 0.0, 2022-02-27 11:41:56.001
90.0, -936.8063136108296, -3476.9703122342007, -1758.29997757673, -9268.731983748912, 192.7390924381128, 317.17125382080724, -4666.910131801383, -1424.2978601810767, -3494.2705624426085, -4638.165788431858, -3318.7199614906267, -2590.0530922476164, -2747.744649379808, -1598.8426326325696, -8346.387248800665, -15327.395835804444, 0.01, -0.10200000000000001, 0.988, 192.0, 0.0, 0.0, 0.0, 0.0, 0.0, 0.0, 0.0, 0.0, 0.0, 1.645922516009824E9, 0.0, 2022-02-27 11:41:56.009
92.0, -1301.2738586990665, -3759.6751761049245, -1984.320817508795, -9516.232850102526, -106.81898675191245, 157.15511526526396, -4664.6302538669415, -1380.3096270930323, -2048.9844142179986, -4612.058950908059, -3669.284721527663, -2684.064529426638, -3164.8282009158374, -1918.5396335768264, -8322.336771766755, -15067.176826855759, 0.01, -0.10200000000000001, 0.988, 192.0, 0.0, 0.0, 0.0, 0.0, 0.0, 0.0, 0.0, 0.0, 0.0, 1.645922516016839E9, 0.0, 2022-02-27 11:41:56.016
94.0, -693.4852234703569, -3266.1710102762, -1533.441428356341, -9024.181547663396, 438.6306331909458, 528.1717214789059, -4461.877579912851, -1157.7309558070847, -2033.8969867106662, -4108.9882384524635, -3285.035882596479, -2497.360407991458, -2771.3704432690674, -1562.4763444037849, -8126.289621149257, -14681.542179768347, 0.01, -0.10200000000000001, 0.988, 192.0, 0.0, 0.0, 0.0, 0.0, 0.0, 0.0, 0.0, 0.0, 0.0, 1.645922516025027E9, 0.0, 2022-02-27 11:41:56.025
96.0, -1346.223216798689, -3806.9938191168094, -2054.482943354004, -9595.246266752038, -177.8528306308783, 65.93764614315583, -4832.6259651930295, -1614.5782607291058, -3651.5150846856936, -4996.128975883601, -3551.1334003369097, -2715.6698960864423, -2979.8675155481715, -1837.6039669041595, -8497.082709918346, -15642.913060535559, 0.012, -0.10400000000000001, 0.986, 192.0, 0.0, 48.0, 126.0, 96.0, 15.0, 104.0, 0.0, 0.0, 0.0, 1.645922516031488E9, 0.0, 2022-02-27 11:41:56.031
98.0, -951.3349475067791, -3475.472745355695, -1708.2991252302081, -9215.266611011817, 221.97517418565445, 399.00099027168636, -4468.605454993899, -1161.1954761976572, -1180.8650113183273, -4055.455810482003, -3461.0335184375667, -2528.3846292954245, -2986.416576673577, -1715.3175729891746, -8086.034129385249, -14511.333645741182, 0.012, -0.10400000000000001, 0.986, 192.0, 0.0, 0.0, 0.0, 0.0, 0.0, 0.0, 0.0, 0.0, 0.0, 1.645922516039558E9, 0.0, 2022-02-27 11:41:56.039
100.0, -929.7655141074079, -3472.902294743335, -1748.0628786161994, -9255.946785920476, 214.17441537075229, 328.54829174855854, -4665.814896323072, -1416.4747496217192, -3472.2317424096755, -4628.912166227361, -3316.998877167568, -2601.7654063421974, -2735.7864660962186, -1595.98160934229, -8329.802254414828, -15310.78848967415, 0.012, -0.10400000000000001, 0.986, 192.0, 0.0, 0.0, 0.0, 0.0, 0.0, 0.0, 0.0, 0.0, 0.0, 1.645922516047456E9, 0.0, 2022-02-27 11:41:56.047
102.0, -1305.4759866566642, -3764.011414529254, -1992.8144804018118, -9516.344608824804, -114.93266998918891, 157.15511526526396, -4659.332890431034, -1369.156106609834, -2086.22242048054, -4618.25038412218, -3670.022329094688, -2687.5290498172108, -3165.074070104846, -1919.52311033286, -8323.722579922984, -15079.850265961919, 0.012, -0.10400000000000001, 0.986, 192.0, 0.0, 0.0, 0.0, 0.0, 0.0, 0.0, 0.0, 0.0, 0.0, 1.64592251605401E9, 0.0, 2022-02-27 11:41:56.054
104.0, -696.0109705938066, -3274.7987836359484, -1540.2587104152096, -9019.174756905408, 448.19717981781724, 530.8986343024534, -4432.775608632041, -1134.105161917825, -2002.8727654067, -4100.00283718143, -3291.204964066144, -2491.548954433078, -2781.384024785045, -1558.2071612128213, -8116.097225677637, -14657.916385879087, 0.012, -0.10400000000000001, 0.986, 192.0, 0.0, 0.0, 0.0, 0.0, 0.0, 0.0, 0.0, 0.0, 0.0, 1.645922516062069E9, 0.0, 2022-02-27 11:41:56.062
106.0, -1348.7266121776834, -3811.4865197523263, -2058.997995733976, -9591.55822891691, -177.15992655276378, 63.09897459733184, -4808.2849154812, -1597.054493076145, -3675.9455413753444, -4994.586705516184, -3549.859350902957, -2709.389055894501, -2974.994835256915, -1820.8401585626793, -8496.434509329141, -15638.554470366773, 0.004, -0.106, 0.988, 192.0, 0.0, 16.0, 126.0, 88.0, 15.0, 112.0, 0.0, 0.0, 0.0, 1.645922516069984E9, 0.0, 2022-02-27 11:41:56.069
108.0, -962.4661162455221, -3489.0849577289773, -1715.3846282225404, -9223.469701226915, 209.30173507949533, 386.90869652136524, -4490.800737238019, -1165.9340460221822, -1189.0010463000592, -4076.287636314349, -3467.739041774159, -2535.0901526320163, -2999.112367524191, -1735.6800121879594, -8096.248876601324, -14513.099433553152, 0.004, -0.106, 0.988, 192.0, 0.0, 0.0, 0.0, 0.0, 0.0, 0.0, 0.0, 0.0, 0.0, 1.645922516083776E9, 0.0, 2022-02-27 11:41:56.083
110.0, -922.1212175036928, -3474.73513778867, -1736.5070267328058, -9249.26361432834, 219.6729445067578, 325.73197194718983, -4667.647739368408, -1434.0655725080458, -3444.8508554519244, -4623.547747558087, -3304.8171764394256, -2591.9529905263175, -2738.4463236864, -1598.3061907656422, -8335.501949250931, -15303.345358770533, 0.004, -0.106, 0.988, 192.0, 0.0, 0.0, 0.0, 0.0, 0.0, 0.0, 0.0, 0.0, 0.0, 1.645922516090998E9, 0.0, 2022-02-27 11:41:56.090
112.0, -1325.4584461997088, -3784.597371172592, -1996.5695734703033, -9533.26487937747, -129.1483794627642, 146.7839058380015, -4681.058786041593, -1386.389301584876, -2127.282575044939, -4648.224073436746, -3671.274026784185, -2695.9556574768612, -3170.6396544742174, -1931.3471831497175, -8332.685629449563, -15104.012501718105, 0.004, -0.106, 0.988, 192.0, 0.0, 0.0, 0.0, 0.0, 0.0, 0.0, 0.0, 0.0, 0.0, 1.645922516099105E9, 0.0, 2022-02-27 11:41:56.099
114.0, -708.99733412234, -3285.773490163504, -1540.6610418154053, -9032.719914045325, 436.6860314233341, 521.2203289533054, -4442.923300614751, -1142.7552870220288, -1984.1196518086974, -4111.156357664628, -3296.6587897132385, -2512.4478354987905, -2792.4704900348775, -1571.506449163729, -8116.387798355556, -14659.726877179966, 0.004, -0.106, 0.988, 192.0, 0.0, 0.0, 0.0, 0.0, 0.0, 0.0, 0.0, 0.0, 0.0, 1.645922516107032E9, 0.0, 2022-02-27 11:41:56.107
116.0, -1342.6692894302953, -3805.5186039827595, -2053.7229840425234, -9594.598066162833, -171.1696590387415, 60.32735828487376, -4820.868947609538, -1604.9446588688684, -3711.7977394816567, -5010.389388846086, -3549.2558538026638, -2724.901166546484, -2983.4884981499313, -1823.8129405752352, -8494.288741861432, -15650.95968853947, 0.008, -0.11, 0.988, 192.0, 0.0, 32.0, 126.0, 72.0, 15.0, 112.0, 0.0, 0.0, 0.0, 1.645922516115152E9, 0.0, 2022-02-27 11:41:56.115
118.0, -967.1376308366813, -3491.543649619061, -1717.6868579014372, -9225.749579161356, 200.40574078628313, 379.66673131784574, -4495.516955318089, -1171.1867059691795, -1193.6725608912184, -4077.8075549373098, -3471.1365069313656, -2539.8510742009967, -3012.7022281530176, -1738.6304424560599, -8101.009798170305, -14531.181994817496, 0.008, -0.11, 0.988, 192.0, 0.0, 0.0, 0.0, 0.0, 0.0, 0.0, 0.0, 0.0, 0.0, 1.645922516121671E9, 0.0, 2022-02-27 11:41:56.121
120.0, -907.8161010522964, -3461.704070771226, -1726.6052039391047, -9237.975983378408, 228.72540101115717, 330.403486538349, -4653.4767333837435, -1420.1851392013002, -3421.158006329299, -4599.430215290811, -3297.999894380557, -2585.1133567229936, -2740.0556492871824, -1591.2653912622204, -8330.897489893137, -15292.750631898718, 0.008, -0.11, 0.988, 192.0, 0.0, 0.0, 0.0, 0.0, 0.0, 0.0, 0.0, 0.0, 0.0, 1.64592251612972E9, 0.0, 2022-02-27 11:41:56.129
122.0, -1316.8083210955049, -3785.267923506251, -1991.5627827123146, -9531.901422965697, -131.78588530849044, 130.6459463412698, -4697.64378042743, -1436.6583748648613, -2165.9957964415307, -4658.72939333074, -3666.244884281741, -2685.964427705339, -3170.81846842986, -1925.6698400580694, -8343.615632488207, -15130.141690986358, 0.008, -0.11, 0.988, 192.0, 0.0, 0.0, 0.0, 0.0, 0.0, 0.0, 0.0, 0.0, 0.0, 1.645922516136772E9, 0.0, 2022-02-27 11:41:56.136
124.0, -713.0877033576612, -3297.396397280264, -1538.1352946919556, -9033.077541956609, 433.5567871995911, 522.7402475762663, -4466.9961293931165, -1142.7552870220288, -1967.847581845234, -4108.541203563357, -3288.1427750757666, -2507.038713340606, -2793.5210220242766, -1565.9408647943576, -8119.271173390291, -14664.107819093208, 0.008, -0.11, 0.988, 192.0, 0.0, 0.0, 0.0, 0.0, 0.0, 0.0, 0.0, 0.0, 0.0, 1.645922516144897E9, 0.0, 2022-02-27 11:41:56.144
126.0, -1351.3417662789543, -3826.3727815595607, -2052.963024731043, -9595.648598152233, -182.72551092213524, 71.05619562342115, -4813.71638938384, -1586.2809522486868, -3731.0425914576763, -5022.727551785416, -3549.7252404362252, -2732.0537247721822, -2984.9860650284368, -1825.6681353650256, -8499.496698319519, -15646.33287743722, 0.008, -0.106, 0.986, 192.0, 0.0, 32.0, 126.0, 88.0, 15.0, 104.0, 0.0, 0.0, 0.0, 1.645922516151354E9, 0.0, 2022-02-27 11:41:56.151
128.0, -983.8120322003404, -3508.150995749354, -1725.465264971884, -9237.01485836683, 190.34745578139496, 375.755176038167, -4483.536420290044, -1161.8883802757716, -1206.4354069751987, -4095.5324882903683, -3488.7720333066027, -2564.1921239128264, -3020.927670112571, -1739.435105256451, -8097.232353357358, -14524.320009269717, 0.008, -0.106, 0.986, 192.0, 0.0, 0.0, 0.0, 0.0, 0.0, 0.0, 0.0, 0.0, 0.0, 1.645922516159315E9, 0.0, 2022-02-27 11:41:56.159
130.0, -908.8666330416958, -3468.2307801521756, -1725.4205614829734, -9236.344306033172, 229.35124985590576, 336.371402307916, -4648.536997859121, -1404.024827960113, -3417.5370237275392, -4606.62747700542, -3312.2826590874984, -2597.026836517672, -2741.955547565883, -1588.4937749497624, -8321.040370588347, -15279.876027092461, 0.008, -0.106, 0.986, 192.0, 0.0, 0.0, 0.0, 0.0, 0.0, 0.0, 0.0, 0.0, 0.0, 1.645922516167465E9, 0.0, 2022-02-27 11:41:56.167
132.0, -1326.5313299335635, -3786.9666560848545, -1996.614276959214, -9543.814902760376, -138.80433306745687, 126.86850152832288, -4689.150117534414, -1411.155034441356, -2205.3348666828715, -4679.270646485168, -3672.1010413290314, -2702.5270703467218, -3171.489020763519, -1923.0546859567985, -8341.380458042677, -15139.216499235214, 0.008, -0.106, 0.986, 192.0, 0.0, 0.0, 0.0, 0.0, 0.0, 0.0, 0.0, 0.0, 0.0, 1.645922516175849E9, 0.0, 2022-02-27 11:41:56.175
134.0, -713.1547585910272, -3292.456661755641, -1531.6532887999165, -9037.391428636483, 437.20012154580616, 515.9676690063083, -4446.790152405519, -1141.168313165702, -1911.4764823289495, -4099.511098803413, -3290.8920396437693, -2508.4468732412906, -2789.810632444696, -1572.8699055755028, -8106.530679050766, -14642.13605429364, 0.008, -0.106, 0.986, 192.0, 0.0, 0.0, 0.0, 0.0, 0.0, 0.0, 0.0, 0.0, 0.0, 1.645922516182039E9, 0.0, 2022-02-27 11:41:56.182
136.0, -1345.5750162094853, -3819.399037289505, -2044.2681961379287, -9589.70303412712, -174.3436067513951, 65.8258874208793, -4824.132302300012, -1603.760016412737, -3745.884149776, -5025.99090647589, -3533.7884466395913, -2728.835073570618, -2964.377756640644, -1824.8411208201792, -8495.674550017662, -15654.871243819147, 0.002, -0.098, 0.99, 192.0, 0.0, 8.0, 126.0, 120.0, 15.0, 120.0, 0.0, 0.0, 0.0, 1.645922516190007E9, 0.0, 2022-02-27 11:41:56.190
138.0, -1004.9344307106055, -3525.8088738690467, -1734.271852287275, -9249.889463173087, 171.8402113724007, 364.71341427724536, -4512.414874126301, -1189.1128050223358, -1208.0670843204362, -4119.091226946262, -3492.21420195272, -2559.453554088301, -3023.855748636216, -1743.1231430915766, -8104.764891238796, -14540.189747832985, 0.002, -0.098, 0.99, 192.0, 0.0, 0.0, 0.0, 0.0, 0.0, 0.0, 0.0, 0.0, 0.0, 1.645922516198092E9, 0.0, 2022-02-27 11:41:56.198
140.0, -904.6421533396427, -3462.553437060528, -1716.3457532341188, -9221.68156167049, 235.1850551587409, 350.45300131475943, -4654.862541539972, -1401.4767290922082, -3382.9141715662686, -4596.233915833702, -3311.7238654761154, -2593.5623161270996, -2739.54155916471, -1588.2702575052092, -8318.40286474262, -15261.145265238914, 0.002, -0.098, 0.99, 192.0, 0.0, 0.0, 0.0, 0.0, 0.0, 0.0, 0.0, 0.0, 0.0, 1.645922516211603E9, 0.0, 2022-02-27 11:41:56.211
142.0, -1346.7149551767059, -3805.4739004938488, -2010.4053032881384, -9547.748809784509, -145.10752500385345, 130.89181553027817, -4689.820669868072, -1419.2463659341772, -2265.483411012103, -4703.231716541257, -3686.629675224981, -2705.611611081554, -3169.4773637625417, -1931.5036453609046, -8353.137475626168, -15160.33889774548, 0.002, -0.098, 0.99, 192.0, 0.0, 0.0, 0.0, 0.0, 0.0, 0.0, 0.0, 0.0, 0.0, 1.645922516219762E9, 0.0, 2022-02-27 11:41:56.219
144.0, -724.6659069855103, -3309.265173586032, -1542.538588349651, -9040.006582737755, 440.59758670301284, 522.1814539648836, -4436.396591233801, -1136.2956328744451, -1898.490118800416, -4105.367255850703, -3312.394417809775, -2515.577079722533, -2792.805766201707, -1574.7698038542037, -8103.334379593656, -14628.300324475806, 0.002, -0.098, 0.99, 192.0, 0.0, 0.0, 0.0, 0.0, 0.0, 0.0, 0.0, 0.0, 0.0, 1.645922516226762E9, 0.0, 2022-02-27 11:41:56.226
146.0, -1351.6546907013287, -3833.2124153628847, -2052.538341586392, -9589.367757960292, -163.14538277928625, 67.14464034374241, -4809.0895782815915, -1596.2051267868433, -3772.9968158002875, -5030.863586767147, -3543.89143513339, -2735.965280051861, -2959.2815589048337, -1815.0287050042994, -8493.01469242748, -15654.446560674496, 0.01, -0.1, 0.986, 192.0, 0.0, 40.0, 126.0, 112.0, 15.0, 104.0, 0.0, 0.0, 0.0, 1.645922516234219E9, 0.0, 2022-02-27 11:41:56.234
148.0, -1012.981058714516, -3535.151903051365, -1744.2854338032525, -9252.370506807627, 179.88683937631123, 364.15462066586264, -4497.953295463717, -1180.7979560849615, -1217.3207065249333, -4130.334154407282, -3506.6534288708485, -2570.8082402715972, -3026.537957970853, -1752.10854436261, -8108.944667451939, -14544.637744979591, 0.01, -0.1, 0.986, 192.0, 0.0, 0.0, 0.0, 0.0, 0.0, 0.0, 0.0, 0.0, 0.0, 1.645922516242179E9, 0.0, 2022-02-27 11:41:56.242
150.0, -905.0891882287489, -3470.0412714530557, -1711.8754043430574, -9220.027532580798, 246.76325878658997, 345.9155971903321, -4637.517587842654, -1409.7468745406718, -3367.2008952141878, -4599.273753079624, -3313.646115499272, -2601.7877580866525, -2732.3666491945564, -1583.8222603586032, -8310.423291972076, -15254.909128535883, 0.01, -0.1, 0.986, 192.0, 0.0, 0.0, 0.0, 0.0, 0.0, 0.0, 0.0, 0.0, 0.0, 1.645922516250286E9, 0.0, 2022-02-27 11:41:56.250
152.0, -1358.9637111382142, -3815.912165154477, -2017.8484341917556, -9557.293004666926, -155.63519664230307, 121.68289681469165, -4707.791472410139, -1438.8264940770262, -2300.8662224848536, -4719.906117904916, -3689.6695124709026, -2721.8166258116516, -3174.3500440537982, -1935.0128692403878, -8357.429010561587, -15183.919988145828, 0.01, -0.1, 0.986, 192.0, 0.0, 0.0, 0.0, 0.0, 0.0, 0.0, 0.0, 0.0, 0.0, 1.645922516256935E9, 0.0, 2022-02-27 11:41:56.256
154.0, -732.578424522689, -3320.843377213881, -1546.3830883959638, -9044.02989673971, 429.0640865640744, 519.8568725415316, -4446.521931472055, -1143.4705428445986, -1887.6495227395922, -4095.353674334726, -3315.970696922624, -2516.292335545103, -2804.160452385003, -1583.2634667472205, -8103.535545293755, -14634.692923390023, 0.012, -0.10300000000000001, 0.988, 192.0, 0.0, 56.0, 126.0, 88.0, 15.0, 120.0, 0.0, 0.0, 0.0, 1.645922516263895E9, 0.0, 2022-02-27 11:41:56.263
156.0, -1338.7577341506164, -3816.5380139992258, -2045.1175624272303, -9575.822600820375, -158.31740597693994, 77.62760849328143, -4824.244061022289, -1598.574411699106, -3792.621647432047, -5024.247470408377, -3534.838978628991, -2724.7894078242075, -2951.056116945281, -1810.1560247130424, -8491.941808693626, -15659.833331088226, 0.012, -0.10300000000000001, 0.988, 192.0, 0.0, 0.0, 0.0, 0.0, 0.0, 0.0, 0.0, 0.0, 0.0, 1.645922516271826E9, 0.0, 2022-02-27 11:41:56.271
158.0, -1018.2560704059686, -3539.5328449646054, -1751.1250676065765, -9256.103248131663, 172.734281150613, 369.2955218905833, -4497.416853596789, -1200.0875115498916, -1221.7910554159946, -4126.735523549977, -3505.3570276924406, -2561.2193419002706, -3029.466036494498, -1751.4379920289507, -8108.229411629369, -14550.471550282426, 0.012, -0.10300000000000001, 0.988, 192.0, 0.0, 0.0, 0.0, 0.0, 0.0, 0.0, 0.0, 0.0, 0.0, 1.645922516279836E9, 0.0, 2022-02-27 11:41:56.279
160.0, -892.1251764446708, -3450.8858264548576, -1708.634401397038, -9210.081006298185, 264.2423229506401, 369.72020503523413, -4627.794579004595, -1376.0180921576134, -3330.029944185012, -4558.347708981956, -3302.1126153603336, -2579.4807171202565, -2728.6562596149756, -1569.6959578628491, -8302.3096087348, -15229.830471257028, 0.012, -0.10300000000000001, 0.988, 192.0, 0.0, 0.0, 0.0, 0.0, 0.0, 0.0, 0.0, 0.0, 0.0, 1.645922516286597E9, 0.0, 2022-02-27 11:41:56.286
162.0, -1363.7246327071946, -3823.6011652471025, -2025.8280069623004, -9560.712821568588, -160.55258042247064, 119.47007411361625, -4715.12284459148, -1439.6982121107833, -2346.6425951293227, -4725.181129596368, -3690.831803182579, -2716.4298553979224, -3171.064337618868, -1933.3364884062396, -8362.636967019675, -15191.966616149739, 0.012, -0.10300000000000001, 0.988, 192.0, 0.0, 0.0, 0.0, 0.0, 0.0, 0.0, 0.0, 0.0, 0.0, 1.645922516294548E9, 0.0, 2022-02-27 11:41:56.294
164.0, -741.9214537050074, -3320.217528369132, -1550.3840506534639, -9043.627565339513, 425.86778710696547, 522.1591022204283, -4436.955384845184, -1126.818493225395, -1871.8915428986006, -4085.9882934079524, -3319.3458103353755, -2517.454626256779, -2804.9874669298492, -1580.2012777568434, -8098.305237091213, -14621.7512633504, 0.011, -0.10450000000000001, 0.989, 192.0, 0.0, 40.0, 126.0, 88.0, 15.0, 120.0, 0.0, 0.0, 0.0, 1.645922516302407E9, 0.0, 2022-02-27 11:41:56.302
166.0, -1335.0920480599461, -3807.8655371505665, -2037.227396634507, -9576.090821753838, -154.7634786085461, 80.13100387227583, -4824.66874416694, -1605.056417591145, -3811.5759267301473, -5019.821825006226, -3535.733048407203, -2727.4045619254784, -2945.110552920169, -1806.1550624555425, -8489.617227270273, -15657.1958252425, 0.011, -0.10450000000000001, 0.989, 192.0, 0.0, 0.0, 0.0, 0.0, 0.0, 0.0, 0.0, 0.0, 0.0, 1.645922516309637E9, 0.0, 2022-02-27 11:41:56.309
168.0, -1026.1015327097814, -3532.22382452772, -1749.2922245612413, -9260.26067260035, 163.23478975710748, 370.72603353572293, -4515.722932305686, -1186.0729677764139, -1232.8104654324611, -4131.921128263608, -3517.6504871428597, -2562.716908778776, -3033.176426074079, -1753.5837594966604, -8114.957286710416, -14558.629937008613, 0.011, -0.10450000000000001, 0.989, 192.0, 0.0, 0.0, 0.0, 0.0, 0.0, 0.0, 0.0, 0.0, 0.0, 1.645922516317186E9, 0.0, 2022-02-27 11:41:56.317
170.0, -873.3497111022128, -3436.9606896592013, -1684.1368894740212, -9195.284151468773, 274.21120097770705, 382.7289203082228, -4615.903450954372, -1382.3436358384654, -3304.839528183881, -4540.779237840085, -3298.648094969761, -2569.1542111819044, -2726.3763816805345, -1558.6541961019275, -8298.152184266113, -15220.4427385858, 0.011, -0.10450000000000001, 0.989, 192.0, 0.0, 0.0, 0.0, 0.0, 0.0, 0.0, 0.0, 0.0, 0.0, 1.645922516332119E9, 0.0, 2022-02-27 11:41:56.332
172.0, -1352.4817052461751, -3809.7430836848125, -2011.902870166644, -9551.36979238627, -159.99378681108794, 127.89668177326702, -4706.048036342626, -1456.2608547521656, -2375.7222146656773, -4722.185995839357, -3676.3255210310845, -2699.286067400702, -3166.146953838701, -1926.876834258656, -8371.309443868333, -15212.48551755971, 0.011, -0.10450000000000001, 0.989, 192.0, 0.0, 0.0, 0.0, 0.0, 0.0, 0.0, 0.0, 0.0, 0.0, 1.645922516338807E9, 0.0, 2022-02-27 11:41:56.338
174.0, -728.7562762208315, -3300.8162141819257, -1535.9448237353354, -9037.167911191931, 422.33621148302694, 526.8306168115874, -4445.381992504835, -1137.9049584752272, -1837.3804494596066, -4067.481048998958, -3304.884231672792, -2494.3429224899915, -2804.5851355296536, -1574.0992515205446, -8098.551106280221, -14615.537478391825, 0.010499999999999999, -0.10525000000000001, 0.9884999999999999, 192.0, 0.0, 40.0, 126.0, 88.0, 15.0, 112.0, 0.0, 0.0, 0.0, 1.645922516346765E9, 0.0, 2022-02-27 11:41:56.346
176.0, -1313.746132105128, -3779.9035048369774, -2019.3907045591718, -9567.507751883, -151.9471588071774, 81.69562598414731, -4837.141017573002, -1621.5520049991615, -3808.759606928779, -4990.98807465888, -3515.661181886337, -2706.5056808597665, -2937.1086284051694, -1796.364998384118, -8487.538515035929, -15663.499017178896, 0.010499999999999999, -0.10525000000000001, 0.9884999999999999, 192.0, 0.0, 0.0, 0.0, 0.0, 0.0, 0.0, 0.0, 0.0, 0.0, 1.645922516354798E9, 0.0, 2022-02-27 11:41:56.354
178.0, -1014.1209976817368, -3522.433760456295, -1742.363183780096, -9262.182922623506, 150.78486809550145, 358.9466642077761, -4529.916290034806, -1201.8756511063161, -1216.4489884911764, -4113.413883854614, -3504.3511991919518, -2553.016251685173, -3034.271661552389, -1763.172657867987, -8111.917449464495, -14571.88452147061, 0.010499999999999999, -0.10525000000000001, 0.9884999999999999, 192.0, 0.0, 0.0, 0.0, 0.0, 0.0, 0.0, 0.0, 0.0, 0.0, 1.645922516361907E9, 0.0, 2022-02-27 11:41:56.361
180.0, -850.6179869911656, -3414.363076014886, -1675.7773370477364, -9183.370671674094, 264.5775991174697, 384.5170598646474, -4622.698381268786, -1365.6692344748062, -3271.1107458008228, -4512.593688081943, -3285.259400041032, -2567.678996047854, -2723.358896179068, -1562.051661259134, -8293.346559208221, -15206.942284934794, 0.010499999999999999, -0.10525000000000001, 0.9884999999999999, 192.0, 0.0, 0.0, 0.0, 0.0, 0.0, 0.0, 0.0, 0.0, 0.0, 1.645922516369337E9, 0.0, 2022-02-27 11:41:56.369
182.0, -1334.64501317084, -3789.201830530385, -2011.098207366253, -9549.626356318755, -171.1920107831968, 115.1785391781973, -4709.132577077458, -1453.8245146065374, -2384.7746711700765, -4724.421170284888, -3662.176866790875, -2689.2948376291797, -3155.6192822002513, -1926.876834258656, -8367.934330455582, -15220.263924630157, 0.010499999999999999, -0.10525000000000001, 0.9884999999999999, 192.0, 0.0, 0.0, 0.0, 0.0, 0.0, 0.0, 0.0, 0.0, 0.0, 1.645922516377396E9, 0.0, 2022-02-27 11:41:56.377
184.0, -704.6163922090999, -3277.45864122613, -1529.9322044768578, -9027.69077154288, 419.60929865947946, 521.9355847758752, -4443.5715012039545, -1135.8709497297943, -1773.1191841505986, -4040.3013277413047, -3290.3108942879317, -2478.763756604643, -2798.9524959269165, -1574.7474521097486, -8089.453946286911, -14596.136164204618, 0.01325, -0.10362500000000001, 0.98825, 192.0, 0.0, 64.0, 126.0, 104.0, 15.0, 112.0, 0.0, 0.0, 0.0, 1.645922516384353E9, 0.0, 2022-02-27 11:41:56.384
186.0, -1286.6558178252958, -3763.407917428961, -2010.3605997992279, -9555.616623832777, -149.89079831728915, 86.05421615293218, -4826.658049423462, -1598.1050250655444, -3801.852917892089, -4967.541094725263, -3489.7331583181813, -2692.446433597378, -2916.9026514175716, -1776.6284080300818, -8483.694014989616, -15655.899424064091, 0.01325, -0.10362500000000001, 0.98825, 192.0, 0.0, 0.0, 0.0, 0.0, 0.0, 0.0, 0.0, 0.0, 0.0, 1.645922516391483E9, 0.0, 2022-02-27 11:41:56.391
188.0, -1022.5699570858428, -3534.7272199067143, -1756.3553758091184, -9277.605626297669, 129.30484167395136, 343.63571925589076, -4530.475083646189, -1197.3158952374333, -1217.7230379251287, -4126.512006105424, -3506.564021893027, -2552.7703824961645, -3040.9771848889814, -1760.8257247001798, -8117.639496045053, -14581.36166111966, 0.01325, -0.10362500000000001, 0.98825, 192.0, 0.0, 0.0, 0.0, 0.0, 0.0, 0.0, 0.0, 0.0, 0.0, 1.645922516399104E9, 0.0, 2022-02-27 11:41:56.399
190.0, -844.0912776102159, -3406.6293724333495, -1665.9649212318566, -9178.38623266056, 275.0382155225534, 377.4539086167704, -4621.022000434637, -1363.2328943291777, -3217.980649230558, -4496.567487307488, -3282.800708150948, -2560.817010500075, -2724.1635589794587, -1562.0963647480446, -8285.992835282426, -15190.871380671428, 0.01325, -0.10362500000000001, 0.98825, 192.0, 0.0, 0.0, 0.0, 0.0, 0.0, 0.0, 0.0, 0.0, 0.0, 1.645922516407053E9, 0.0, 2022-02-27 11:41:56.407
192.0, -1354.4710105026975, -3813.431121519938, -2018.1166551252193, -9564.959653015096, -189.45338600318266, 99.10763491483152, -4736.401705312933, -1460.3288722430316, -2448.164218445327, -4743.040173416159, -3672.525724473682, -2706.0139424817494, -3165.3869945272204, -1929.4919883599268, -8382.977054474004, -15257.92661403735, 0.01325, -0.10362500000000001, 0.98825, 192.0, 0.0, 0.0, 0.0, 0.0, 0.0, 0.0, 0.0, 0.0, 0.0, 1.64592251641494E9, 0.0, 2022-02-27 11:41:56.414
194.0, -745.967119451418, -3325.9842784386015, -1538.470570858785, -9040.274803671218, 410.69095262181196, 517.6887533293669, -4457.2507688106025, -1130.618289782797, -1747.7052507049145, -4041.910653342087, -3303.878403172303, -2497.271001013637, -2815.60454554612, -1573.8086788426256, -8092.806707955207, -14596.717309560456, 0.012625, -0.1038125, 0.9861249999999999, 192.0, 0.0, 48.0, 126.0, 96.0, 15.0, 96.0, 0.0, 0.0, 0.0, 1.645922516421835E9, 0.0, 2022-02-27 11:41:56.421
196.0, -1354.1133825914126, -3834.6652787524795, -2016.2391085909735, -9561.808057046897, -146.4486296711719, 84.42253880769478, -4837.72216292884, -1610.4208362604186, -3834.0617816521863, -4986.473022278908, -3503.770053836114, -2716.1169309755483, -2923.608174754164, -1770.2805126047747, -8483.403442311697, -15659.565110154763, 0.012625, -0.1038125, 0.9861249999999999, 192.0, 0.0, 0.0, 0.0, 0.0, 0.0, 0.0, 0.0, 0.0, 0.0, 1.645922516429703E9, 0.0, 2022-02-27 11:41:56.429
198.0, -1140.4083538542216, -3648.698764884325, -1771.5769137831826, -9293.073033460741, 134.51279813203791, 335.6114429964355, -4529.3351446789675, -1215.3761047573216, -1261.7559745020837, -4168.77915487041, -3546.7077549347587, -2591.684769592854, -3061.2055136210342, -1769.2970358487412, -8120.925202479983, -14591.777574035834, 0.012625, -0.1038125, 0.9861249999999999, 192.0, 0.0, 0.0, 0.0, 0.0, 0.0, 0.0, 0.0, 0.0, 0.0, 1.645922516437651E9, 0.0, 2022-02-27 11:41:56.437
200.0, -988.6176572582314, -3539.5328449646054, -1677.274903926242, -9184.48825889686, 287.9798755621762, 388.78624305561107, -4613.6235730199305, -1347.3631557659098, -3243.8639693098035, -4533.5596243810205, -3326.386609838797, -2603.553545898622, -2740.927367320939, -1568.9359985513686, -8280.82958231325, -15181.327185789012, 0.012625, -0.1038125, 0.9861249999999999, 192.0, 0.0, 0.0, 0.0, 0.0, 0.0, 0.0, 0.0, 0.0, 0.0, 1.645922516444187E9, 0.0, 2022-02-27 11:41:56.444
202.0, -1548.148876207933, -3990.367530628149, -2043.3294228708057, -9584.696243369131, -186.30179003498438, 106.99780070755492, -4729.360905809511, -1453.2657209951547, -2542.98031842474, -4803.85927007905, -3731.3331641355953, -2757.0653268176707, -3177.680453977639, -1939.4832181314491, -8383.580551574296, -15264.386268184933, 0.012625, -0.1038125, 0.9861249999999999, 192.0, 0.0, 0.0, 0.0, 0.0, 0.0, 0.0, 0.0, 0.0, 0.0, 1.64592251645932E9, 0.0, 2022-02-27 11:41:56.459
204.0, -945.4117352261228, -3504.59706838096, -1565.6055886275278, -9061.486609159305, 408.7463508542003, 510.73736080376636, -4443.862073881874, -1141.5706445658975, -1801.6847135644812, -4103.310895360815, -3382.3330262104305, -2554.8937982194184, -2837.3974963900446, -1587.2644290047203, -8090.102146876115, -14589.967082734953, 0.0123125, -0.10290625, 0.9850625, 192.0, 0.0, 48.0, 126.0, 104.0, 15.0, 96.0, 0.0, 0.0, 0.0, 1.64592251646735E9, 0.0, 2022-02-27 11:41:56.467
206.0, -1502.216041352277, -3969.0216146733305, -2028.420809319116, -9566.636033849243, -128.03079223999885, 89.20581212113049, -4806.697941624873, -1578.569600411606, -3918.6631344155235, -5042.441790394997, -3569.506534279172, -2760.64160593052, -2936.1922068825015, -1786.8655069906124, -8481.660006244183, -15659.498054921396, 0.0123125, -0.10290625, 0.9850625, 192.0, 0.0, 0.0, 0.0, 0.0, 0.0, 0.0, 0.0, 0.0, 0.0, 1.645922516474057E9, 0.0, 2022-02-27 11:41:56.474
208.0, -1254.1563813872792, -3751.494437634282, -1787.334893624174, -9310.41798715806, 128.2319579400966, 329.1294371043965, -4516.885223017362, -1208.5364709539977, -1325.7266671331724, -4221.305754340381, -3600.933086983334, -2621.5690519295995, -3076.5835138062853, -1794.1298239385874, -8125.887289749061, -14603.623998597146, 0.0123125, -0.10290625, 0.9850625, 192.0, 0.0, 0.0, 0.0, 0.0, 0.0, 0.0, 0.0, 0.0, 0.0, 1.645922516482495E9, 0.0, 2022-02-27 11:41:56.482
210.0, -1015.3503436267787, -3575.206229115275, -1673.5868660911162, -9182.878933296077, 302.70967515822355, 401.6831996063232, -4599.34080831299, -1330.4875887021528, -3230.1847017031555, -4538.745229094652, -3349.6547758167717, -2615.578784415577, -2740.97207080985, -1572.2664084752093, -8274.235817698935, -15162.28349951309, 0.0123125, -0.10290625, 0.9850625, 192.0, 0.0, 0.0, 0.0, 0.0, 0.0, 0.0, 0.0, 0.0, 0.0, 1.645922516490016E9, 0.0, 2022-02-27 11:41:56.490
212.0, -1542.1809604383661, -3992.1780219290285, -2051.8230857638223, -9594.553362673923, -181.16088881026374, 101.52162331600468, -4732.803074455628, -1453.958625073269, -2590.7236445812755, -4835.129360572024, -3743.179588696908, -2769.0905653346263, -3181.167326112667, -1956.8505235732227, -8394.890534268681, -15281.865332348983, 0.0123125, -0.10290625, 0.9850625, 192.0, 0.0, 0.0, 0.0, 0.0, 0.0, 0.0, 0.0, 0.0, 0.0, 1.645922516496903E9, 0.0, 2022-02-27 11:41:56.496
214.0, -895.5226416018775, -3462.1064021714215, -1565.7396990942598, -9064.325280705129, 415.16130151287337, 513.2854596716713, -4441.492788969611, -1117.1178361317916, -1771.040471916255, -4098.795842980843, -3383.5623721554725, -2553.0833069185387, -2846.8746360390946, -1602.374208256508, -8090.392719554034, -14576.64544303959, 0.01215625, -0.103453125, 0.98553125, 192.0, 0.0, 48.0, 126.0, 96.0, 15.0, 104.0, 0.0, 0.0, 0.0, 1.645922516504834E9, 0.0, 2022-02-27 11:41:56.504
216.0, -1418.352296155965, -3895.305561459728, -2016.3955708021608, -9557.851798278309, -113.72567578860233, 97.34184710286226, -4804.909802068449, -1587.018559815712, -3897.518384160803, -5021.386447118098, -3540.2033972982645, -2749.421030213956, -2925.731590477418, -1779.109451664621, -8478.10607887579, -15650.33383969472, 0.01215625, -0.103453125, 0.98553125, 192.0, 0.0, 0.0, 0.0, 0.0, 0.0, 0.0, 0.0, 0.0, 0.0, 1.645922516511637E9, 0.0, 2022-02-27 11:41:56.511
218.0, -1182.1390607522799, -3682.9192856454, -1788.1842599134757, -9304.137146966117, 134.69161208768037, 342.58518726649135, -4523.233118442669, -1203.1720522847238, -1291.2379254386337, -4196.271800550438, -3578.8719152059457, -2611.264897735703, -3076.5388103173746, -1790.2853238922744, -8124.635592059564, -14600.248885184394, 0.01215625, -0.103453125, 0.98553125, 192.0, 0.0, 0.0, 0.0, 0.0, 0.0, 0.0, 0.0, 0.0, 0.0, 1.64592251651945E9, 0.0, 2022-02-27 11:41:56.519
220.0, -928.3350024622682, -3490.247248440653, -1662.0086624632672, -9161.220092918884, 321.2392713116731, 411.205042744284, -4590.824793675518, -1339.9200248622924, -3175.624093487751, -4507.095158945937, -3326.811292983448, -2593.2493917047254, -2733.148960250492, -1563.3033589486313, -8271.01716649737, -15141.563432403022, 0.01215625, -0.103453125, 0.98553125, 192.0, 0.0, 0.0, 0.0, 0.0, 0.0, 0.0, 0.0, 0.0, 0.0, 1.645922516526798E9, 0.0, 2022-02-27 11:41:56.526
222.0, -1463.927503100336, -3907.7331313768786, -2051.0407747078866, -9587.110231770306, -181.3844062548168, 99.48761457057174, -4740.60383327053, -1479.9760556192466, -2626.2182147763033, -4819.4831394533085, -3715.7092947613355, -2746.5823586681317, -3163.934131137625, -1940.0420117428318, -8405.105281484757, -15302.786565159151, 0.01215625, -0.103453125, 0.98553125, 192.0, 0.0, 0.0, 0.0, 0.0, 0.0, 0.0, 0.0, 0.0, 0.0, 1.645922516534326E9, 0.0, 2022-02-27 11:41:56.534
224.0, -814.9669545849508, -3376.1192412518553, -1560.0400042581564, -9054.043478255688, 414.37899045693763, 521.5109016312244, -4450.075858840449, -1124.2480426130346, -1680.694720827904, -4057.825095394265, -3355.287415419509, -2519.265117557659, -2839.7891330467623, -1592.9417720963684, -8093.4549085444105, -14560.59689052068, 0.01, -0.106, 0.988, 192.0, 0.0, 40.0, 126.0, 88.0, 15.0, 112.0, 0.0, 0.0, 0.0, 1.64592251654221E9, 0.0, 2022-02-27 11:41:56.542
226.0, -1343.8092283975159, -3817.3203250551614, -2007.8348526757782, -9545.692449294622, -118.9559839911442, 111.31168738742917, -4811.995305060781, -1596.7192169093153, -3866.5165146012923, -4981.063900120724, -3504.440606169773, -2713.188852451903, -2907.9396018909933, -1758.2552740878195, -8485.035119656935, -15638.71093257796, 0.01, -0.106, 0.988, 192.0, 0.0, 0.0, 0.0, 0.0, 0.0, 0.0, 0.0, 0.0, 0.0, 1.645922516549229E9, 0.0, 2022-02-27 11:41:56.549
228.0, -1126.7067345031185, -3623.0389622496323, -1788.5195360803052, -9311.043836002807, 114.39622812226155, 319.49583524415914, -4540.779237840085, -1236.6773172232292, -1283.4148148792763, -4200.07159710784, -3566.2431795886973, -2595.350455683524, -3078.1704876626122, -1800.3436088971628, -8138.918356766505, -14614.375187680149, 0.01, -0.106, 0.988, 192.0, 0.0, 0.0, 0.0, 0.0, 0.0, 0.0, 0.0, 0.0, 0.0, 1.645922516556987E9, 0.0, 2022-02-27 11:41:56.556
230.0, -869.3711005891682, -3427.483550010151, -1650.698679768882, -9154.71573528239, 313.6396781968687, 397.61518211545734, -4606.023979905126, -1358.2484553156444, -3131.725267377528, -4484.855173212907, -3305.8900601732803, -2574.518629851178, -2729.3715154375454, -1576.9602748108239, -8272.246512442412, -15139.99881029115, 0.01, -0.106, 0.988, 192.0, 0.0, 0.0, 0.0, 0.0, 0.0, 0.0, 0.0, 0.0, 0.0, 1.645922516564892E9, 0.0, 2022-02-27 11:41:56.564
232.0, -1421.3474299129762, -3864.817782022689, -2045.5645973163364, -9583.668063124189, -195.84598491740047, 84.86957369680091, -4758.328766623588, -1497.0751401275566, -2617.6574966499206, -4813.694037639384, -3696.375035807495, -2729.416218926456, -3162.5706747258514, -1945.518189134382, -8409.195650720078, -15314.118899597992, 0.01, -0.106, 0.988, 192.0, 0.0, 0.0, 0.0, 0.0, 0.0, 0.0, 0.0, 0.0, 0.0, 1.645922516578928E9, 0.0, 2022-02-27 11:41:56.578
234.0, -791.1399949955935, -3353.432220629719, -1560.9340740363687, -9053.060001499654, 402.8678420624545, 505.6635148124117, -4454.769725176064, -1135.4015630962328, -1664.4897060978064, -4042.3129847422824, -3343.619804813839, -2505.943477862296, -2836.637537078564, -1593.2546965187428, -8090.392719554034, -14556.707686985457, 0.008, -0.10200000000000001, 0.99, 192.0, 0.0, 32.0, 126.0, 104.0, 15.0, 120.0, 0.0, 0.0, 0.0, 1.645922516586569E9, 0.0, 2022-02-27 11:41:56.586
236.0, -1299.619829609374, -3777.847144347089, -1995.362579269717, -9531.186167143127, -105.61199255132587, 96.5371843024712, -4815.325714984621, -1613.9747636288123, -3867.5670465906915, -4971.586760471673, -3488.481460628684, -2698.7496255337746, -2894.8414796401835, -1760.043413644244, -8483.336387078332, -15643.404798913574, 0.008, -0.10200000000000001, 0.99, 192.0, 0.0, 0.0, 0.0, 0.0, 0.0, 0.0, 0.0, 0.0, 0.0, 1.64592251659463E9, 0.0, 2022-02-27 11:41:56.594
238.0, -1102.3209813023784, -3603.3694271289623, -1794.1745274274979, -9309.054530746285, 109.63530655328114, 316.12072183140776, -4535.191301726259, -1231.8940439097935, -1270.6743205397513, -4203.2008413315825, -3548.8758741469237, -2577.6925775638315, -3067.106374157235, -1804.1881089434755, -8144.550996369243, -14623.807623840288, 0.008, -0.10200000000000001, 0.99, 192.0, 0.0, 0.0, 0.0, 0.0, 0.0, 0.0, 0.0, 0.0, 0.0, 1.64592251660245E9, 0.0, 2022-02-27 11:41:56.602
240.0, -835.1729315725484, -3405.288267766031, -1640.0368976637005, -9138.354258341105, 333.97976565119814, 417.28471723612756, -4580.028901103604, -1329.5711671794854, -3075.4435748390647, -4462.88340841334, -3290.355597776842, -2555.877274975452, -2723.649468856987, -1564.4209461713967, -8265.026898983348, -15109.868658765396, 0.008, -0.10200000000000001, 0.99, 192.0, 0.0, 0.0, 0.0, 0.0, 0.0, 0.0, 0.0, 0.0, 0.0, 1.645922516608963E9, 0.0, 2022-02-27 11:41:56.608
242.0, -1407.3328861394987, -3854.7594970178006, -2047.4644955950375, -9584.316263713392, -186.25708654607377, 94.83845172386786, -4749.298661863645, -1498.1927273503218, -2663.120944872015, -4823.931136599915, -3686.7637856917127, -2721.5037013892775, -3149.7631251529606, -1938.455037886505, -8414.604772878263, -15329.295734083145, 0.008, -0.10200000000000001, 0.99, 192.0, 0.0, 0.0, 0.0, 0.0, 0.0, 0.0, 0.0, 0.0, 0.0, 1.645922516617242E9, 0.0, 2022-02-27 11:41:56.617
244.0, -777.3042651777585, -3344.4915228475957, -1561.4258124143855, -9055.898673045478, 406.4217694308483, 513.91130851642, -4444.666736682265, -1126.0808856583699, -1627.7657899577368, -4031.2041677479947, -3341.2058164126656, -2498.5003469586786, -2837.285737667768, -1595.1992982863544, -8089.096318375626, -14552.617317750135, 0.008, -0.10200000000000001, 0.99, 192.0, 0.0, 32.0, 126.0, 104.0, 15.0, 120.0, 0.0, 0.0, 0.0, 1.645922516625093E9, 0.0, 2022-02-27 11:41:56.625
246.0, -1280.7326055446395, -3771.8345250886114, -1985.8407361317559, -9525.195899629105, -95.35254184633993, 110.21645190911913, -4826.14395930099, -1610.666705449427, -3867.8576192686105, -4958.913321365514, -3478.0208442236003, -2690.6359422964983, -2885.85607836915, -1751.2144745843977, -8484.476326045553, -15642.2425082019, 0.008, -0.10200000000000001, 0.99, 192.0, 0.0, 0.0, 0.0, 0.0, 0.0, 0.0, 0.0, 0.0, 0.0, 1.64592251663217E9, 0.0, 2022-02-27 11:41:56.632
248.0, -1119.8894524442499, -3620.2226424482637, -1795.4932803503611, -9318.285801206328, 101.09694017135385, 315.338410775472, -4549.094086777459, -1236.4314480342207, -1284.0406637240249, -4203.245544820493, -3550.485199747706, -2578.8548682755077, -3067.7992782353494, -1805.7527310553469, -8152.910548795528, -14640.593783926224, 0.008, -0.10200000000000001, 0.99, 192.0, 0.0, 0.0, 0.0, 0.0, 0.0, 0.0, 0.0, 0.0, 0.0, 1.645922516638794E9, 0.0, 2022-02-27 11:41:56.638
250.0, -858.4187458060677, -3431.0821808674555, -1635.4324383059072, -9135.113255395087, 328.2353673261842, 425.8901388514208, -4591.540049498088, -1348.1454668218455, -3053.471810039498, -4448.377126261846, -3290.1097285878336, -2559.9899959552286, -2720.5872798666096, -1567.4831351617736, -8263.462276871476, -15100.592684816444, 0.008, -0.10200000000000001, 0.99, 192.0, 0.0, 0.0, 0.0, 0.0, 0.0, 0.0, 0.0, 0.0, 0.0, 1.645922516646772E9, 0.0, 2022-02-27 11:41:56.646
252.0, -1483.798203921104, -3933.169416567018, -2054.6617573096464, -9593.435775451157, -195.10837735037535, 90.88219295527851, -4742.6378420159635, -1504.5182710311738, -2712.3394861626016, -4852.6978317138955, -3695.8162421961124, -2741.1508847654923, -3154.1217153217453, -1946.7475350794239, -8425.154796261168, -15345.456045324332, 0.008, -0.10200000000000001, 0.99, 192.0, 0.0, 0.0, 0.0, 0.0, 0.0, 0.0, 0.0, 0.0, 0.0, 1.6459225166547E9, 0.0, 2022-02-27 11:41:56.654
254.0, -899.7247695594752, -3465.101535928433, -1573.0040160422345, -9068.259187729262, 401.3255716950383, 509.06097996961836, -4426.673582395742, -1126.237347869557, -1663.8191537641471, -4070.0514996113184, -3369.771345826548, -2533.749047964698, -2847.053449994737, -1618.9815543868012, -8085.74355670733, -14546.403532791559, 0.008, -0.11, 0.988, 192.0, 0.0, 32.0, 126.0, 72.0, 15.0, 112.0, 0.0, 0.0, 0.0, 1.645922516661576E9, 0.0, 2022-02-27 11:41:56.661
0.0, -1429.0140782611463, -3914.9303930914875, -1994.8261374027895, -9527.095797907807, -78.23110559357472, 116.43023686769449, -4793.733929840795, -1598.88733612148, -3926.8215211417105, -5009.51767081233, -3517.024638298111, -2739.1168760200594, -2890.3934824935777, -1766.1230881360875, -8474.127468362745, -15638.085083733213, 0.008, -0.11, 0.988, 192.0, 0.0, 0.0, 0.0, 0.0, 0.0, 0.0, 0.0, 0.0, 0.0, 1.645922516669523E9, 0.0, 2022-02-27 11:41:56.669
2.0, -1301.7879488215387, -3802.0987870810973, -1820.5495858847603, -9342.202167773507, 102.68391402768064, 306.88945137136596, -4535.481874404178, -1238.1748841017347, -1367.1444496088566, -4273.854705554808, -3610.700799310303, -2641.61856670601, -3086.440633111076, -1824.0364580197881, -8153.178769728991, -14649.467426474981, 0.008, -0.11, 0.988, 192.0, 0.0, 0.0, 0.0, 0.0, 0.0, 0.0, 0.0, 0.0, 0.0, 1.645922516677366E9, 0.0, 2022-02-27 11:41:56.677
4.0, -1023.016991974949, -3588.2596478771748, -1641.601519775572, -9143.495159565826, 354.56572229453593, 430.00285983119727, -4567.646034675364, -1294.6577423402957, -3078.8633917407265, -4481.010673166594, -3342.5469210799843, -2611.2425459912474, -2725.705829346875, -1567.661949117416, -8250.811189509772, -15077.4586293052, 0.008, -0.11, 0.988, 192.0, 0.0, 0.0, 0.0, 0.0, 0.0, 0.0, 0.0, 0.0, 0.0, 1.645922516684506E9, 0.0, 2022-02-27 11:41:56.684
6.0, -1622.5801852441057, -4071.0126246228965, -2073.638388352202, -9614.80404315043, -195.89068840631109, 77.98523640456634, -4759.401650357443, -1502.216041352277, -2858.2069704779356, -4916.8026348117155, -3741.5479113516703, -2789.8776876780616, -3150.7466019089943, -1950.5920351257369, -8429.312220729855, -15376.592025350576, 0.008, -0.11, 0.988, 192.0, 0.0, 0.0, 0.0, 0.0, 0.0, 0.0, 0.0, 0.0, 0.0, 1.645922516692023E9, 0.0, 2022-02-27 11:41:56.692
8.0, -986.7624624684408, -3552.8097811710577, -1583.956370825335, -9082.810173369668, 400.1856327278177, 506.84815726854293, -4438.2294342791365, -1123.465731557099, -1647.7482495007814, -4095.4430813125473, -3416.262974293587, -2572.4399176168345, -2863.437278680477, -1622.0660951216335, -8083.888361917539, -14535.138253586085, 0.01, -0.106, 0.988, 192.0, 0.0, 40.0, 126.0, 88.0, 15.0, 112.0, 0.0, 0.0, 0.0, 1.645922516707087E9, 0.0, 2022-02-27 11:41:56.707
10.0, -1450.7846773606154, -3937.952689880454, -1996.2790007923843, -9529.912117709175, -74.25249508053007, 121.43702762568327, -4785.307322181145, -1584.3139987366199, -3940.7019544484565, -5000.845193963671, -3526.479426202706, -2753.891379105017, -2877.2059532649464, -1752.8461519296352, -8469.835933427326, -15624.003484726369, 0.01, -0.106, 0.988, 192.0, 0.0, 0.0, 0.0, 0.0, 0.0, 0.0, 0.0, 0.0, 0.0, 1.645922516714099E9, 0.0, 2022-02-27 11:41:56.714
12.0, -1282.0960619564132, -3776.774260613234, -1829.6020423891596, -9345.309060252794, 90.81513772191259, 304.36370424791625, -4540.75688609563, -1243.7181167266508, -1385.8752114624037, -4283.577714392867, -3622.8377965495347, -2647.5641307311216, -3093.235563425489, -1832.396010446073, -8155.99508953036, -14652.730781165455, 0.01, -0.106, 0.988, 192.0, 0.0, 0.0, 0.0, 0.0, 0.0, 0.0, 0.0, 0.0, 0.0, 1.645922516721704E9, 0.0, 2022-02-27 11:41:56.721
14.0, -953.0336800853826, -3521.6514494003595, -1639.3439935855858, -9138.264851363285, 358.09729791847445, 430.00285983119727, -4559.934682838283, -1311.8909373153374, -3042.273586067389, -4463.889236913828, -3328.0182871840343, -2601.3854266864573, -2732.031373027727, -1577.7425858667596, -8244.083314428724, -15072.161265869292, 0.01, -0.106, 0.988, 192.0, 0.0, 0.0, 0.0, 0.0, 0.0, 0.0, 0.0, 0.0, 0.0, 1.645922516729771E9, 0.0, 2022-02-27 11:41:56.729
16.0, -1534.7154777902936, -3984.511373580858, -2068.542190616392, -9615.049912339438, -198.4387872742161, 70.27388456748541, -4753.925472965893, -1518.2422421267322, -2828.926185241483, -4903.123367205068, -3720.8054924971457, -2776.667806704975, -3156.8709798897485, -1958.4598491740048, -8424.640706138696, -15381.531760875198, 0.01, -0.106, 0.988, 192.0, 0.0, 0.0, 0.0, 0.0, 0.0, 0.0, 0.0, 0.0, 0.0, 1.645922516737692E9, 0.0, 2022-02-27 11:41:56.737
18.0, -890.1582229326037, -3458.865399225402, -1580.8718300905027, -9081.804344869179, 388.71918782224515, 497.9074594864201, -4434.273175510547, -1136.8320747413725, -1615.7181996963263, -4063.5024384859134, -3377.996787786101, -2545.0813824035386, -2857.4246594219994, -1630.1574266144546, -8078.233370570347, -14544.838910679688, 0.014, -0.108, 0.986, 192.0, 0.0, 56.0, 126.0, 80.0, 15.0, 104.0, 0.0, 0.0, 0.0, 1.645922516744187E9, 0.0, 2022-02-27 11:41:56.744
20.0, -1331.2475480136334, -3830.887833939533, -1976.7882796273566, -9511.896611678198, -76.577076503882, 125.86267302783406, -4791.766976328728, -1588.6725889054048, -3914.7739308803, -4971.765574427316, -3485.30751291603, -2718.3968089099894, -2876.3342352311893, -1748.5099135053056, -8474.216875340566, -15630.932525507515, 0.014, -0.108, 0.986, 192.0, 0.0, 0.0, 0.0, 0.0, 0.0, 0.0, 0.0, 0.0, 0.0, 1.645922516752373E9, 0.0, 2022-02-27 11:41:56.752
22.0, -1206.2342412751009, -3709.651972013947, -1835.011164547344, -9359.748287170922, 67.4128612772061, 280.29087546955054, -4552.312737979024, -1261.2418843796115, -1377.2027346137447, -4280.828449824864, -3594.4957845802055, -2628.453389221834, -3099.1587757061457, -1836.911062826045, -8175.172886273013, -14684.649072247634, 0.014, -0.108, 0.986, 192.0, 0.0, 0.0, 0.0, 0.0, 0.0, 0.0, 0.0, 0.0, 0.0, 1.645922516759475E9, 0.0, 2022-02-27 11:41:56.759
24.0, -861.2350656074365, -3442.9062536843126, -1624.793007945181, -9128.09480763612, 349.6259867699131, 437.9377291128313, -4566.1931712857695, -1307.3311814464548, -2952.8442565017053, -4418.425788691734, -3293.84246991187, -2576.776156041164, -2720.453169399878, -1568.8689433180027, -8246.005564451882, -15048.937803380228, 0.014, -0.108, 0.986, 192.0, 0.0, 0.0, 0.0, 0.0, 0.0, 0.0, 0.0, 0.0, 0.0, 1.645922516766466E9, 0.0, 2022-02-27 11:41:56.766
26.0, -1471.9741311042467, -3928.5649572092248, -2072.7890220629006, -9617.329790273881, -215.29200259351762, 69.9386084006558, -4756.965310211815, -1513.8389484690367, -2837.3304411566787, -4899.055349714202, -3696.5091462742266, -2761.669786175464, -3149.0925728193015, -1947.0828112462536, -8438.43173246762, -15391.85826681355, 0.014, -0.108, 0.986, 192.0, 0.0, 0.0, 0.0, 0.0, 0.0, 0.0, 0.0, 0.0, 0.0, 1.645922516773942E9, 0.0, 2022-02-27 11:41:56.773
28.0, -843.8454084212075, -3411.2338317911426, -1589.4325482168852, -9086.9452460939, 378.41503362834857, 490.03964543815204, -4430.942765586707, -1129.6348130267636, -1576.379129454986, -4049.577301690257, -3372.8335348169253, -2528.1834635953264, -2867.4829444268876, -1619.6074032315498, -8083.284864817246, -14532.612506462636, 0.016, -0.106, 0.986, 192.0, 0.0, 64.0, 126.0, 88.0, 15.0, 104.0, 0.0, 0.0, 0.0, 1.645922516782053E9, 0.0, 2022-02-27 11:41:56.782
30.0, -1281.9619514896813, -3780.5070019372706, -1980.1410412956527, -9519.898536193197, -74.87834392527866, 113.92684148870009, -4799.143051998979, -1598.216783787821, -3901.809919096222, -4960.701460921939, -3473.4610883547175, -2714.0158669967495, -2874.993130563871, -1739.0104221118002, -8470.685299716628, -15629.054978973269, 0.016, -0.106, 0.986, 192.0, 0.0, 0.0, 0.0, 0.0, 0.0, 0.0, 0.0, 0.0, 0.0, 1.645922516789912E9, 0.0, 2022-02-27 11:41:56.789
32.0, -1168.1245169788024, -3673.3527390185286, -1835.5029029253608, -9365.202112818017, 63.121326341787146, 273.3394829439501, -4556.38075546989, -1259.1184686563574, -1361.7576791951276, -4274.704071844109, -3589.511345566672, -2627.1793397878814, -3100.8351565402936, -1844.3541937296623, -8173.205932760947, -14690.549932783835, 0.016, -0.106, 0.986, 192.0, 0.0, 0.0, 0.0, 0.0, 0.0, 0.0, 0.0, 0.0, 0.0, 1.645922516796637E9, 0.0, 2022-02-27 11:41:56.796
34.0, -815.5033964518782, -3399.8120903744807, -1611.4490165053626, -9119.13175810954, 360.08660317499675, 442.4974849817139, -4546.054249531538, -1303.6654953557845, -2927.3632678226554, -4416.481186924122, -3291.227315810599, -2569.489487348734, -2727.9857072813165, -1565.672643860894, -8246.743172018907, -15046.590870212422, 0.016, -0.106, 0.986, 192.0, 0.0, 0.0, 0.0, 0.0, 0.0, 0.0, 0.0, 0.0, 0.0, 1.64592251680485E9, 0.0, 2022-02-27 11:41:56.804
36.0, -1425.9742410152246, -3889.203535223429, -2061.188466690596, -9612.345351260346, -208.5194240235596, 68.23987582205247, -4756.250054389245, -1527.6299747979613, -2857.0223280218042, -4891.120480432568, -3678.3595297765173, -2744.0342598002267, -3137.268500002444, -1937.359802408195, -8444.757276148472, -15412.220706012335, 0.017, -0.106, 0.989, 192.0, 0.0, 72.0, 126.0, 88.0, 15.5, 0.0, 0.0, 0.0, 0.0, 1.645922516812627E9, 0.0, 2022-02-27 11:41:56.812
38.0, -809.155501026571, -3380.2319622316318, -1576.4908881772624, -9084.777126881734, 380.47139411823684, 497.28161064167153, -4432.239166765114, -1119.4200658106884, -1525.1936346523328, -4039.161388774084, -3356.293243919998, -2521.8579199144747, -2858.5198949003097, -1618.5792229866056, -8084.737728206841, -14527.516308726825, 0.017, -0.106, 0.989, 192.0, 0.0, 0.0, 0.0, 0.0, 0.0, 0.0, 0.0, 0.0, 0.0, 1.645922516826236E9, 0.0, 2022-02-27 11:41:56.826
40.0, -1237.616090490352, -3744.4759898753155, -1954.5482938943262, -9497.502088248979, -59.14271582874249, 135.02688825450997, -4793.800985074161, -1588.0914435495667, -3879.659340341013, -4943.647079902539, -3447.3766025753744, -2696.5368028326993, -2855.1447814875582, -1730.4720557298729, -8467.511352003974, -15618.169679423534, 0.017, -0.106, 0.989, 192.0, 0.0, 0.0, 0.0, 0.0, 0.0, 0.0, 0.0, 0.0, 0.0, 1.645922516834179E9, 0.0, 2022-02-27 11:41:56.834
42.0, -1150.2431214145568, -3651.8503608525234, -1833.3794872021065, -9359.122438326172, 48.279768023463255, 282.7048638707237, -4564.896770107362, -1264.259369881078, -1375.2581328461329, -4283.488307415046, -3583.118746652454, -2619.8926710954515, -3105.2160984535335, -1839.3026994827628, -8182.861886365639, -14700.563514299813, 0.017, -0.106, 0.989, 192.0, 0.0, 0.0, 0.0, 0.0, 0.0, 0.0, 0.0, 0.0, 0.0, 1.645922516842302E9, 0.0, 2022-02-27 11:41:56.842
44.0, -785.7085210929539, -3362.864656789858, -1600.8766413780024, -9106.525374236748, 363.0370334430973, 453.02515662016356, -4554.726726380197, -1308.06878901348, -2882.4586132119434, -4383.624122574821, -3279.157373804733, -2553.664452274377, -2728.25392821478, -1556.9554635233242, -8239.210634137467, -15028.374198481346, 0.017, -0.106, 0.989, 192.0, 0.0, 0.0, 0.0, 0.0, 0.0, 0.0, 0.0, 0.0, 0.0, 1.645922516849382E9, 0.0, 2022-02-27 11:41:56.849
46.0, -1402.9742959707137, -3861.8673517545885, -2054.795867776378, -9614.692284428154, -212.11805488086404, 59.67915769566986, -4773.013862730725, -1545.6454808289386, -2890.415834238033, -4890.829907754649, -3663.920302858389, -2736.121742263048, -3131.1888255106005, -1943.037145499843, -8450.971061107048, -15435.980610368326, 0.0175, -0.108, 0.9884999999999999, 192.0, 0.0, 72.0, 126.0, 72.0, 15.0, 112.0, 0.0, 0.0, 0.0, 1.645922516856764E9, 0.0, 2022-02-27 11:41:56.856
48.0, -787.2284397159148, -3353.7004415631823, -1568.377204939986, -9082.60900766957, 372.62593181442406, 489.14557565993977, -4440.419905235756, -1133.1663886507022, -1484.312294043576, -4015.356780929182, -3344.5138745920513, -2501.428425482324, -2860.464496667921, -1622.6248887330162, -8086.861143930095, -14532.701913440456, 0.0175, -0.108, 0.9884999999999999, 192.0, 0.0, 0.0, 0.0, 0.0, 0.0, 0.0, 0.0, 0.0, 0.0, 1.645922516864841E9, 0.0, 2022-02-27 11:41:56.864
50.0, -1209.2517267765675, -3707.9979429242544, -1944.2888431893402, -9484.180448553616, -46.8492563783236, 148.84026632788974, -4790.314112939133, -1584.2022400143433, -3862.0908691991413, -4908.979524252359, -3428.087047110444, -2675.6155700225318, -2846.0029180053375, -1716.4798637008505, -8467.086668859323, -15614.816917755237, 0.0175, -0.108, 0.9884999999999999, 192.0, 0.0, 0.0, 0.0, 0.0, 0.0, 0.0, 0.0, 0.0, 0.0, 1.645922516872872E9, 0.0, 2022-02-27 11:41:56.872
52.0, -1139.424877098188, -3630.593851875526, -1834.1170947691317, -9359.18949355954, 49.6879279241476, 281.6096283924137, -4565.7237846522075, -1272.618922307363, -1377.2697898471106, -4261.583597848845, -3578.2907698501076, -2598.7702725851864, -3106.847775798771, -1828.2609377218412, -8183.197162532469, -14708.09605218125, 0.0175, -0.108, 0.9884999999999999, 192.0, 0.0, 0.0, 0.0, 0.0, 0.0, 0.0, 0.0, 0.0, 0.0, 1.645922516878893E9, 0.0, 2022-02-27 11:41:56.878
54.0, -769.7940790407753, -3340.065877445445, -1596.2051267868433, -9099.484574733326, 372.20124866977324, 454.92505489886463, -4548.04355478806, -1293.2719341840666, -2843.8795022820836, -4353.382212326791, -3269.45671671113, -2539.35933582298, -2729.706791604375, -1548.7076698193157, -8232.527462545331, -15016.192497753203, 0.0175, -0.108, 0.9884999999999999, 192.0, 0.0, 0.0, 0.0, 0.0, 0.0, 0.0, 0.0, 0.0, 0.0, 1.64592251688831E9, 0.0, 2022-02-27 11:41:56.888
56.0, -1405.1871186717892, -3852.591377805636, -2067.3351964158055, -9611.674798926688, -221.215214874174, 63.99304437554412, -4774.824354031605, -1539.476399359274, -2938.4497330724876, -4888.2147536533785, -3663.5179714581936, -2730.9584892938724, -3139.3695639812427, -1925.0886947022314, -8453.742677419505, -15447.000020384792, 0.014750000000000001, -0.107, 0.98725, 192.0, 0.0, 48.0, 126.0, 88.0, 15.0, 104.0, 0.0, 0.0, 0.0, 1.645922516894553E9, 0.0, 2022-02-27 11:41:56.894
58.0, -787.5860676271997, -3345.51970309254, -1582.279989991187, -9085.402975726483, 355.1468676503739, 489.77142450468835, -4443.2809285260355, -1144.9010544897383, -1465.4474217232969, -4003.108024967674, -3352.8957787627915, -2500.556707448567, -2882.1009853006585, -1611.0243333607118, -8086.50351601881, -14525.527003470303, 0.014750000000000001, -0.107, 0.98725, 192.0, 0.0, 0.0, 0.0, 0.0, 0.0, 0.0, 0.0, 0.0, 0.0, 1.645922516901559E9, 0.0, 2022-02-27 11:41:56.901
60.0, -1179.3450926953665, -3678.985378621266, -1932.1741976945636, -9464.44385819958, -49.531465712960454, 150.11431576184222, -4789.5988571165635, -1593.5452691966618, -3856.9946714633315, -4883.2526663843, -3420.7333231846483, -2664.752622217253, -2854.541284387265, -1708.7685118637696, -8466.01378512547, -15609.765423508337, 0.014750000000000001, -0.107, 0.98725, 192.0, 0.0, 0.0, 0.0, 0.0, 0.0, 0.0, 0.0, 0.0, 0.0, 1.64592251690904E9, 0.0, 2022-02-27 11:41:56.909
62.0, -1146.1751039236908, -3633.9913170327327, -1851.0373653217991, -9377.227351334972, 19.669535120670215, 247.43381112024917, -4588.164936085336, -1313.3661524493878, -1415.5583280990516, -4285.254095227015, -3577.3519965829846, -2601.5642406421, -3122.941031806592, -1839.4368099494948, -8202.218497063936, -14751.145512002173, 0.014750000000000001, -0.107, 0.98725, 192.0, 0.0, 0.0, 0.0, 0.0, 0.0, 0.0, 0.0, 0.0, 0.0, 1.645922516917219E9, 0.0, 2022-02-27 11:41:56.917
64.0, -750.9739102094067, -3325.5372435494955, -1588.8514028610473, -9090.27565601774, 362.1206119204297, 448.7112699402893, -4553.6314909018865, -1287.6392945813293, -2774.3432252816233, -4326.224842813593, -3255.9115595712137, -2525.456550771779, -2737.8204748416515, -1544.3937831394414, -8233.466235812455, -14995.315968431947, 0.014750000000000001, -0.107, 0.98725, 192.0, 0.0, 0.0, 0.0, 0.0, 0.0, 0.0, 0.0, 0.0, 0.0, 1.645922516925171E9, 0.0, 2022-02-27 11:41:56.925
66.0, -1389.809118486538, -3837.526302042759, -2060.674376568124, -9609.260810525515, -231.85464523490015, 49.50911396850515, -4780.2781796787, -1542.2927191606427, -2936.1027999046805, -4881.82215473916, -3646.731811372258, -2723.314192690157, -3138.855473858771, -1927.5920900812257, -8463.644500213206, -15451.716238464862, 0.012375, -0.10450000000000001, 0.985625, 192.0, 0.0, 40.0, 126.0, 104.0, 15.0, 96.0, 0.0, 0.0, 0.0, 1.645922516931788E9, 0.0, 2022-02-27 11:41:56.931
68.0, -774.3314831652026, -3329.5158540625403, -1576.379129454986, -9080.574998924136, 360.6677485308348, 475.041624908641, -4451.662832696776, -1148.723202791596, -1440.6593371223614, -3982.924399724531, -3338.6353658003054, -2487.9279718313187, -2882.592723678675, -1615.405275273952, -8087.196420096925, -14522.353055757649, 0.012375, -0.10450000000000001, 0.985625, 192.0, 0.0, 0.0, 0.0, 0.0, 0.0, 0.0, 0.0, 0.0, 0.0, 1.645922516939612E9, 0.0, 2022-02-27 11:41:56.939
70.0, -1165.6881768331739, -3661.6180731794925, -1928.3744011371616, -9461.5828349093, -38.06502080738793, 146.38157443780597, -4795.879697308505, -1581.9447138243574, -3837.3474880871167, -4863.7395934748165, -3400.2367735191315, -2646.71476444182, -2843.767743559807, -1694.016360523267, -8461.141104834212, -15605.809164739749, 0.012375, -0.10450000000000001, 0.985625, 192.0, 0.0, 0.0, 0.0, 0.0, 0.0, 0.0, 0.0, 0.0, 0.0, 1.645922516954814E9, 0.0, 2022-02-27 11:41:56.954
72.0, -1132.562891550409, -3616.624011590959, -1840.7779146168132, -9369.001909375418, 24.966898556577988, 258.45322113671557, -4589.215468074735, -1281.8054892784942, -1393.4301010882975, -4265.025766494962, -3570.981749413222, -2587.974380013273, -3126.3608487082543, -1835.6817168810032, -8197.658741195053, -14737.868575795721, 0.012375, -0.10450000000000001, 0.985625, 192.0, 0.0, 0.0, 0.0, 0.0, 0.0, 0.0, 0.0, 0.0, 0.0, 1.645922516961479E9, 0.0, 2022-02-27 11:41:56.961
74.0, -741.9438054494626, -3318.1164643903335, -1588.31496099412, -9091.348539751594, 360.2207136417286, 442.4974849817139, -4556.827790358995, -1299.329256931455, -2777.405414272, -4325.084903846372, -3258.5267136724847, -2523.847225170997, -2743.386059211023, -1551.7475070652374, -8231.789854978306, -15001.216828968149, 0.012375, -0.10450000000000001, 0.985625, 192.0, 0.0, 0.0, 0.0, 0.0, 0.0, 0.0, 0.0, 0.0, 0.0, 1.645922516969535E9, 0.0, 2022-02-27 11:41:56.969
76.0, -1386.4787085626972, -3833.167711873974, -2071.425565651127, -9613.597048949845, -240.1694941722744, 40.836637119846, -4795.611476375041, -1556.2625594452095, -2967.6411113311187, -4885.510192574286, -3646.3518317165176, -2721.1460734779926, -3138.9001773476816, -1924.4181423685723, -8467.936035148625, -15468.927081695449, 0.0111875, -0.10425000000000001, 0.9878125, 192.0, 0.0, 40.0, 126.0, 96.0, 15.0, 120.0, 0.0, 0.0, 0.0, 1.645922516977528E9, 0.0, 2022-02-27 11:41:56.977
78.0, -784.769747825831, -3340.6693745457383, -1594.4169872304187, -9090.789746140212, 343.27809134460585, 466.05622363760756, -4461.654062468298, -1150.488990603565, -1421.0568572350571, -3984.6007805586796, -3349.319499649942, -2491.392492221891, -2896.6519709410636, -1621.0602666211448, -8091.487955032344, -14515.759291143333, 0.0111875, -0.10425000000000001, 0.9878125, 192.0, 0.0, 0.0, 0.0, 0.0, 0.0, 0.0, 0.0, 0.0, 0.0, 1.645922516984502E9, 0.0, 2022-02-27 11:41:56.984
80.0, -1162.5365808649756, -3661.886294112956, -1933.358840150695, -9463.259215743448, -44.122343554776144, 138.69257434518033, -4803.2781247232115, -1586.9515045823462, -3837.660412509491, -4863.158448118978, -3406.9199451112686, -2653.263825567225, -2851.3002814412453, -1695.7150931018703, -8463.085706601823, -15594.923865190014, 0.0111875, -0.10425000000000001, 0.9878125, 192.0, 0.0, 0.0, 0.0, 0.0, 0.0, 0.0, 0.0, 0.0, 0.0, 1.645922516991936E9, 0.0, 2022-02-27 11:41:56.991
82.0, -1141.3471271213446, -3625.0953227395207, -1855.0830310682097, -9389.900790441132, 15.914442052178629, 242.27055815107326, -4600.547802513576, -1286.097024213913, -1419.4698833787304, -4287.444566183635, -3584.593961786504, -2600.9607435418066, -3135.7709331239384, -1845.5164844413382, -8209.661627967553, -14758.141608016684, 0.0111875, -0.10425000000000001, 0.9878125, 192.0, 0.0, 0.0, 0.0, 0.0, 0.0, 0.0, 0.0, 0.0, 0.0, 1.645922517000121E9, 0.0, 2022-02-27 11:41:57.000
84.0, -725.6717354859991, -3300.5032897595515, -1580.2236295012988, -9091.840278129612, 386.014626743153, 449.7170984407781, -4533.5596243810205, -1274.3176548859662, -2726.845768314096, -4305.772996636987, -3255.755097360027, -2526.663544972366, -2732.321945705646, -1545.444315128841, -8224.749055474884, -14985.950587505173, 0.0111875, -0.10425000000000001, 0.9878125, 192.0, 0.0, 0.0, 0.0, 0.0, 0.0, 0.0, 0.0, 0.0, 0.0, 1.645922517007042E9, 0.0, 2022-02-27 11:41:57.007
86.0, -1378.454432303242, -3827.4009618045047, -2066.5305336154147, -9622.694208943154, -228.09955216640859, 38.981442330055515, -4781.4404703903765, -1543.4773616167738, -3008.6789141510626, -4897.244858413322, -3636.6064711340036, -2726.890471803006, -3120.8623195722485, -1926.8544825142008, -8467.667814215161, -15490.518866839275, 0.01159375, -0.105125, 0.98890625, 192.0, 0.0, 48.0, 126.0, 88.0, 15.0, 120.0, 0.0, 0.0, 0.0, 1.645922517014249E9, 0.0, 2022-02-27 11:41:57.014
88.0, -781.1040617351606, -3336.0872669324003, -1588.0914435495667, -9101.13860382302, 341.177027365807, 462.92697941386456, -4454.613262964876, -1155.138153450269, -1391.0608161760351, -3981.560943312758, -3345.095019947889, -2490.788995121598, -2884.7161394019295, -1624.5471387561727, -8085.251818329313, -14523.694160424968, 0.01159375, -0.105125, 0.98890625, 192.0, 0.0, 0.0, 0.0, 0.0, 0.0, 0.0, 0.0, 0.0, 0.0, 1.64592251702166E9, 0.0, 2022-02-27 11:41:57.021
90.0, -1143.3811358667774, -3648.475247439772, -1919.1431306771196, -9456.799561595864, -24.788084600935534, 145.64396687078082, -4775.293740665167, -1565.8067543276256, -3823.2882408247283, -4847.378116533532, -3390.4243577032516, -2647.5864824755768, -2830.155531186525, -1688.406072664985, -8454.659098942173, -15594.61094076764, 0.01159375, -0.105125, 0.98890625, 192.0, 0.0, 0.0, 0.0, 0.0, 0.0, 0.0, 0.0, 0.0, 0.0, 1.645922517030074E9, 0.0, 2022-02-27 11:41:57.030
92.0, -1151.9642057376154, -3637.0982095120207, -1866.5047724848716, -9397.43332832257, 1.788139556424565, 236.0344214480426, -4596.680950722808, -1288.8015852930052, -1441.4639999227525, -4295.915877332196, -3586.985598443222, -2604.0005807877283, -3133.71457263405, -1846.812885619746, -8216.367151304144, -14769.25042501097, 0.01159375, -0.105125, 0.98890625, 192.0, 0.0, 0.0, 0.0, 0.0, 0.0, 0.0, 0.0, 0.0, 0.0, 1.645922517036773E9, 0.0, 2022-02-27 11:41:57.036
94.0, -728.8456831986528, -3306.3147433179315, -1579.1060422785333, -9090.141545551009, 387.0875104770077, 454.34390954302665, -4531.0338772575715, -1267.8132972494718, -2695.1733464209256, -4293.568944164389, -3262.4159172077084, -2524.1825013378266, -2743.855445844584, -1553.0439082436453, -8228.526500287831, -14967.644508796277, 0.01159375, -0.105125, 0.98890625, 192.0, 0.0, 0.0, 0.0, 0.0, 0.0, 0.0, 0.0, 0.0, 0.0, 1.645922517044213E9, 0.0, 2022-02-27 11:41:57.044
96.0, -1388.2668481191217, -3834.844092708122, -2073.4595743965597, -9628.5727177349, -227.98779344413205, 34.287575994441035, -4786.894296037472, -1559.861190302514, -3054.9693769180035, -4907.191384695934, -3645.6812793828585, -2725.4599601578666, -3121.622278883729, -1922.875872001156, -8476.854381186293, -15504.555762357208, 0.012796875, -0.1045625, 0.989453125, 192.0, 0.0, 56.0, 126.0, 96.0, 15.0, 120.0, 0.0, 0.0, 0.0, 1.645922517052449E9, 0.0, 2022-02-27 11:41:57.052
98.0, -790.4247391730237, -3342.5916245688945, -1598.3061907656422, -9107.173574825953, 339.52299827611427, 454.4556682653032, -4461.0058618790945, -1158.5356186074757, -1381.4048625713424, -3982.320902624238, -3358.28254917652, -2490.520774188134, -2901.502299487865, -1635.1195138835328, -8092.3373213216455, -14523.8282708917, 0.012796875, -0.1045625, 0.989453125, 192.0, 0.0, 0.0, 0.0, 0.0, 0.0, 0.0, 0.0, 0.0, 0.0, 1.645922517060394E9, 0.0, 2022-02-27 11:41:57.060
100.0, -1137.524978819487, -3641.9708898032773, -1912.2140898959744, -9449.803465581354, -16.517939152471918, 147.29799596047354, -4787.52014488222, -1576.3344259660753, -3821.097769868108, -4841.097276341591, -3390.871392592358, -2641.2162353058143, -2831.161359687014, -1685.5674011191609, -8459.86705540026, -15590.967606421425, 0.012796875, -0.1045625, 0.989453125, 192.0, 0.0, 0.0, 0.0, 0.0, 0.0, 0.0, 0.0, 0.0, 0.0, 1.645922517073896E9, 0.0, 2022-02-27 11:41:57.073
102.0, -1160.2567029305344, -3646.0389072941434, -1864.493115483894, -9410.28558138437, 4.1797762131424205, 222.89159570832203, -4595.988046644694, -1293.7860243065388, -1461.1335350434226, -4315.227784541582, -3590.9642089562667, -2609.320295968091, -3136.62029941324, -1857.8322956362124, -8221.642162995597, -14789.098774087284, 0.012796875, -0.1045625, 0.989453125, 192.0, 0.0, 0.0, 0.0, 0.0, 0.0, 0.0, 0.0, 0.0, 0.0, 1.645922517081877E9, 0.0, 2022-02-27 11:41:57.081
104.0, -735.8194274687085, -3316.1495108782665, -1575.0156730432122, -9095.818888642656, 383.0194929861418, 444.48679023823627, -4534.2078249702245, -1273.0436054520137, -2669.7817647196966, -4297.167575021694, -3265.3663474758087, -2535.9842224102285, -2743.9448528224057, -1562.5433996371507, -8222.849157196184, -14961.363668604336, 0.012796875, -0.1045625, 0.989453125, 192.0, 0.0, 0.0, 0.0, 0.0, 0.0, 0.0, 0.0, 0.0, 0.0, 1.645922517089987E9, 0.0, 2022-02-27 11:41:57.089
106.0, -1408.8081012735488, -3861.755593032312, -2081.6179611227467, -9644.688325487175, -244.9751192301654, 16.249718219008233, -4805.1556712574575, -1577.3402544665641, -3103.3162001748324, -4935.35458270962, -3654.666680653892, -2750.8738936035506, -3127.4784359310197, -1941.8525030437117, -8487.24794235801, -15523.487689910853, 0.012, -0.106, 0.99, 192.0, 0.0, 48.0, 126.0, 88.0, 15.0, 120.0, 0.0, 0.0, 0.0, 1.645922517096506E9, 0.0, 2022-02-27 11:41:57.096
108.0, -817.1350737971156, -3372.699424350193, -1614.242984562276, -9124.227955845352, 312.6338496963799, 438.56357795757987, -4470.304187572502, -1159.2508744300455, -1383.0588916610352, -4000.716388310956, -3374.8228400734474, -2515.3088587890697, -2916.723837461929, -1653.1350199145104, -8105.502498805821, -14524.54352671427, 0.012, -0.106, 0.99, 192.0, 0.0, 0.0, 0.0, 0.0, 0.0, 0.0, 0.0, 0.0, 0.0, 1.645922517104537E9, 0.0, 2022-02-27 11:41:57.104
110.0, -1118.3918855657441, -3631.1973489758193, -1896.3443513327065, -9434.939555518575, -0.5587936113826766, 160.1949525111857, -4782.446298890865, -1573.8980858204468, -3826.752761215301, -4842.86306415356, -3394.3582647273856, -2654.359061045535, -2831.7201532983963, -1691.6247238665492, -8464.180942080135, -15586.720774974916, 0.012, -0.106, 0.99, 192.0, 0.0, 0.0, 0.0, 0.0, 0.0, 0.0, 0.0, 0.0, 0.0, 1.64592251711272E9, 0.0, 2022-02-27 11:41:57.112
112.0, -1188.3304939664, -3672.9951111072437, -1889.4823657849272, -9434.179596207094, -22.061171777388072, 205.59134549991435, -4615.3223055985345, -1335.8520073714267, -1540.3928208819416, -4355.952662939151, -3604.1293864404424, -2625.4359037203676, -3144.1528372946786, -1871.332749287218, -8246.63141329663, -14839.703123534098, 0.012, -0.106, 0.99, 192.0, 0.0, 0.0, 0.0, 0.0, 0.0, 0.0, 0.0, 0.0, 0.0, 1.645922517119184E9, 0.0, 2022-02-27 11:41:57.119
114.0, -724.9788314078846, -3307.901717174258, -1567.796059584148, -9086.632321671525, 390.1496994673848, 450.87938915245405, -4534.364287181412, -1266.1145646708685, -2593.159984726904, -4264.735193817043, -3258.2137892501105, -2527.199986839293, -2740.346221965101, -1552.798039054637, -8213.640238480597, -14931.166461845216, 0.012, -0.106, 0.99, 192.0, 0.0, 0.0, 0.0, 0.0, 0.0, 0.0, 0.0, 0.0, 0.0, 1.64592251712631E9, 0.0, 2022-02-27 11:41:57.126
116.0, -1405.4106361163422, -3857.553465074714, -2071.425565651127, -9639.748589962554, -235.8332557479448, 29.884282336745542, -4797.801947331661, -1574.9039143209357, -3137.179093024623, -4932.9405943084475, -3636.762933345191, -2741.866140588062, -3106.333685676299, -1921.3112498892845, -8482.196448111112, -15532.07075978169, 0.012, -0.098, 0.994, 192.0, 0.0, 48.0, 126.0, 120.0, 15.5, 8.0, 0.0, 0.0, 0.0, 1.645922517134411E9, 0.0, 2022-02-27 11:41:57.134
118.0, -823.058286077772, -3377.326235452442, -1607.3139437811308, -9125.122025623563, 314.13141657488546, 450.4100025188926, -4469.566580005477, -1141.9506242216378, -1360.349519294443, -4004.4714813794476, -3381.0142732875674, -2514.2806785441257, -2913.795758938284, -1649.0670024236445, -8093.544315522232, -14516.005160332343, 0.012, -0.098, 0.994, 192.0, 0.0, 0.0, 0.0, 0.0, 0.0, 0.0, 0.0, 0.0, 0.0, 1.645922517142264E9, 0.0, 2022-02-27 11:41:57.142
120.0, -1125.946775191638, -3640.652136880414, -1894.489156542916, -9438.15820672014, -2.592802356815619, 170.16383053825265, -4779.585275600586, -1565.0914985050558, -3808.357275528583, -4835.755209416772, -3385.0152355450673, -2653.5096947562333, -2817.057408935715, -1677.0290347372336, -8450.524026217941, -15565.12898983109, 0.012, -0.098, 0.994, 192.0, 0.0, 0.0, 0.0, 0.0, 0.0, 0.0, 0.0, 0.0, 0.0, 1.645922517148795E9, 0.0, 2022-02-27 11:41:57.148
122.0, -1184.843621831372, -3668.3906517494506, -1879.6923017135027, -9422.91431700162, -20.00481128749982, 218.73417123963492, -4596.09980536697, -1324.8325973549602, -1514.2412798692324, -4350.43178205869, -3603.280020151141, -2629.3698107445016, -3140.911834348659, -1863.979025361422, -8232.05807591177, -14813.730396477033, 0.012, -0.098, 0.994, 192.0, 0.0, 0.0, 0.0, 0.0, 0.0, 0.0, 0.0, 0.0, 0.0, 1.645922517156821E9, 0.0, 2022-02-27 11:41:57.156
124.0, -732.28785184477, -3310.829795697903, -1570.7911933411592, -9082.98898732531, 392.20605995727306, 458.5236857561691, -4522.786083553563, -1262.068898924458, -2616.808130360619, -4277.542743389934, -3265.589864920362, -2534.8666351874635, -2746.9846900683274, -1557.7377745792598, -8212.947334402483, -14933.647505479754, 0.012, -0.098, 0.994, 192.0, 0.0, 0.0, 0.0, 0.0, 0.0, 0.0, 0.0, 0.0, 0.0, 1.645922517164811E9, 0.0, 2022-02-27 11:41:57.164
126.0, -1399.3086098800434, -3848.9033399705104, -2073.928961030121, -9636.596993994355, -241.24237790612912, 25.48098867905005, -4805.736816613295, -1594.6181529305165, -3168.9856253845246, -4944.518797936296, -3636.450008922817, -2739.988594053816, -3107.361865921243, -1918.517281832371, -8488.499640047508, -15544.721847143395, 0.014, -0.10200000000000001, 0.996, 192.0, 0.0, 56.0, 126.0, 104.0, 15.5, 16.0, 0.0, 0.0, 0.0, 1.645922517172028E9, 0.0, 2022-02-27 11:41:57.172
128.0, -828.3556495136797, -3371.291264449509, -1610.1079118380442, -9130.844072204121, 305.72716065969, 457.85313342250987, -4468.493696271622, -1128.0701909148922, -1338.5342167060635, -3997.3412748982046, -3374.264046462065, -2507.5080999741676, -2911.828805426217, -1648.1282291565217, -8092.9855219108495, -14519.223811533906, 0.014, -0.10200000000000001, 0.996, 192.0, 0.0, 0.0, 0.0, 0.0, 0.0, 0.0, 0.0, 0.0, 0.0, 1.645922517179595E9, 0.0, 2022-02-27 11:41:57.179
130.0, -1112.2898593294453, -3625.0953227395207, -1880.6757784695362, -9428.166976948616, 13.9251367956563, 170.94614159418842, -4766.822429516606, -1549.3111669196091, -3802.367008014561, -4824.601688933574, -3377.996787786101, -2644.7254591852975, -2813.928164711972, -1670.1894009339096, -8446.321898260343, -15559.116370572612, 0.014, -0.10200000000000001, 0.996, 192.0, 0.0, 0.0, 0.0, 0.0, 0.0, 0.0, 0.0, 0.0, 0.0, 1.645922517187571E9, 0.0, 2022-02-27 11:41:57.187
132.0, -1205.7648546415394, -3683.925114145889, -1888.8565169401786, -9436.370067163714, -31.80653235990195, 208.78764495702328, -4620.440855078799, -1322.6644781427954, -1562.8339723150698, -4385.568724342433, -3614.008857489688, -2636.2094445478256, -3146.5221222069413, -1876.2277813229302, -8243.30100337279, -14845.961611981586, 0.014, -0.10200000000000001, 0.996, 192.0, 0.0, 0.0, 0.0, 0.0, 0.0, 0.0, 0.0, 0.0, 0.0, 1.645922517201645E9, 0.0, 2022-02-27 11:41:57.201
134.0, -722.4307325399795, -3299.0504263699563, -1552.7756873101816, -9075.478801188327, 404.18659498531764, 468.82783995006565, -4513.823034026985, -1263.4994105695976, -2557.240731387226, -4261.203618193104, -3257.945568316647, -2521.9696786367513, -2736.5687771521543, -1541.2421871712431, -8205.168927332035, -14914.894391881751, 0.014, -0.10200000000000001, 0.996, 192.0, 0.0, 0.0, 0.0, 0.0, 0.0, 0.0, 0.0, 0.0, 0.0, 1.64592251720925E9, 0.0, 2022-02-27 11:41:57.209
136.0, -1396.1793656563004, -3841.683726511446, -2069.8832952837106, -9635.501758516046, -238.22489240466268, 28.029087546955058, -4807.90493582546, -1570.1206410075, -3196.7017885091054, -4947.603338671129, -3622.0107820046883, -2730.9137858049617, -3093.3473221477657, -1907.2072991379857, -8490.913628448681, -15555.249518781844, 0.012, -0.10400000000000001, 0.996, 192.0, 0.0, 48.0, 126.0, 96.0, 15.5, 16.0, 0.0, 0.0, 0.0, 1.645922517217435E9, 0.0, 2022-02-27 11:41:57.217
138.0, -824.3099837672692, -3366.1727149692438, -1608.1409583259772, -9129.23474660334, 305.436587981771, 445.559673972091, -4459.865922911874, -1157.5744935958974, -1324.9667078216921, -3991.2168969174504, -3364.183409712721, -2497.628628924922, -2908.945430391482, -1646.764772744748, -8093.1643358664915, -14516.563953943725, 0.012, -0.10400000000000001, 0.996, 192.0, 0.0, 0.0, 0.0, 0.0, 0.0, 0.0, 0.0, 0.0, 0.0, 1.645922517225269E9, 0.0, 2022-02-27 11:41:57.225
140.0, -1090.6086672077975, -3597.5579735705824, -1865.7224614289357, -9408.609200550223, 18.26137521998587, 183.44076674470506, -4760.586292813575, -1560.4870391472625, -3784.552667683681, -4807.860232336549, -3362.194104456199, -2626.5311391986775, -2802.6628855064973, -1663.372118875041, -8445.897215115692, -15559.161074061523, 0.012, -0.10400000000000001, 0.996, 192.0, 0.0, 0.0, 0.0, 0.0, 0.0, 0.0, 0.0, 0.0, 0.0, 1.64592251723185E9, 0.0, 2022-02-27 11:41:57.231
142.0, -1200.9145260947378, -3671.609302951015, -1887.8059849507792, -9435.05131424085, -41.55189294241583, 207.2677263340624, -4615.143491642892, -1324.6314316548624, -1580.2906847346646, -4380.62898881781, -3599.703741038292, -2615.7352466267644, -3136.0168023129468, -1868.6058364636704, -8254.58863432272, -14865.050001746416, 0.012, -0.10400000000000001, 0.996, 192.0, 0.0, 0.0, 0.0, 0.0, 0.0, 0.0, 0.0, 0.0, 0.0, 1.645922517239915E9, 0.0, 2022-02-27 11:41:57.239
144.0, -717.1780725929824, -3290.422653010208, -1548.148876207933, -9065.778144094724, 399.98446702771986, 486.30690411411575, -4504.5023565891215, -1221.5004827380756, -2510.950268620285, -4239.723591771554, -3250.9271205576806, -2509.139777319405, -2734.087733517615, -1541.5551115936175, -8202.486717997399, -14890.41923170319, 0.012, -0.10400000000000001, 0.996, 192.0, 0.0, 0.0, 0.0, 0.0, 0.0, 0.0, 0.0, 0.0, 0.0, 1.64592251724777E9, 0.0, 2022-02-27 11:41:57.247
146.0, -1386.1657841403228, -3829.3232118276615, -2064.094193469786, -9629.355028790837, -241.97998547315427, 42.22244527607504, -4791.856383306549, -1570.9476555523463, -3222.853329521815, -4944.228225258377, -3615.0370377346326, -2721.4366461559116, -3080.4503655970534, -1895.4502815544943, -8492.880581960748, -15558.26700428331, 0.014, -0.10400000000000001, 0.992, 192.0, 0.0, 56.0, 126.0, 96.0, 15.5, 0.0, 0.0, 0.0, 0.0, 1.645922517253934E9, 0.0, 2022-02-27 11:41:57.253
148.0, -852.6966992255092, -3392.905401337791, -1612.1419205834773, -9138.108389152098, 302.75437864713416, 443.32449952656026, -4439.414076735267, -1152.0312609709813, -1307.8899750578375, -3996.961295242464, -3373.5264388950395, -2498.276829514126, -2912.3205438042337, -1644.1719703879323, -8088.604579997609, -14508.226753261895, 0.014, -0.10400000000000001, 0.992, 192.0, 0.0, 0.0, 0.0, 0.0, 0.0, 0.0, 0.0, 0.0, 0.0, 1.645922517261479E9, 0.0, 2022-02-27 11:41:57.261
150.0, -1099.1023301008142, -3613.8300435340457, -1856.4688392244386, -9406.418729593603, 32.25356724900809, 194.6166389723586, -4745.3424030950555, -1529.216948654288, -3786.0725863066423, -4820.131340042512, -3367.2008952141878, -2645.127790585493, -2797.1196528815813, -1660.1981711623873, -8431.502691686475, -15539.64800115204, 0.014, -0.10400000000000001, 0.992, 192.0, 0.0, 0.0, 0.0, 0.0, 0.0, 0.0, 0.0, 0.0, 0.0, 1.645922517269484E9, 0.0, 2022-02-27 11:41:57.269
152.0, -1219.3547152703661, -3688.6413322259586, -1892.7680722198575, -9448.082381258295, -48.59269244583756, 200.69631346420212, -4607.946229928283, -1309.7228181031726, -1619.5179962537286, -4414.11190201186, -3611.2595929216855, -2641.7526771727416, -3147.1703227961452, -1876.3395400452066, -8252.01818371036, -14873.36485068379, 0.014, -0.10400000000000001, 0.992, 192.0, 0.0, 0.0, 0.0, 0.0, 0.0, 0.0, 0.0, 0.0, 0.0, 1.645922517277433E9, 0.0, 2022-02-27 11:41:57.277
154.0, -709.3326102891697, -3284.767661663015, -1541.3986493824304, -9062.112458004052, 410.4897869217142, 485.7257587582778, -4497.260391385602, -1223.199215316679, -2480.171916505327, -4232.638088779222, -3251.1506380022333, -2513.1183878324496, -2735.093562018104, -1540.8845592599582, -8192.495488225877, -14879.444525175635, 0.014, -0.10400000000000001, 0.992, 192.0, 0.0, 0.0, 0.0, 0.0, 0.0, 0.0, 0.0, 0.0, 0.0, 1.645922517284022E9, 0.0, 2022-02-27 11:41:57.284
156.0, -1392.6254382879065, -3837.101618898108, -2062.55192310237, -9631.724313703098, -235.27446213656214, 33.34880272731814, -4797.556078142653, -1574.9486178098462, -3254.5033996705297, -4953.392440485053, -3607.0127614751773, -2723.068323501149, -3073.007234693436, -1891.2258018524412, -8499.139070408233, -15573.13091434609, 0.016, -0.108, 0.99, 192.0, 0.0, 64.0, 126.0, 80.0, 15.0, 120.0, 0.0, 0.0, 0.0, 1.645922517292077E9, 0.0, 2022-02-27 11:41:57.292
158.0, -846.9970043894058, -3387.38452045733, -1608.0291996037006, -9138.108389152098, 299.60278267893585, 437.0213075901637, -4457.4519345107, -1150.4442871146546, -1291.841422538927, -3996.1119289531625, -3368.117316736855, -2497.8297946250195, -2915.8968229170828, -1645.3342610996083, -8092.27026608828, -14512.026549819298, 0.016, -0.108, 0.99, 192.0, 0.0, 0.0, 0.0, 0.0, 0.0, 0.0, 0.0, 0.0, 0.0, 1.645922517300407E9, 0.0, 2022-02-27 11:41:57.300
160.0, -1091.7709579194734, -3608.9797149872443, -1847.5951966756818, -9399.71320625701, 41.99892783152197, 195.3095430504731, -4748.493999063254, -1532.0332684556568, -3759.541065638193, -4795.455014163854, -3351.8228950289367, -2633.3484212575463, -2788.782452199752, -1654.409069348463, -8429.692200385594, -15532.003704548324, 0.016, -0.108, 0.99, 192.0, 0.0, 0.0, 0.0, 0.0, 0.0, 0.0, 0.0, 0.0, 0.0, 1.645922517307149E9, 0.0, 2022-02-27 11:41:57.307
162.0, -1221.9475176271817, -3696.4867945297715, -1885.7272727164357, -9447.165959735628, -37.707392896103016, 208.58647925692551, -4618.473901566733, -1324.4749694436753, -1613.2371560617873, -4418.470492180645, -3612.377180144451, -2638.8022469046414, -3145.3821832397207, -1872.718557443447, -8254.63333781163, -14874.817714073386, 0.016, -0.108, 0.99, 192.0, 0.0, 0.0, 0.0, 0.0, 0.0, 0.0, 0.0, 0.0, 0.0, 1.645922517321724E9, 0.0, 2022-02-27 11:41:57.321
164.0, -725.0905901301611, -3299.720978703616, -1536.056582457612, -9059.564359136148, 414.2225282457505, 493.7276832732777, -4477.680263242753, -1217.9465553696818, -2465.687986098288, -4239.1871499046265, -3259.8007631064374, -2521.6120507254664, -2737.664012630464, -1543.0973819610338, -8190.215610291435, -14872.448429161124, 0.016, -0.108, 0.99, 192.0, 0.0, 0.0, 0.0, 0.0, 0.0, 0.0, 0.0, 0.0, 0.0, 1.645922517329739E9, 0.0, 2022-02-27 11:41:57.329
166.0, -1415.4242176323198, -3857.24054065234, -2061.546094601881, -9628.90799390173, -228.27836612205104, 45.82107613337948, -4787.341330926577, -1562.3422339370532, -3304.526603761507, -4973.061975605724, -3622.5472238716156, -2731.6513933719866, -3074.4153945941207, -1884.6990924714914, -8491.561829037884, -15573.175617835, 0.02, -0.106, 0.99, 192.0, 0.0, 80.0, 126.0, 88.0, 15.0, 120.0, 0.0, 0.0, 0.0, 1.645922517336715E9, 0.0, 2022-02-27 11:41:57.336
168.0, -868.1194028996711, -3402.8295758759473, -1609.5938217155722, -9138.845996719123, 300.9662390907096, 444.9338251273424, -4453.294510042013, -1138.620214297797, -1280.5314398445416, -4011.22170820495, -3393.0171600600675, -2508.4692249857458, -2921.283593330812, -1645.3342610996083, -8086.212943340892, -14503.666997393013, 0.02, -0.106, 0.99, 192.0, 0.0, 0.0, 0.0, 0.0, 0.0, 0.0, 0.0, 0.0, 0.0, 1.645922517344304E9, 0.0, 2022-02-27 11:41:57.344
170.0, -1086.6077049502976, -3600.1060724384874, -1832.0607342792434, -9383.687005482556, 65.35650078731786, 219.0470956620092, -4723.750617951228, -1517.4152275818858, -3739.4468473728716, -4784.212086702834, -3353.2087031851656, -2629.9509561003397, -2780.601713729109, -1631.2303103483093, -8417.979886291014, -15511.171878715979, 0.02, -0.106, 0.99, 192.0, 0.0, 0.0, 0.0, 0.0, 0.0, 0.0, 0.0, 0.0, 0.0, 1.645922517352242E9, 0.0, 2022-02-27 11:41:57.352
172.0, -1243.9639859156594, -3707.4167975684168, -1890.488194285416, -9451.211625482038, -41.52954119796052, 200.38338904182783, -4605.2863723381015, -1324.1173415323904, -1643.6355285210047, -4433.848492365896, -3619.9544215148, -2641.976194617295, -3147.974985596536, -1866.258903295863, -8258.522541346854, -14890.75450787002, 0.02, -0.106, 0.99, 192.0, 0.0, 0.0, 0.0, 0.0, 0.0, 0.0, 0.0, 0.0, 0.0, 1.64592251735927E9, 0.0, 2022-02-27 11:41:57.359
174.0, -750.5492270647559, -3327.5041970615625, -1535.2966231461314, -9059.184379480408, 418.3576009699823, 486.99980819223026, -4486.3080366025015, -1225.2108723176566, -2438.016526462618, -4233.286289368426, -3267.579170176884, -2519.9580216357735, -2744.928329578439, -1540.9069110044136, -8188.516877712832, -14864.670022090677, 0.02, -0.106, 0.99, 192.0, 0.0, 0.0, 0.0, 0.0, 0.0, 0.0, 0.0, 0.0, 0.0, 1.645922517367102E9, 0.0, 2022-02-27 11:41:57.367
176.0, -1461.8934943549032, -3903.9780383083867, -2068.229266194018, -9636.127607360793, -226.08789516543095, 33.572320171871205, -4798.4054444319545, -1574.6580451319273, -3343.9550809806683, -4992.619752004118, -3629.565671630582, -2745.9118063344727, -3077.879914984693, -1886.4425285390055, -8503.184736154644, -15593.51570528933, 0.02, -0.10400000000000001, 0.986, 192.0, 0.0, 80.0, 126.0, 96.0, 15.0, 104.0, 0.0, 0.0, 0.0, 1.645922517374046E9, 0.0, 2022-02-27 11:41:57.374
178.0, -954.0395085858713, -3476.92560874529, -1627.7210864688261, -9152.234691647851, 307.0459135825531, 441.8045809035994, -4447.661870439276, -1143.0905631888586, -1299.3069051869995, -4026.577356645746, -3420.5992127179165, -2524.741294949209, -2937.8015324832836, -1653.2020751478763, -8090.660940487497, -14509.031416062286, 0.02, -0.10400000000000001, 0.986, 192.0, 0.0, 0.0, 0.0, 0.0, 0.0, 0.0, 0.0, 0.0, 0.0, 1.645922517381924E9, 0.0, 2022-02-27 11:41:57.381
180.0, -1179.166278739724, -3694.8327654400787, -1833.1336180130982, -9377.18264784606, 88.66937025420312, 222.1539881412969, -4724.197652840335, -1515.671791514372, -3760.79276332769, -4802.741682856284, -3380.3660726983635, -2644.5689969741106, -2784.3791585420563, -1630.7385719702927, -8414.42595892262, -15506.478012380365, 0.02, -0.10400000000000001, 0.986, 192.0, 0.0, 0.0, 0.0, 0.0, 0.0, 0.0, 0.0, 0.0, 0.0, 1.645922517389105E9, 0.0, 2022-02-27 11:41:57.389
182.0, -1383.0141881721245, -3843.516569556781, -1908.5260520608488, -9456.978375551507, -41.06015456439908, 197.8799936628334, -4617.669238766342, -1344.412725497809, -1717.0610090566886, -4473.3887283073345, -3651.5821399190595, -2659.611720992532, -3153.0264798434355, -1867.4658974964498, -8268.916102518571, -14917.889525638764, 0.02, -0.10400000000000001, 0.986, 192.0, 0.0, 0.0, 0.0, 0.0, 0.0, 0.0, 0.0, 0.0, 0.0, 1.645922517396593E9, 0.0, 2022-02-27 11:41:57.396
184.0, -894.3827026346568, -3463.492210327651, -1541.3092424046092, -9052.8364840551, 432.66271742137883, 498.68977054235586, -4474.998053908116, -1192.1526422682575, -2438.463561351724, -4245.982080219041, -3299.676275214705, -2541.102771890494, -2752.5279226932435, -1522.3549631065086, -8180.5596566867425, -14838.205556655594, 0.019000000000000003, -0.10600000000000001, 0.985, 192.0, 0.0, 72.0, 126.0, 80.0, 15.0, 96.0, 0.0, 0.0, 0.0, 1.645922517404687E9, 0.0, 2022-02-27 11:41:57.404
186.0, -1599.8708128775136, -4042.6259091646566, -2069.7268330725233, -9634.138302104271, -214.9120229377774, 38.914387096689595, -4803.367531701032, -1571.372338696997, -3445.96844267469, -5029.90246175557, -3650.6433666519365, -2773.1138793365812, -3068.6039410357407, -1859.7321939149135, -8502.245962887522, -15605.56329555074, 0.019000000000000003, -0.10600000000000001, 0.985, 192.0, 0.0, 0.0, 0.0, 0.0, 0.0, 0.0, 0.0, 0.0, 0.0, 1.645922517412804E9, 0.0, 2022-02-27 11:41:57.412
188.0, -1089.915763129683, -3611.8630900219787, -1640.573339530628, -9168.797334289233, 287.24226799515105, 437.0883628235296, -4452.333385030435, -1131.1323799052693, -1321.6586496423067, -4065.648205953623, -3462.0393469380556, -2561.0628796890833, -2959.8850560051274, -1648.239987878798, -8097.344112079634, -14513.121785297608, 0.019000000000000003, -0.10600000000000001, 0.985, 192.0, 0.0, 0.0, 0.0, 0.0, 0.0, 0.0, 0.0, 0.0, 0.0, 1.645922517419238E9, 0.0, 2022-02-27 11:41:57.419
190.0, -1256.0115761770699, -3769.599350643081, -1833.8041703467572, -9378.568456002291, 84.8472219523456, 226.73609575463485, -4725.806978441117, -1512.2966781016205, -3760.1892662273967, -4800.238287477289, -3393.4641949491734, -2668.8206397081185, -2789.2071353444026, -1618.3333537975973, -8413.956572289058, -15484.193323158423, 0.019000000000000003, -0.10600000000000001, 0.985, 192.0, 0.0, 0.0, 0.0, 0.0, 0.0, 0.0, 0.0, 0.0, 0.0, 1.645922517427286E9, 0.0, 2022-02-27 11:41:57.427
192.0, -1429.1034852389678, -3893.360959692116, -1919.970145221966, -9474.144515293183, -55.141753571242525, 195.15308083928596, -4620.82083473454, -1346.357327265421, -1753.4496490299284, -4490.979551193661, -3670.469363983794, -2689.384244607001, -3169.790288184916, -1878.4182522795502, -8277.365061922677, -14922.29281929646, 0.019000000000000003, -0.10600000000000001, 0.985, 192.0, 0.0, 0.0, 0.0, 0.0, 0.0, 0.0, 0.0, 0.0, 0.0, 1.64592251743516E9, 0.0, 2022-02-27 11:41:57.435
194.0, -881.1281181726597, -3454.73032650117, -1543.4997133612292, -9060.883112059011, 427.74533364121123, 499.85206125403187, -4482.038853411538, -1202.0321133175032, -2420.0233721760956, -4241.534083072434, -3305.912411917736, -2548.367088838469, -2762.5638559536765, -1533.8214080120813, -8186.304055011757, -14837.356190366292, 0.0205, -0.10500000000000001, 0.9864999999999999, 192.0, 0.0, 88.0, 126.0, 96.0, 15.0, 112.0, 0.0, 0.0, 0.0, 1.64592251744901E9, 0.0, 2022-02-27 11:41:57.449
196.0, -1555.2120274558101, -4000.492870866403, -2077.907571543166, -9641.044991140961, -219.3823718288388, 42.021279575977275, -4806.966162558337, -1563.3033589486313, -3429.606965733405, -5020.447673850975, -3645.3683549604843, -2765.603693199598, -3072.3813858486874, -1868.4046707635728, -8508.370340868276, -15604.266894372333, 0.0205, -0.10500000000000001, 0.9864999999999999, 192.0, 0.0, 0.0, 0.0, 0.0, 0.0, 0.0, 0.0, 0.0, 0.0, 1.645922517456888E9, 0.0, 2022-02-27 11:41:57.456
198.0, -1011.2376226470021, -3546.3501270234738, -1641.7803337312143, -9165.109296454108, 286.92934357277676, 441.1563803143955, -4464.4703822696665, -1130.9535659496269, -1288.6004195929074, -4041.709487641989, -3438.033573393056, -2541.5721585240553, -2956.085259447725, -1657.3594996165634, -8100.0263214142715, -14503.935218326476, 0.0205, -0.10500000000000001, 0.9864999999999999, 192.0, 0.0, 0.0, 0.0, 0.0, 0.0, 0.0, 0.0, 0.0, 0.0, 1.645922517464811E9, 0.0, 2022-02-27 11:41:57.464
200.0, -1149.6619760587187, -3669.8211633945903, -1812.4135509030284, -9357.490760980936, 114.41857986671685, 242.24820640661795, -4715.6369347139525, -1507.893384443925, -3728.9638792233327, -4772.097441208058, -3371.2689127050535, -2644.3678312740126, -2792.69400747943, -1627.408162046452, -8414.917697300638, -15483.813343502683, 0.0205, -0.10500000000000001, 0.9864999999999999, 192.0, 0.0, 0.0, 0.0, 0.0, 0.0, 0.0, 0.0, 0.0, 0.0, 1.645922517471698E9, 0.0, 2022-02-27 11:41:57.471
202.0, -1350.291234289555, -3810.0560081071867, -1922.6523545566029, -9480.470058974035, -62.11549784129833, 179.4621562316604, -4639.328079143534, -1361.7800309395827, -1788.9218674805009, -4490.443109326734, -3642.574386903571, -2660.9304739153954, -3169.522067251452, -1878.1947348349972, -8289.591466139731, -14962.123627915817, 0.0205, -0.10500000000000001, 0.9864999999999999, 192.0, 0.0, 0.0, 0.0, 0.0, 0.0, 0.0, 0.0, 0.0, 0.0, 1.645922517479498E9, 0.0, 2022-02-27 11:41:57.479
204.0, -789.0836345057053, -3355.4662293751517, -1525.9759457082685, -9049.260204942251, 435.32257501156033, 499.6732472983894, -4472.829934695952, -1193.8960783357713, -2306.7447312765994, -4177.228114274516, -3269.970806833602, -2512.6713529433437, -2762.2732832757574, -1528.2334718982545, -8170.926054826505, -14804.946160906096, 0.01525, -0.10650000000000001, 0.98525, 192.0, 0.0, 40.0, 126.0, 80.0, 15.0, 96.0, 0.0, 0.0, 0.0, 1.645922517487572E9, 0.0, 2022-02-27 11:41:57.487
206.0, -1463.3687094889533, -3911.4211692120043, -2057.746298044479, -9633.043066625962, -219.3823718288388, 27.738514869036063, -4812.978781816814, -1601.7260076673042, -3434.189073346743, -4974.492487250864, -3600.217831160764, -2734.937099806917, -3051.661318738618, -1856.4688392244386, -8506.58220131185, -15618.549659079274, 0.01525, -0.10650000000000001, 0.98525, 192.0, 0.0, 0.0, 0.0, 0.0, 0.0, 0.0, 0.0, 0.0, 0.0, 1.645922517496398E9, 0.0, 2022-02-27 11:41:57.496
208.0, -960.4991627334551, -3489.286123429075, -1642.18266513141, -9177.20159020443, 262.16361071629655, 405.7065136082785, -4478.373167320868, -1174.8970955487605, -1246.3779743168325, -4026.51030141238, -3427.4611982656957, -2529.256347329181, -2968.2893119203227, -1677.9678080043566, -8106.664789517497, -14525.39289300357, 0.01525, -0.10650000000000001, 0.98525, 192.0, 0.0, 0.0, 0.0, 0.0, 0.0, 0.0, 0.0, 0.0, 0.0, 1.645922517501112E9, 0.0, 2022-02-27 11:41:57.501
210.0, -1092.9332486311494, -3612.645401077915, -1806.4009316445508, -9355.255586535404, 100.71696051561362, 224.41151433128292, -4725.941088907849, -1522.377314850964, -3668.792983149646, -4737.005202413226, -3342.9269007357243, -2622.5078251967225, -2779.5288299952545, -1627.922252168924, -8409.799147820371, -15475.565549798674, 0.01525, -0.10650000000000001, 0.98525, 192.0, 0.0, 0.0, 0.0, 0.0, 0.0, 0.0, 0.0, 0.0, 0.0, 1.645922517509183E9, 0.0, 2022-02-27 11:41:57.509
212.0, -1307.644105868829, -3761.6197778725364, -1919.7913312663236, -9479.821858384832, -77.80642244892388, 164.93352233571082, -4644.5583873460755, -1347.7878389105606, -1761.719794478392, -4481.860039455895, -3641.210930491797, -2657.644767480465, -3176.071128376857, -1889.1917931070082, -8295.246457486923, -14958.815569736431, 0.01525, -0.10650000000000001, 0.98525, 192.0, 0.0, 0.0, 0.0, 0.0, 0.0, 0.0, 0.0, 0.0, 0.0, 1.645922517517231E9, 0.0, 2022-02-27 11:41:57.517
214.0, -754.2819683887922, -3325.2466708715765, -1529.216948654288, -9053.954071277865, 426.5830429295353, 484.0940814130404, -4477.724966731664, -1201.8756511063161, -2307.370580121348, -4181.944332354586, -3269.1214405443, -2515.912355889363, -2772.9127136364837, -1537.800018525126, -8182.817182876728, -14817.060806400874, 0.014624999999999999, -0.10525000000000001, 0.983625, 192.0, 0.0, 56.0, 126.0, 96.0, 15.0, 88.0, 0.0, 0.0, 0.0, 1.645922517524262E9, 0.0, 2022-02-27 11:41:57.524
216.0, -1429.5952236169844, -3876.977131006376, -2064.3400626587945, -9633.087770114871, -219.53883404002596, 23.53638691143834, -4811.347104471577, -1597.79210064317, -3450.058811910011, -4986.428318789997, -3596.507441581183, -2739.228634742336, -3061.853714210238, -1867.555304474271, -8520.68615206315, -15632.407740641564, 0.014624999999999999, -0.10525000000000001, 0.983625, 192.0, 0.0, 0.0, 0.0, 0.0, 0.0, 0.0, 0.0, 0.0, 0.0, 1.645922517531677E9, 0.0, 2022-02-27 11:41:57.531
218.0, -920.0425052693494, -3453.053945667022, -1643.9708046878345, -9176.553389615225, 261.761279316101, 399.4033216718819, -4468.270178827069, -1166.7387088225735, -1222.0369246050032, -4014.418007662059, -3415.7488841711147, -2517.0299431121284, -2972.089108477725, -1675.3526539030856, -8110.442234330444, -14519.8273086342, 0.014624999999999999, -0.10525000000000001, 0.983625, 192.0, 0.0, 0.0, 0.0, 0.0, 0.0, 0.0, 0.0, 0.0, 0.0, 1.645922517539699E9, 0.0, 2022-02-27 11:41:57.539
220.0, -1036.4280386481332, -3567.3607668114623, -1791.2240971593974, -9341.464560206481, 114.79855952245707, 224.344459097917, -4717.760350437206, -1520.5891752945395, -3637.075857767565, -4710.428978255865, -3327.9512319506684, -2609.1861855013594, -2777.807745672196, -1617.9757258863124, -8409.307409442355, -15463.741476981817, 0.014624999999999999, -0.10525000000000001, 0.983625, 192.0, 0.0, 0.0, 0.0, 0.0, 0.0, 0.0, 0.0, 0.0, 0.0, 1.645922517547825E9, 0.0, 2022-02-27 11:41:57.547
222.0, -1275.6140560643742, -3744.8336177866004, -1922.3841336231392, -9486.236809043505, -74.99010264755519, 158.74208912159077, -4651.934463016327, -1382.7012637497503, -1794.0404169607662, -4497.148632663326, -3630.0350582641436, -2657.0859738690824, -3176.272294076955, -1898.5571740337818, -8307.517565192886, -14993.594884108888, 0.014624999999999999, -0.10525000000000001, 0.983625, 192.0, 0.0, 0.0, 0.0, 0.0, 0.0, 0.0, 0.0, 0.0, 0.0, 1.645922517554652E9, 0.0, 2022-02-27 11:41:57.554
224.0, -712.4618545129126, -3292.300199544454, -1519.4492363273189, -9043.672268828424, 439.77057215816643, 493.0571309396185, -4483.335254589946, -1187.8387555883833, -2234.213320519128, -4161.671300133622, -3250.54714090194, -2504.848242383986, -2770.6328357020425, -1545.3549081510198, -8177.51981944082, -14797.748899191487, 0.0163125, -0.10362500000000001, 0.9868125, 192.0, 0.0, 72.0, 126.0, 104.0, 15.0, 120.0, 0.0, 0.0, 0.0, 1.645922517569393E9, 0.0, 2022-02-27 11:41:57.569
226.0, -1389.1832696417891, -3838.8450549656222, -2050.92901598561, -9625.354066533335, -206.75363621159033, 20.608308387793112, -4810.85536609356, -1603.469443734818, -3455.289120112553, -4978.4934495083635, -3571.7864122136134, -2721.72721883383, -3051.7283739719837, -1862.6602724385586, -8515.947582238625, -15637.839214544203, 0.0163125, -0.10362500000000001, 0.9868125, 192.0, 0.0, 0.0, 0.0, 0.0, 0.0, 0.0, 0.0, 0.0, 0.0, 1.645922517576438E9, 0.0, 2022-02-27 11:41:57.576
228.0, -895.0309032238607, -3427.39414303233, -1639.567511030139, -9176.620444848591, 273.115965499397, 400.76677808365565, -4461.162324090281, -1169.6444356017632, -1197.0029708150591, -4006.4384348915146, -3402.226078775654, -2511.5314139761226, -2969.272788676356, -1677.6548835819822, -8099.042844658237, -14524.54352671427, 0.0163125, -0.10362500000000001, 0.9868125, 192.0, 0.0, 0.0, 0.0, 0.0, 0.0, 0.0, 0.0, 0.0, 0.0, 1.645922517584133E9, 0.0, 2022-02-27 11:41:57.584
230.0, -997.1336718957034, -3532.4249902278175, -1779.5564865537272, -9330.04281878982, 129.39424865177259, 229.28419462253984, -4710.607792211508, -1512.3637333349864, -3605.2246219187527, -4694.469832714776, -3306.806481695948, -2603.911173809907, -2771.4598502468884, -1606.084597836089, -8398.220944192522, -15458.555872268185, 0.0163125, -0.10362500000000001, 0.9868125, 192.0, 0.0, 0.0, 0.0, 0.0, 0.0, 0.0, 0.0, 0.0, 0.0, 1.645922517592022E9, 0.0, 2022-02-27 11:41:57.592
232.0, -1245.1709801162458, -3713.8093964826344, -1916.0809416867426, -9478.659567673156, -75.68300672566971, 154.24938848607405, -4653.432029894832, -1380.8460689599597, -1784.5409255672605, -4483.335254589946, -3612.377180144451, -2645.9548051303395, -3168.180962584134, -1890.1305663741311, -8309.59627742723, -15004.033148769517, 0.0163125, -0.10362500000000001, 0.9868125, 192.0, 0.0, 0.0, 0.0, 0.0, 0.0, 0.0, 0.0, 0.0, 0.0, 1.645922517600029E9, 0.0, 2022-02-27 11:41:57.600
234.0, -681.7505576313207, -3261.7677166185044, -1509.1003786445117, -9030.350629133061, 438.6529849354011, 489.6373140379565, -4473.83576319644, -1221.746351927084, -2189.7780525419776, -4133.664564331122, -3233.0233732489796, -2488.7773381206202, -2765.603693199598, -1537.2859284026538, -8177.51981944082, -14793.345605533792, 0.01615625, -0.1038125, 0.98940625, 192.0, 0.0, 64.0, 126.0, 96.0, 15.5, 0.0, 0.0, 0.0, 0.0, 1.645922517607128E9, 0.0, 2022-02-27 11:41:57.607
236.0, -1372.6876822337726, -3824.2493658363064, -2049.900835740666, -9615.407540250724, -208.02768564554285, 14.439226918128362, -4815.035142306703, -1622.826054433114, -3470.8906377423573, -4969.642158704061, -3552.5639119820494, -2713.6582390854646, -3041.111295355713, -1846.0976297971763, -8524.798873042926, -15654.044229274301, 0.01615625, -0.1038125, 0.98940625, 192.0, 0.0, 0.0, 0.0, 0.0, 0.0, 0.0, 0.0, 0.0, 0.0, 1.645922517614731E9, 0.0, 2022-02-27 11:41:57.614
238.0, -903.2563451834137, -3430.67984946726, -1651.7045082693708, -9177.62627334908, 254.27344492357315, 387.7133593217563, -4480.809507466496, -1160.9272552641935, -1190.722130623118, -4010.9534872714867, -3409.9374306127347, -2511.620820953944, -2983.2649807053785, -1686.95320927539, -8116.32074312219, -14526.957515115442, 0.01615625, -0.1038125, 0.98940625, 192.0, 0.0, 0.0, 0.0, 0.0, 0.0, 0.0, 0.0, 0.0, 0.0, 1.645922517621536E9, 0.0, 2022-02-27 11:41:57.621
240.0, -983.0297211444046, -3509.7156178612254, -1769.7664224823027, -9315.491833149414, 141.91122554674453, 249.3784128878609, -4712.462987001299, -1497.8127476945815, -3580.3247785955405, -4668.698271357807, -3305.5100805175402, -2591.103624237016, -2768.7776409122516, -1601.9718768563125, -8400.433766893599, -15439.601592970086, 0.01615625, -0.1038125, 0.98940625, 192.0, 0.0, 0.0, 0.0, 0.0, 0.0, 0.0, 0.0, 0.0, 0.0, 1.645922517629813E9, 0.0, 2022-02-27 11:41:57.629
242.0, -1254.066974409458, -3719.777312252201, -1923.457017356994, -9488.40492825567, -82.99202716255512, 144.68284185920263, -4649.028736237137, -1387.8868684633815, -1824.8411208201792, -4495.494603573633, -3617.562784858082, -2643.0937818400603, -3174.171230098156, -1884.7214442159468, -8315.988876341447, -15016.594829153399, 0.01615625, -0.1038125, 0.98940625, 192.0, 0.0, 0.0, 0.0, 0.0, 0.0, 0.0, 0.0, 0.0, 0.0, 1.64592251763651E9, 0.0, 2022-02-27 11:41:57.636
244.0, -687.6961216564324, -3267.489763199063, -1513.2354513687435, -9041.772370549723, 431.366316242971, 482.9541424458197, -4465.856190425896, -1199.7522353830618, -2168.3650813537934, -4131.429389885591, -3241.651146608728, -2490.0960910434833, -2771.504553735799, -1532.6144138114946, -8168.42265944751, -14784.896646129686, 0.016078125, -0.10490625, 0.986703125, 192.0, 0.0, 64.0, 126.0, 88.0, 15.0, 96.0, 0.0, 0.0, 0.0, 1.645922517644563E9, 0.0, 2022-02-27 11:41:57.644
246.0, -1366.2056763417336, -3817.5661942441698, -2048.4256206066157, -9626.71752294511, -216.99073517212096, 15.042724018421653, -4820.846595865082, -1618.6462782199715, -3497.086882243977, -4978.404042530542, -3558.218903329242, -2717.100407731582, -3039.658431966118, -1845.8070571192573, -8524.016561986991, -15660.10155202169, 0.016078125, -0.10490625, 0.986703125, 192.0, 0.0, 0.0, 0.0, 0.0, 0.0, 0.0, 0.0, 0.0, 0.0, 1.645922517652243E9, 0.0, 2022-02-27 11:41:57.652
