%OpenBCI Raw EEG Data
%Number of channels = 16
%Sample Rate = 125 Hz
%Board = OpenBCI_GUI$BoardCytonSerialDaisy
Sample Index, EXG Channel 0, EXG Channel 1, EXG Channel 2, EXG Channel 3, EXG Channel 4, EXG Channel 5, EXG Channel 6, EXG Channel 7, EXG Channel 8, EXG Channel 9, EXG Channel 10, EXG Channel 11, EXG Channel 12, EXG Channel 13, EXG Channel 14, EXG Channel 15, Accel Channel 0, Accel Channel 1, Accel Channel 2, Other, Other, Other, Other, Other, Other, Other, Analog Channel 0, Analog Channel 1, Analog Channel 2, Timestamp, Other, Timestamp (Formatted)
0.0, 187.46408074666033, -2408.042837148051, -1837.0451732927768, -8879.431650570828, 310.7339514176788, 919.0813802577711, -4373.096450936371, -1265.3769571038433, 0.0, 0.0, 0.0, 0.0, 0.0, 0.0, 0.0, 0.0, 0.0, 0.0, 0.0, 192.0, 0.0, 0.0, 0.0, 0.0, 0.0, 0.0, 0.0, 0.0, 0.0, 1.645923166086818E9, 0.0, 2022-02-27 11:52:46.086
124.0, -101.09694017135385, -2652.772087189208, -2102.248621254995, -9188.511572898815, 10.013581515977563, 662.5951126331225, -4629.850939494484, -1622.6248887330162, -3355.1086014638668, -4350.655299503243, -3480.188963435765, -2410.2109563602157, -2886.1019475581584, -1661.4498688518845, -7727.445093088758, -15096.390556858845, 0.0, 0.0, 0.0, 192.0, 0.0, 0.0, 0.0, 0.0, 0.0, 0.0, 0.0, 0.0, 0.0, 1.645923166086822E9, 0.0, 2022-02-27 11:52:46.086
126.0, -94.39141683476173, -2629.168645044404, -2037.7861902458897, -9118.170633097963, 42.46831446508342, 779.6959018344762, -4475.668606241776, -1389.7197115087167, -1272.7530327740947, -3859.1851424199517, -3611.8407382775235, -2323.2179669401607, -3067.4192985796094, -1738.429276755962, -7453.345650833327, -14406.794536923711, 0.004, -0.054, 0.488, 192.0, 0.0, 32.0, 126.0, 80.0, 15.0, 64.0, 0.0, 0.0, 0.0, 1.645923166086824E9, 0.0, 2022-02-27 11:52:46.086
0.0, -211.7157234806685, -1455.635005907417, -1167.3198541784113, -4714.653457957918, -127.5614056064374, 259.01201474809824, -2433.367363615914, -868.6558447665984, -858.8210772062632, -1824.6176033756262, -1683.3098749291748, -1124.560967035409, -1405.2318221606997, -762.4403551149792, -3698.4537480418385, -7152.290004764796, 0.008, -0.082, 0.738, 192.0, 0.0, 48.0, 126.0, 72.0, 15.0, 112.0, 0.0, 0.0, 0.0, 1.64592316621212E9, 0.0, 2022-02-27 11:52:46.212
2.0, -75.90652417022278, -2623.066618808105, -2026.9902976739763, -9056.301004445673, 104.20383265064153, 778.7347768228981, -4545.987194298172, -1380.1978683707557, -1085.3113037718897, -3736.5634723381368, -3603.57059282906, -2284.8623734548537, -3044.2181878350007, -1735.6129569545935, -7433.676115712657, -14304.065919407121, 0.008, -0.082, 0.738, 192.0, 0.0, 0.0, 0.0, 0.0, 0.0, 0.0, 0.0, 0.0, 0.0, 1.645923166219531E9, 0.0, 2022-02-27 11:52:46.219
4.0, 182.65845568876932, -2419.7104477537214, -1888.9682756624552, -8908.891249762923, 310.95746886223185, 823.1700448000485, -4593.752872199163, -1451.5222849276406, -2645.3960115189566, -3938.3103177917387, -3374.5099156510732, -2304.7107225311665, -2775.3267020376566, -1547.2101029408102, -7558.0635736064405, -14688.76179322741, 0.008, -0.082, 0.738, 192.0, 0.0, 0.0, 0.0, 0.0, 0.0, 0.0, 0.0, 0.0, 0.0, 1.645923166226181E9, 0.0, 2022-02-27 11:52:46.226
6.0, -315.47252124220387, -2812.7882257447513, -2233.0733815519075, -9307.780481312333, -145.80042908196796, 628.2404814053156, -4741.1179233930025, -1578.1672690114106, -2386.920438637786, -4283.980045793062, -3706.2545068567406, -2444.00679397664, -3117.7777788374165, -1839.7050308829585, -7709.988380669163, -14934.407464791235, 0.008, -0.082, 0.738, 192.0, 0.0, 0.0, 0.0, 0.0, 0.0, 0.0, 0.0, 0.0, 0.0, 1.645923166234311E9, 0.0, 2022-02-27 11:52:46.234
8.0, 201.6127349868697, -2411.172081371794, -1839.1238855271204, -8828.849652868468, 342.58518726649135, 903.7704353058858, -4508.995057224638, -1282.9230765012594, -1355.9462256367476, -3588.4608135772723, -3417.58172721645, -2218.6788581226897, -2855.547112887754, -1565.5608851386173, -7383.585856388314, -14218.257572443197, 0.012, -0.10400000000000001, 0.988, 192.0, 0.0, 48.0, 126.0, 96.0, 15.0, 112.0, 0.0, 0.0, 0.0, 1.645923166242439E9, 0.0, 2022-02-27 11:52:46.242
10.0, -185.65358944578045, -2717.905070531973, -2173.9083139787094, -9239.697067701467, -38.62381441877061, 618.8527487340866, -4759.446353846354, -1660.6452060514935, -3376.7003866076934, -4388.563858099444, -3525.965336080234, -2407.372284814392, -2911.761750192851, -1692.8987733005017, -7773.199113988771, -15147.151368516848, 0.012, -0.10400000000000001, 0.988, 192.0, 0.0, 0.0, 0.0, 0.0, 0.0, 0.0, 0.0, 0.0, 0.0, 1.64592316624921E9, 0.0, 2022-02-27 11:52:46.249
12.0, -77.56055325991551, -2608.5156331677003, -2035.8415884782778, -9060.12315274753, 79.59456200534845, 779.025349500817, -4562.594540428465, -1374.4087665568313, -1134.686307273663, -3761.485667405804, -3609.76202604318, -2301.1567951627726, -3044.084077368269, -1711.3166107316747, -7442.99679315052, -14325.322428384117, 0.012, -0.10400000000000001, 0.988, 192.0, 0.0, 0.0, 0.0, 0.0, 0.0, 0.0, 0.0, 0.0, 0.0, 1.645923166256728E9, 0.0, 2022-02-27 11:52:46.256
14.0, 171.68374916121354, -2439.558796830034, -1896.4561100549831, -8902.85627875999, 297.0546838110309, 817.090370308205, -4625.022962692137, -1451.0528982940791, -2589.9860370142505, -3911.48822444537, -3375.560447640473, -2287.857507211865, -2780.64641721802, -1540.5269313486733, -7569.798239445477, -14671.394487785637, 0.012, -0.10400000000000001, 0.988, 192.0, 0.0, 0.0, 0.0, 0.0, 0.0, 0.0, 0.0, 0.0, 0.0, 1.645923166264858E9, 0.0, 2022-02-27 11:52:46.264
16.0, -331.27520457210596, -2823.248842149835, -2238.6166141768235, -9307.89224003461, -148.30382446096237, 601.552498525679, -4693.799280381118, -1588.471423205307, -2418.235232619671, -4322.0674183449055, -3714.0776174160983, -2437.8377125069755, -3119.3871044381985, -1849.4727432099276, -7713.743473737654, -14937.581412503889, 0.012, -0.10400000000000001, 0.988, 192.0, 0.0, 0.0, 0.0, 0.0, 0.0, 0.0, 0.0, 0.0, 0.0, 1.645923166278946E9, 0.0, 2022-02-27 11:52:46.278
18.0, 168.0851183039091, -2436.451904350746, -1860.6933189264917, -8847.289842044096, 332.7727714506116, 884.4138246075898, -4463.799829936008, -1277.3351403874326, -1392.223106887711, -3585.666845520359, -3438.2347390931536, -2255.089849840385, -2865.404232192544, -1566.8796380614804, -7383.65291162168, -14233.300296461619, 0.012, -0.10400000000000001, 0.988, 192.0, 0.0, 48.0, 126.0, 96.0, 15.0, 112.0, 0.0, 0.0, 0.0, 1.64592316628647E9, 0.0, 2022-02-27 11:52:46.286
20.0, -184.91598187875533, -2719.3132304326573, -2171.114345921796, -9233.036247853786, -24.341049711829392, 610.8061207301761, -4759.066374190614, -1642.7638104872478, -3370.1513254822885, -4370.593055557377, -3535.800103640569, -2410.367418571403, -2912.208785081957, -1701.817119338169, -7759.721012082221, -15131.929830542784, 0.012, -0.10400000000000001, 0.988, 192.0, 0.0, 0.0, 0.0, 0.0, 0.0, 0.0, 0.0, 0.0, 0.0, 1.645923166294415E9, 0.0, 2022-02-27 11:52:46.294
22.0, -83.93080042967802, -2616.6069646605215, -2037.9873559459872, -9065.308757461162, 91.03865516646566, 777.2819134333031, -4552.871531590406, -1368.4408507872643, -1151.204246426135, -3767.341824453095, -3606.185746930331, -2300.285077129016, -3034.048144107836, -1716.1892910229317, -7436.939470403132, -14339.895765768977, 0.012, -0.10400000000000001, 0.988, 192.0, 0.0, 0.0, 0.0, 0.0, 0.0, 0.0, 0.0, 0.0, 0.0, 1.645923166301445E9, 0.0, 2022-02-27 11:52:46.301
24.0, 179.4398044872051, -2430.7969130035535, -1893.1480518755975, -8894.519078078161, 308.275259527595, 834.9047106390847, -4590.690683208786, -1436.7254300982274, -2575.7032723073094, -3904.715645875412, -3380.2990174649976, -2310.566879578457, -2775.1702398264697, -1533.8884632454472, -7555.135495082795, -14660.531539980359, 0.012, -0.10400000000000001, 0.988, 192.0, 0.0, 0.0, 0.0, 0.0, 0.0, 0.0, 0.0, 0.0, 0.0, 1.645923166309112E9, 0.0, 2022-02-27 11:52:46.309
26.0, -309.95164036174305, -2805.8591849636064, -2233.4980646965582, -9294.660007317068, -143.58760638089257, 618.1151411670616, -4742.056696660125, -1593.3217517521086, -2424.2255001336935, -4310.355104250325, -3700.241887598263, -2411.3508953274363, -3105.4843193869974, -1825.3552109426512, -7710.748339980643, -14941.112988127827, 0.011, -0.10400000000000001, 0.985, 192.0, 0.0, 40.0, 126.0, 96.0, 15.0, 88.0, 0.0, 0.0, 0.0, 1.645923166317066E9, 0.0, 2022-02-27 11:52:46.317
28.0, 169.6273886713253, -2427.0641716795176, -1864.4037085060727, -8845.36759202094, 327.72127720371213, 892.6839700560535, -4467.487867771133, -1263.7005762696954, -1367.546781009052, -3580.436537317817, -3432.892672168335, -2230.8829105952873, -2864.063127525226, -1559.3247484355866, -7389.039682035409, -14223.063197501087, 0.011, -0.10400000000000001, 0.985, 192.0, 0.0, 0.0, 0.0, 0.0, 0.0, 0.0, 0.0, 0.0, 0.0, 1.645923166325003E9, 0.0, 2022-02-27 11:52:46.325
30.0, -174.88004861832246, -2705.8574802705625, -2167.7839359979553, -9222.843852382166, -17.546119397416046, 636.2647576647709, -4757.032365445181, -1636.9747086733234, -3372.587665627917, -4373.699948036665, -3532.6932111612814, -2414.4354360622688, -2912.7452269488845, -1682.6169708510604, -7763.587863872989, -15125.045493250549, 0.011, -0.10400000000000001, 0.985, 192.0, 0.0, 0.0, 0.0, 0.0, 0.0, 0.0, 0.0, 0.0, 0.0, 1.645923166331238E9, 0.0, 2022-02-27 11:52:46.331
32.0, -108.65182979724763, -2633.5719387020995, -2057.8133532778447, -9076.663443644458, 71.12325085678707, 773.2362476868925, -4575.4691452347215, -1374.9899119126692, -1186.0953195208692, -3782.205734515874, -3620.6249738484594, -2310.5445278340017, -3049.940234415559, -1725.7111341608925, -7454.932624689654, -14353.955013031366, 0.011, -0.10400000000000001, 0.985, 192.0, 0.0, 0.0, 0.0, 0.0, 0.0, 0.0, 0.0, 0.0, 0.0, 1.645923166338756E9, 0.0, 2022-02-27 11:52:46.338
34.0, 170.63321717181412, -2432.3168316265146, -1897.3501798331954, -8892.32860712154, 311.3821520068827, 837.7210304404534, -4595.3845495444, -1419.1122554674455, -2549.9540626947955, -3886.0295875107754, -3388.546811169006, -2295.8370799824097, -2787.3966440435224, -1530.088666688045, -7554.35318402686, -14643.074827560762, 0.011, -0.10400000000000001, 0.985, 192.0, 0.0, 0.0, 0.0, 0.0, 0.0, 0.0, 0.0, 0.0, 0.0, 1.645923166346674E9, 0.0, 2022-02-27 11:52:46.346
36.0, -326.5813382364915, -2813.7046472674187, -2241.5223409560135, -9299.443280630503, -141.28537670199594, 621.0432196907068, -4726.432827285866, -1586.213897015321, -2472.259398968148, -4316.211261297615, -3703.4158353109165, -2431.4227618483023, -3107.563031621341, -1834.809998847246, -7714.48108130468, -14949.986630676583, 0.010499999999999999, -0.10700000000000001, 0.9875, 192.0, 0.0, 40.0, 126.0, 72.0, 15.0, 120.0, 0.0, 0.0, 0.0, 1.645923166354601E9, 0.0, 2022-02-27 11:52:46.354
38.0, 162.36307172335052, -2428.293517624559, -1868.0023393633771, -8843.244176297687, 320.501663744648, 891.924010744573, -4474.238094596636, -1273.5576955744857, -1346.4467342432422, -3579.8777437064346, -3443.375640317874, -2249.9489486156644, -2871.0145200508264, -1566.2090857278213, -7386.804507589878, -14218.9057730324, 0.010499999999999999, -0.10700000000000001, 0.9875, 192.0, 0.0, 0.0, 0.0, 0.0, 0.0, 0.0, 0.0, 0.0, 0.0, 1.645923166361343E9, 0.0, 2022-02-27 11:52:46.361
40.0, -180.57974345442577, -2712.1383204625035, -2171.2931598774385, -9223.894384371566, -22.754075855502588, 617.9363272114191, -4752.249092131745, -1644.306080854664, -3368.117316736855, -4374.0128724590395, -3529.2286907707085, -2412.8708139503974, -2905.8161861677395, -1689.210735465376, -7760.592730115978, -15123.972609516695, 0.010499999999999999, -0.10700000000000001, 0.9875, 192.0, 0.0, 0.0, 0.0, 0.0, 0.0, 0.0, 0.0, 0.0, 0.0, 1.645923166369339E9, 0.0, 2022-02-27 11:52:46.369
42.0, -98.14650990325332, -2623.670115908398, -2054.7288125430123, -9069.153257507474, 76.68883522615853, 773.124488964616, -4570.775278899107, -1375.9063334353368, -1175.746461838062, -3779.6352839035135, -3618.0992267250094, -2301.3579608628706, -3046.431010536076, -1728.6839161734483, -7454.440886311637, -14351.541024630193, 0.010499999999999999, -0.10700000000000001, 0.9875, 192.0, 0.0, 0.0, 0.0, 0.0, 0.0, 0.0, 0.0, 0.0, 0.0, 1.645923166377295E9, 0.0, 2022-02-27 11:52:46.377
44.0, 179.05982483146488, -2426.4830263236795, -1898.6912845005138, -8892.865048988468, 325.6872684582792, 834.9494141279953, -4570.775278899107, -1413.5690228425292, -2537.5711962665555, -3872.551485604225, -3380.2096104871766, -2297.7146265166552, -2778.6571119614973, -1532.1003236890226, -7554.420239260226, -14646.89697586262, 0.010499999999999999, -0.10700000000000001, 0.9875, 192.0, 0.0, 0.0, 0.0, 0.0, 0.0, 0.0, 0.0, 0.0, 0.0, 1.645923166384673E9, 0.0, 2022-02-27 11:52:46.384
46.0, -323.27328005710604, -2812.7882257447513, -2243.5787014459015, -9306.193507456006, -132.43408589769436, 616.8187399886536, -4732.17722561088, -1577.7872893556703, -2471.6335501234, -4332.662145216721, -3703.572297522104, -2434.8649304944197, -3103.13738621919, -1829.1773592445088, -7715.531613294079, -14957.809741235942, 0.01225, -0.10850000000000001, 0.98875, 192.0, 0.0, 56.0, 126.0, 72.0, 15.0, 120.0, 0.0, 0.0, 0.0, 1.645923166399013E9, 0.0, 2022-02-27 11:52:46.399
48.0, 166.20757176966333, -2423.2196716332046, -1868.494077741394, -8849.189740322798, 335.7679052076227, 903.8151387947964, -4519.679191074275, -1252.904683697782, -1335.0249928265803, -3575.541505282105, -3436.178378603265, -2237.208454276139, -2865.828915337195, -1560.9340740363687, -7384.815202333356, -14219.129290476954, 0.01225, -0.10850000000000001, 0.98875, 192.0, 0.0, 0.0, 0.0, 0.0, 0.0, 0.0, 0.0, 0.0, 0.0, 1.645923166406925E9, 0.0, 2022-02-27 11:52:46.406
50.0, -171.14730729428618, -2702.795291280185, -2159.5361422939473, -9218.664076169023, 0.0, 645.2054554468937, -4742.570786782598, -1622.4460747773737, -3366.105659735878, -4355.282110605492, -3521.9196703338234, -2418.883433208875, -2904.4974332448764, -1674.3468254025968, -7760.346860926969, -15120.105757725927, 0.01225, -0.10850000000000001, 0.98875, 192.0, 0.0, 0.0, 0.0, 0.0, 0.0, 0.0, 0.0, 0.0, 0.0, 1.645923166413571E9, 0.0, 2022-02-27 11:52:46.413
52.0, -116.7878647789794, -2641.1044765835377, -2061.4343358796045, -9083.838353614612, 74.11838461379821, 775.0467389877724, -4557.833618859484, -1380.935475937781, -1205.3178197524333, -3793.5827724436253, -3623.5307006276494, -2309.829272011432, -3056.6681094966066, -1727.1863492949426, -7454.530293289458, -14370.785876606213, 0.01225, -0.10850000000000001, 0.98875, 192.0, 0.0, 0.0, 0.0, 0.0, 0.0, 0.0, 0.0, 0.0, 0.0, 1.645923166422395E9, 0.0, 2022-02-27 11:52:46.422
54.0, 175.86352537435596, -2425.0972181674506, -1893.6621419980697, -8887.56768555256, 326.983669636687, 843.4877805099226, -4570.685871921286, -1393.2736388771104, -2500.2214312817373, -3872.9985204933314, -3381.483659921129, -2290.3832543353146, -2788.9612661553942, -1524.2101578962993, -7543.691401921678, -14627.763882608877, 0.01225, -0.10850000000000001, 0.98875, 192.0, 0.0, 0.0, 0.0, 0.0, 0.0, 0.0, 0.0, 0.0, 0.0, 1.645923166428897E9, 0.0, 2022-02-27 11:52:46.428
56.0, -324.6814399577904, -2810.6201065325868, -2241.365878744826, -9309.434510402025, -133.2387486980854, 617.1987196443939, -4732.557205266619, -1576.110908521522, -2511.062027342561, -4330.672839960199, -3698.654913741936, -2443.4703521097126, -3101.595115851774, -1829.132655755598, -7718.437340073269, -14969.924386730718, 0.013125000000000001, -0.11025000000000001, 0.992375, 192.0, 0.0, 56.0, 126.0, 64.0, 15.5, 16.0, 0.0, 0.0, 0.0, 1.645923166436932E9, 0.0, 2022-02-27 11:52:46.436
58.0, 150.76251635104614, -2437.5694915735116, -1871.5115632428603, -8856.185836337309, 322.96035563473174, 895.0309032238607, -4479.960141177195, -1261.5101053130752, -1324.519672932586, -3572.255798847175, -3445.5661112744942, -2249.3230997709156, -2875.3284067307004, -1570.567675896606, -7381.551847642881, -14213.362540407485, 0.013125000000000001, -0.11025000000000001, 0.992375, 192.0, 0.0, 0.0, 0.0, 0.0, 0.0, 0.0, 0.0, 0.0, 0.0, 1.645923166445026E9, 0.0, 2022-02-27 11:52:46.445
60.0, -168.3309874929175, -2699.4425296118893, -2156.7868777259446, -9212.96438133292, -10.214747216075327, 640.2210164333602, -4777.2159906883235, -1640.5286360417172, -3359.623653843839, -4347.347241323858, -3520.9808970667004, -2414.5471947845454, -2903.469252999932, -1676.1349649590213, -7759.452791148758, -15112.37205414439, 0.013125000000000001, -0.11025000000000001, 0.992375, 192.0, 0.0, 0.0, 0.0, 0.0, 0.0, 0.0, 0.0, 0.0, 0.0, 1.645923166451952E9, 0.0, 2022-02-27 11:52:46.451
62.0, -123.18046369319723, -2651.162761588426, -2059.668548067635, -9085.961769337866, 65.8258874208793, 770.576390096711, -4575.33503476799, -1374.095842134457, -1205.9213168527267, -3796.980237600832, -3624.089494239032, -2310.142196433806, -3057.8080484638276, -1730.2261865408643, -7462.219293382084, -14373.333975474117, 0.013125000000000001, -0.11025000000000001, 0.992375, 192.0, 0.0, 0.0, 0.0, 0.0, 0.0, 0.0, 0.0, 0.0, 0.0, 1.64592316645863E9, 0.0, 2022-02-27 11:52:46.458
64.0, 170.99084508309903, -2433.1214944269054, -1887.8953919286005, -8894.653188544893, 327.43070452579315, 838.123361840649, -4579.246590047668, -1403.510737837641, -2506.1893470513046, -3890.164660235007, -3390.513764681073, -2307.214117910161, -2794.571554013676, -1537.6212045694836, -7544.026678088508, -14629.552022165302, 0.013125000000000001, -0.11025000000000001, 0.992375, 192.0, 0.0, 0.0, 0.0, 0.0, 0.0, 0.0, 0.0, 0.0, 0.0, 1.645923166466574E9, 0.0, 2022-02-27 11:52:46.466
66.0, -331.7222394612121, -2822.1089031826145, -2238.3260414989045, -9312.22847845894, -137.17265572221945, 613.8459579760979, -4757.010013700726, -1587.9349813383797, -2529.3457543070026, -4339.0323923864835, -3699.660742242425, -2441.011660219629, -3102.04215074088, -1831.4348854344948, -7728.652087289344, -14979.423878124224, 0.015562500000000002, -0.109125, 0.9931875, 192.0, 0.0, 72.0, 126.0, 80.0, 15.5, 8.0, 0.0, 0.0, 0.0, 1.645923166474574E9, 0.0, 2022-02-27 11:52:46.474
68.0, 140.34660343487306, -2443.5150555986233, -1873.5008684993827, -8864.098353874488, 322.26745155661723, 891.0299409663608, -4482.955274934206, -1271.6577972957848, -1322.5080159316083, -3571.674653491337, -3449.120038642888, -2249.770134660022, -2878.1670782765245, -1576.2226672437987, -7386.424527934138, -14222.10207248951, 0.015562500000000002, -0.109125, 0.9931875, 192.0, 0.0, 0.0, 0.0, 0.0, 0.0, 0.0, 0.0, 0.0, 0.0, 1.645923166481189E9, 0.0, 2022-02-27 11:52:46.481
70.0, -169.24740901558508, -2697.0508929551715, -2156.026918414464, -9211.355055732138, -1.2964011784078096, 642.2103216898826, -4785.5531913701525, -1629.598633003072, -3359.310729421464, -4350.700002992154, -3519.3268679770076, -2420.6045175319337, -2900.116491331636, -1676.0679097256555, -7763.587863872989, -15115.076615223483, 0.015562500000000002, -0.109125, 0.9931875, 192.0, 0.0, 0.0, 0.0, 0.0, 0.0, 0.0, 0.0, 0.0, 0.0, 1.645923166489169E9, 0.0, 2022-02-27 11:52:46.489
72.0, -138.15613247825294, -2659.4999622702558, -2066.0387952373976, -9092.577885696637, 62.58488447485978, 760.2722359028144, -4588.388453529889, -1381.8295457159932, -1229.0777241084247, -3809.8548424070887, -3629.900947797412, -2319.462873871669, -3060.5349612873747, -1735.9929366103336, -7476.725575533578, -14385.962711091366, 0.015562500000000002, -0.109125, 0.9931875, 192.0, 0.0, 0.0, 0.0, 0.0, 0.0, 0.0, 0.0, 0.0, 0.0, 1.645923166497234E9, 0.0, 2022-02-27 11:52:46.497
74.0, 165.00057756907674, -2433.724991527199, -1886.8448599392011, -8889.802859998092, 327.45305627024845, 832.8707018936518, -4584.923933139316, -1402.0802261925014, -2483.390567706891, -3885.3813869215714, -3389.7538053695926, -2309.5834028224235, -2791.643475490031, -1552.798039054637, -7549.033468846496, -14623.382940695637, 0.015562500000000002, -0.109125, 0.9931875, 192.0, 0.0, 0.0, 0.0, 0.0, 0.0, 0.0, 0.0, 0.0, 0.0, 1.645923166504378E9, 0.0, 2022-02-27 11:52:46.504
76.0, -346.72025999072315, -2832.2342434208686, -2244.8303991353987, -9316.005923271887, -148.52734190551544, 609.6885335074107, -4759.178132912891, -1593.1205860520108, -2562.9851297122395, -4348.017793657517, -3702.275896343696, -2451.069945224517, -3103.047979241369, -1836.7098971259472, -7739.29151765007, -14991.650282341276, 0.01578125, -0.1065625, 0.9925937499999999, 192.0, 0.0, 64.0, 126.0, 96.0, 15.5, 0.0, 0.0, 0.0, 0.0, 1.645923166511863E9, 0.0, 2022-02-27 11:52:46.511
78.0, 123.98512649358828, -2456.4120121493356, -1875.6019324781817, -8869.552179521583, 317.48417824318153, 875.6966442700201, -4493.102966916915, -1291.327332416455, -1324.6537833993177, -3587.499688565694, -3455.512637557106, -2265.3493005453706, -2884.3361597461894, -1578.055510289134, -7394.56056291587, -14226.952401036311, 0.01578125, -0.1065625, 0.9925937499999999, 192.0, 0.0, 0.0, 0.0, 0.0, 0.0, 0.0, 0.0, 0.0, 0.0, 1.645923166526939E9, 0.0, 2022-02-27 11:52:46.526
80.0, -177.98694109761013, -2709.903146016973, -2153.0764881463633, -9210.282171998284, 5.09619773581001, 624.9100714814748, -4769.951673740348, -1620.054438120656, -3365.52451438004, -4361.428840330701, -3519.7068476327477, -2432.4509420932463, -2893.343912761678, -1684.8968487855018, -7759.206921959749, -15116.84240303545, 0.01578125, -0.1065625, 0.9925937499999999, 192.0, 0.0, 0.0, 0.0, 0.0, 0.0, 0.0, 0.0, 0.0, 0.0, 1.645923166533894E9, 0.0, 2022-02-27 11:52:46.533
82.0, -153.42237394122768, -2673.067471154627, -2069.145687716685, -9099.976313111343, 55.745250671535814, 752.9408637214738, -4596.949171656272, -1378.5885427699736, -1252.904683697782, -3837.660412509491, -3641.4567996808055, -2331.4881123886244, -3067.3969468351543, -1745.045393114733, -7480.503020346525, -14399.306702531185, 0.01578125, -0.1065625, 0.9925937499999999, 192.0, 0.0, 0.0, 0.0, 0.0, 0.0, 0.0, 0.0, 0.0, 0.0, 1.645923166541449E9, 0.0, 2022-02-27 11:52:46.541
84.0, 157.2892257319958, -2437.3236223845033, -1883.1791738485306, -8887.90296171939, 330.4481900272596, 837.6539752070875, -4586.756776184652, -1381.9636561827251, -2466.626759365411, -3875.5019158723258, -3396.3028664949975, -2309.739865033611, -2794.057463891204, -1535.4977888462292, -7545.591300200379, -14616.163327236573, 0.01578125, -0.1065625, 0.9925937499999999, 192.0, 0.0, 0.0, 0.0, 0.0, 0.0, 0.0, 0.0, 0.0, 0.0, 1.645923166549615E9, 0.0, 2022-02-27 11:52:46.549
86.0, -351.7494024931672, -2832.860092265617, -2241.8352653783877, -9320.498623907402, -137.3961731667725, 595.0257891447293, -4755.51244682222, -1593.4782139632957, -2613.9247553258842, -4357.360822839835, -3703.9969806667546, -2457.037860994084, -3099.9187350176257, -1845.717650141436, -7743.851273518953, -15007.989407538105, 0.014890625000000001, -0.10528125, 0.990296875, 192.0, 0.0, 56.0, 126.0, 96.0, 15.0, 112.0, 0.0, 0.0, 0.0, 1.645923166557454E9, 0.0, 2022-02-27 11:52:46.557
88.0, 114.30682114444032, -2456.613177849433, -1880.3405023027067, -8867.965205665256, 311.0468758400531, 876.7918797483302, -4505.038798456049, -1267.9921112051143, -1300.9609342766923, -3596.7756625146467, -3462.7546027606254, -2259.537846986991, -2888.3371220036893, -1586.0127313152232, -7392.7947751039, -14222.660866100892, 0.014890625000000001, -0.10528125, 0.990296875, 192.0, 0.0, 0.0, 0.0, 0.0, 0.0, 0.0, 0.0, 0.0, 0.0, 1.645923166564126E9, 0.0, 2022-02-27 11:52:46.564
90.0, -173.98597884011016, -2701.6330005685095, -2143.1076101192966, -9199.776852104289, 10.19239547162002, 630.8779872510419, -4768.185885928379, -1629.375115558519, -3371.00069177159, -4358.120782151315, -3523.283126745597, -2422.52676755509, -2901.3011337877674, -1678.4818981268286, -7763.140828983883, -15109.75690004312, 0.014890625000000001, -0.10528125, 0.990296875, 192.0, 0.0, 0.0, 0.0, 0.0, 0.0, 0.0, 0.0, 0.0, 0.0, 1.645923166572257E9, 0.0, 2022-02-27 11:52:46.572
92.0, -168.77802238202364, -2677.3143026011353, -2079.673359355135, -9117.500080764305, 41.216616775586225, 738.7028025034431, -4611.05312240757, -1401.901412236859, -1287.773405048061, -3859.9227499869767, -3648.832875351057, -2336.5843101244345, -3074.393042849665, -1755.1483816085317, -7495.38928215376, -14424.430063298949, 0.014890625000000001, -0.10528125, 0.990296875, 192.0, 0.0, 0.0, 0.0, 0.0, 0.0, 0.0, 0.0, 0.0, 0.0, 1.645923166579122E9, 0.0, 2022-02-27 11:52:46.579
94.0, 157.9374263211997, -2439.357631129936, -1881.5698482477485, -8888.640569286415, 329.0623818710306, 842.9513386429952, -4592.992912887682, -1402.3931506148758, -2432.2497763931487, -3868.7293373023676, -3397.2639915065756, -2307.482338843625, -2795.59973425862, -1552.216893698799, -7544.630175188801, -14604.026329997341, 0.014890625000000001, -0.10528125, 0.990296875, 192.0, 0.0, 0.0, 0.0, 0.0, 0.0, 0.0, 0.0, 0.0, 0.0, 1.645923166587066E9, 0.0, 2022-02-27 11:52:46.587
96.0, -357.76202175164485, -2836.950461500938, -2247.0432218364745, -9328.411141444582, -155.0987547753757, 584.3193035506372, -4778.847668033561, -1610.5549467271503, -2633.795456146652, -4381.388948129291, -3705.472195800805, -2466.067965754028, -3100.8798600292043, -1841.359059972651, -7747.874587520909, -15019.142928021305, 0.012, -0.108, 0.986, 192.0, 0.0, 48.0, 126.0, 80.0, 15.0, 104.0, 0.0, 0.0, 0.0, 1.645923166593802E9, 0.0, 2022-02-27 11:52:46.593
98.0, 106.81898675191245, -2471.611198378944, -1877.8818104126228, -8879.364595337462, 299.468672212204, 864.4984202979113, -4505.485833345155, -1284.8676782688713, -1298.3010766865107, -3597.3568078704848, -3468.029614452078, -2260.7671929320327, -2896.182584307502, -1589.119623794511, -7394.784080360423, -14225.790110324635, 0.012, -0.108, 0.986, 192.0, 0.0, 0.0, 0.0, 0.0, 0.0, 0.0, 0.0, 0.0, 0.0, 1.645923166601738E9, 0.0, 2022-02-27 11:52:46.601
100.0, -174.0753858179314, -2705.455148870367, -2142.794685696922, -9211.73503538788, 7.510186136983173, 629.2686616502598, -4761.435659102876, -1625.6870777233933, -3371.961816783168, -4359.707756007642, -3522.2996499895635, -2430.7969130035535, -2895.4673284849323, -1675.889095770013, -7758.759887070643, -15112.930847755773, 0.012, -0.108, 0.986, 192.0, 0.0, 0.0, 0.0, 0.0, 0.0, 0.0, 0.0, 0.0, 0.0, 1.645923166609775E9, 0.0, 2022-02-27 11:52:46.609
102.0, -160.7313943781131, -2674.877962455507, -2076.186487220107, -9113.007380128787, 39.964919086089026, 745.0283461842951, -4618.429198077822, -1387.4845370631858, -1276.2846083980332, -3851.652604538513, -3649.726945129269, -2337.2548624580936, -3076.2482376394555, -1744.3524890366184, -7489.868401273299, -14417.255153328795, 0.012, -0.108, 0.986, 192.0, 0.0, 0.0, 0.0, 0.0, 0.0, 0.0, 0.0, 0.0, 0.0, 1.645923166616458E9, 0.0, 2022-02-27 11:52:46.616
104.0, 165.8275921139231, -2428.0252966910957, -1877.2336098234189, -8883.90199946189, 330.4481900272596, 838.6821554520316, -4578.933665625294, -1384.0423684170687, -2429.276994380593, -3878.2064769514177, -3394.3582647273856, -2312.0644464569627, -2790.8164609451846, -1542.248015671732, -7545.993631600575, -14603.914571275065, 0.012, -0.108, 0.986, 192.0, 0.0, 0.0, 0.0, 0.0, 0.0, 0.0, 0.0, 0.0, 0.0, 1.645923166624369E9, 0.0, 2022-02-27 11:52:46.624
106.0, -364.8475247439772, -2849.6239006070973, -2246.9761666031086, -9330.154577512096, -154.67407163072488, 594.2434780887936, -4737.787513469161, -1584.0457778031562, -2654.5378750011773, -4386.038110975995, -3711.64127727047, -2472.8628960684414, -3106.020761253925, -1833.714763368936, -7746.354668897948, -15018.472375687645, 0.006, -0.11, 0.984, 192.0, 0.0, 24.0, 126.0, 72.0, 15.0, 96.0, 0.0, 0.0, 0.0, 1.64592316663244E9, 0.0, 2022-02-27 11:52:46.632
108.0, 105.85786174033424, -2471.0300530231066, -1878.0159208793548, -8880.057499415578, 296.51824194410347, 870.8686674676737, -4496.723949518675, -1275.3011316419997, -1298.390483664332, -3604.9340492408337, -3472.54466683205, -2266.153963345762, -2896.227287796413, -1591.086577306578, -7387.631522134724, -14216.827060798058, 0.006, -0.11, 0.984, 192.0, 0.0, 0.0, 0.0, 0.0, 0.0, 0.0, 0.0, 0.0, 0.0, 1.645923166646004E9, 0.0, 2022-02-27 11:52:46.646
110.0, -166.185220025208, -2696.7826720217076, -2135.887996660232, -9199.8215555932, 10.147691982709407, 633.2249204188491, -4777.774784299706, -1630.112723125544, -3369.7936975710036, -4348.956566924639, -3516.2646789866308, -2424.761942000621, -2890.438185982488, -1672.4022236349851, -7759.005756259651, -15107.879353508873, 0.006, -0.11, 0.984, 192.0, 0.0, 0.0, 0.0, 0.0, 0.0, 0.0, 0.0, 0.0, 0.0, 1.645923166653911E9, 0.0, 2022-02-27 11:52:46.653
112.0, -165.93935083619962, -2683.7963084931744, -2077.0358535094088, -9111.934496394933, 41.44013422013929, 741.5414740492671, -4602.67121823683, -1397.1181389234232, -1290.388559149332, -3850.020927193276, -3650.7774771186687, -2331.0857809884287, -3077.1646591621234, -1750.2980530617301, -7494.696378075645, -14425.391188310527, 0.006, -0.11, 0.984, 192.0, 0.0, 0.0, 0.0, 0.0, 0.0, 0.0, 0.0, 0.0, 0.0, 1.645923166662097E9, 0.0, 2022-02-27 11:52:46.662
114.0, 168.6662636597471, -2427.4665030797128, -1872.271522554341, -8876.883551702924, 335.9243674188098, 849.701565468498, -4592.881154165406, -1367.0997461199458, -2411.820281960998, -3852.457267338904, -3393.3747879713524, -2297.446405583192, -2794.8397749471396, -1538.5152743476958, -7535.577718684402, -14587.351928633683, 0.006, -0.11, 0.984, 192.0, 0.0, 0.0, 0.0, 0.0, 0.0, 0.0, 0.0, 0.0, 0.0, 1.645923166669208E9, 0.0, 2022-02-27 11:52:46.669
116.0, -359.9748444527202, -2835.475246366888, -2248.339623014882, -9324.253716975894, -151.43306868470535, 598.4679577908466, -4750.885635719971, -1588.0467400606562, -2667.8148112076296, -4378.751442283564, -3702.2982480881515, -2451.8299045359977, -3100.656342584651, -1824.7740655868133, -7750.601500344455, -15021.86984084485, 0.012, -0.106, 0.988, 192.0, 0.0, 48.0, 126.0, 88.0, 15.0, 112.0, 0.0, 0.0, 0.0, 1.64592316667665E9, 0.0, 2022-02-27 11:52:46.676
118.0, 106.21548965161917, -2461.7987825630644, -1882.843897681701, -8876.168295880354, 290.7738436190896, 868.6558447665984, -4503.183603666259, -1266.427489093243, -1283.5042218570975, -3596.6862555368252, -3469.370719119396, -2258.8002394199657, -2899.0212558533262, -1581.2965132351535, -7394.202935004585, -14214.770700308169, 0.012, -0.106, 0.988, 192.0, 0.0, 0.0, 0.0, 0.0, 0.0, 0.0, 0.0, 0.0, 0.0, 1.645923166684913E9, 0.0, 2022-02-27 11:52:46.684
120.0, -148.79556283897912, -2669.8041164641522, -2126.679077944646, -9182.364843173606, 25.27982297895229, 641.9421007564189, -4761.972100969804, -1620.5461764986726, -3362.4623253896625, -4338.04891563045, -3515.616478397427, -2422.593822788456, -2897.85896514165, -1665.5849415761163, -7758.111686481439, -15097.999882459628, 0.012, -0.106, 0.988, 192.0, 0.0, 0.0, 0.0, 0.0, 0.0, 0.0, 0.0, 0.0, 0.0, 1.645923166692713E9, 0.0, 2022-02-27 11:52:46.692
122.0, -177.33874050840623, -2686.9926079502834, -2091.4080251941714, -9121.433987788438, 29.14667476972041, 735.7300204908872, -4614.3388288425, -1399.6885895357836, -1328.1406555343456, -3861.3085581432056, -3658.242959766741, -2344.8321038284425, -3087.781737778394, -1746.3641460375961, -7504.665256102712, -14445.753627509312, 0.012, -0.106, 0.988, 192.0, 0.0, 0.0, 0.0, 0.0, 0.0, 0.0, 0.0, 0.0, 0.0, 1.645923166699013E9, 0.0, 2022-02-27 11:52:46.699
124.0, 178.70219692017997, -2423.2867268665705, -1866.3036067847738, -8871.988519667211, 348.597806524969, 850.7744492023527, -4570.842334132473, -1367.2785600755883, -2353.6833946327442, -3835.8722729530664, -3388.323293724453, -2282.2919228424935, -2794.638609247042, -1532.5250068336734, -7523.44072144517, -14565.98366093441, 0.012, -0.106, 0.988, 192.0, 0.0, 0.0, 0.0, 0.0, 0.0, 0.0, 0.0, 0.0, 0.0, 1.645923166706267E9, 0.0, 2022-02-27 11:52:46.706
126.0, -329.3753062934049, -2818.420865347489, -2241.4999892115584, -9324.030199531342, -147.8344378274009, 604.5923357716007, -4771.13631619648, -1594.0817110635892, -2669.938226930884, -4371.263607891036, -3689.7812711931792, -2446.398430633358, -3090.2627814129332, -1823.1647399860312, -7746.354668897948, -15026.429596713735, 0.014, -0.106, 0.986, 192.0, 0.0, 56.0, 126.0, 88.0, 15.0, 104.0, 0.0, 0.0, 0.0, 1.645923166714352E9, 0.0, 2022-02-27 11:52:46.714
128.0, 99.12998665928683, -2481.624779894922, -1888.7000547289915, -8880.951569193789, 290.7738436190896, 872.6121035351878, -4508.70448454672, -1276.8881054983265, -1254.5363610430195, -3578.760156483669, -3465.101535928433, -2246.3950212472705, -2897.5236889748203, -1581.6764928908938, -7387.944446557099, -14209.450985127805, 0.014, -0.106, 0.986, 192.0, 0.0, 0.0, 0.0, 0.0, 0.0, 0.0, 0.0, 0.0, 0.0, 1.645923166721394E9, 0.0, 2022-02-27 11:52:46.721
130.0, -154.22703674161872, -2691.127680674515, -2130.2330053130395, -9183.258912951816, 20.876529321256797, 645.3842694025361, -4779.428813389399, -1623.8095311891475, -3359.7801160550257, -4330.76224693802, -3515.661181886337, -2414.681305251277, -2894.4838517288986, -1661.2934066406974, -7751.272052678115, -15087.382803843357, 0.014, -0.106, 0.986, 192.0, 0.0, 0.0, 0.0, 0.0, 0.0, 0.0, 0.0, 0.0, 0.0, 1.645923166728872E9, 0.0, 2022-02-27 11:52:46.728
132.0, -167.30280724797336, -2681.4046718364566, -2083.897839057188, -9119.66819997647, 34.75696262800248, 743.0837444166833, -4611.254288107668, -1396.6264005454066, -1310.9298123037593, -3856.458229596404, -3653.9737765757773, -2327.2859844310265, -3080.7632900194276, -1755.818933942191, -7500.485479889569, -14438.981048939355, 0.014, -0.106, 0.986, 192.0, 0.0, 0.0, 0.0, 0.0, 0.0, 0.0, 0.0, 0.0, 0.0, 1.645923166737031E9, 0.0, 2022-02-27 11:52:46.737
134.0, 178.1657550532526, -2417.1176453969056, -1872.584446976715, -8869.775696966135, 346.2285216127064, 860.989196418428, -4585.482726750699, -1375.5040020351414, -2358.7348888796437, -3837.369839831572, -3394.9617618276793, -2291.590248535901, -2798.88544069355, -1533.3743731229752, -7528.939250581176, -14570.543416803292, 0.014, -0.106, 0.986, 192.0, 0.0, 0.0, 0.0, 0.0, 0.0, 0.0, 0.0, 0.0, 0.0, 1.645923166744934E9, 0.0, 2022-02-27 11:52:46.744
136.0, -353.2022658827622, -2815.135158912559, -2255.11220158484, -9327.517071666369, -149.7119843616467, 601.26192584776, -4779.652330833952, -1610.443188004874, -2709.5902215945985, -4379.645512061777, -3701.918268432411, -2469.308968700048, -3100.455176884553, -1808.233774689886, -7758.2234452037155, -15037.985448597128, 0.016, -0.108, 0.988, 192.0, 0.0, 64.0, 126.0, 80.0, 15.0, 112.0, 0.0, 0.0, 0.0, 1.64592316675144E9, 0.0, 2022-02-27 11:52:46.751
138.0, 97.92299245870024, -2473.622855379922, -1893.8186042092568, -8885.600732040493, 291.37734071938286, 868.1194028996711, -4501.976609465672, -1282.0290067230471, -1263.745279758606, -3574.021586659144, -3479.0713762129994, -2262.9353121441977, -2911.918212404038, -1592.7406063962708, -7387.899743068188, -14213.027264240654, 0.016, -0.108, 0.988, 192.0, 0.0, 0.0, 0.0, 0.0, 0.0, 0.0, 0.0, 0.0, 0.0, 1.645923166759394E9, 0.0, 2022-02-27 11:52:46.759
140.0, -140.4807139016049, -2679.996511935772, -2130.7247436910566, -9177.894494282544, 26.531520668449485, 647.4182781479691, -4797.019636275725, -1624.9047666674576, -3349.7665345390483, -4313.104368818327, -3511.704923117748, -2408.087540636962, -2896.607267452153, -1663.595636319594, -7750.15446545535, -15085.952292198217, 0.016, -0.108, 0.988, 192.0, 0.0, 0.0, 0.0, 0.0, 0.0, 0.0, 0.0, 0.0, 0.0, 1.645923166774641E9, 0.0, 2022-02-27 11:52:46.774
142.0, -174.20949628466326, -2688.3337126176016, -2094.0678827843526, -9126.887813435533, 18.820168831368548, 736.2441106133593, -4626.386419103911, -1406.70703729475, -1326.0842950444573, -3884.3979101655377, -3659.3158435005957, -2327.5542053644904, -3092.9002872586593, -1755.684823475459, -7507.6380381152685, -14445.105426920109, 0.016, -0.108, 0.988, 192.0, 0.0, 0.0, 0.0, 0.0, 0.0, 0.0, 0.0, 0.0, 0.0, 1.645923166781121E9, 0.0, 2022-02-27 11:52:46.781
144.0, 175.75176665207943, -2416.3576860854255, -1876.2277813229302, -8878.224656370241, 335.9243674188098, 838.3915827741126, -4569.52358120961, -1382.2989323495547, -2355.6056446559005, -3841.907243955999, -3397.129881039844, -2300.285077129016, -2808.5190425537876, -1540.124599948478, -7526.055875546441, -14569.470533069436, 0.016, -0.108, 0.988, 192.0, 0.0, 0.0, 0.0, 0.0, 0.0, 0.0, 0.0, 0.0, 0.0, 1.645923166789123E9, 0.0, 2022-02-27 11:52:46.789
146.0, -351.6152920264354, -2829.3508683861337, -2255.7156986851332, -9337.150673526607, -155.47873443111592, 575.9597511243524, -4781.820450046116, -1621.529653254706, -2728.3433351926014, -4387.714491810142, -3699.951314920344, -2457.753116816654, -3103.271496685922, -1833.9829843023997, -7754.803628302054, -15044.020419600061, 0.018000000000000002, -0.106, 0.988, 192.0, 0.0, 72.0, 126.0, 88.0, 15.0, 112.0, 0.0, 0.0, 0.0, 1.645923166797284E9, 0.0, 2022-02-27 11:52:46.797
148.0, 103.22035589460802, -2474.4051664358576, -1892.1869268640194, -8892.70858677728, 278.39097719084947, 851.9367399140287, -4527.323487677991, -1285.6276375803516, -1243.002860904081, -3586.270342620652, -3473.282274399075, -2254.5310562290024, -2910.666514714541, -1601.1895658003768, -7390.157269258174, -14215.664770086381, 0.018000000000000002, -0.106, 0.988, 192.0, 0.0, 0.0, 0.0, 0.0, 0.0, 0.0, 0.0, 0.0, 0.0, 1.645923166804268E9, 0.0, 2022-02-27 11:52:46.804
150.0, -136.1668272217306, -2674.900314199962, -2119.213595296573, -9183.43772690746, 30.75600037050252, 639.7516297997987, -4777.640673832974, -1627.1622928574436, -3335.550825065473, -4312.1432438067495, -3498.673856100304, -2407.841671447953, -2887.890087114583, -1656.9795199608232, -7747.6287183319, -15082.800696230019, 0.018000000000000002, -0.106, 0.988, 192.0, 0.0, 0.0, 0.0, 0.0, 0.0, 0.0, 0.0, 0.0, 0.0, 1.645923166811931E9, 0.0, 2022-02-27 11:52:46.811
152.0, -193.85667966087814, -2708.8302622831184, -2095.5654496628586, -9135.403828073006, 13.612212373282, 720.9108139170187, -4630.4097331058665, -1416.89943276637, -1344.6809464312728, -3894.098567259141, -3659.405250478417, -2352.766973110077, -3093.0343977253915, -1765.2513701023306, -7505.626381114291, -14463.8138370292, 0.018000000000000002, -0.106, 0.988, 192.0, 0.0, 0.0, 0.0, 0.0, 0.0, 0.0, 0.0, 0.0, 0.0, 1.64592316681998E9, 0.0, 2022-02-27 11:52:46.819
154.0, 144.99576628157692, -2463.0504802525616, -1868.8293539082235, -8870.75917372217, 333.73389646218976, 843.2419113209143, -4596.81506118954, -1382.32128409401, -2330.370525165859, -3840.4543805664043, -3397.2192880176653, -2301.4697195851472, -2809.904850710017, -1540.0351929706567, -7525.877061590799, -14559.50165504237, 0.018000000000000002, -0.106, 0.988, 192.0, 0.0, 0.0, 0.0, 0.0, 0.0, 0.0, 0.0, 0.0, 0.0, 1.645923166828271E9, 0.0, 2022-02-27 11:52:46.828
156.0, -404.54422289660255, -2893.6791889285078, -2249.434858493192, -9334.155539769596, -156.55161816497068, 591.2483443317824, -4822.165348787946, -1637.8687784515357, -2761.1780477974476, -4411.764968844052, -3697.5373265191706, -2460.591788362478, -3093.9955227369696, -1826.2269289764083, -7763.990195273184, -15062.304146564502, 0.012, -0.106, 0.988, 192.0, 0.0, 48.0, 126.0, 88.0, 15.0, 112.0, 0.0, 0.0, 0.0, 1.645923166834457E9, 0.0, 2022-02-27 11:52:46.834
158.0, -4.895032035712247, -2587.0803102350606, -1898.780691478335, -8901.112842692477, 285.52118367209243, 862.7102807414867, -4507.296324646035, -1282.5878003344299, -1255.6092447768742, -3610.4996336102054, -3490.604876351938, -2263.762326689044, -2907.67138095753, -1587.3985394714523, -7390.134917513718, -14219.688084088337, 0.012, -0.106, 0.988, 192.0, 0.0, 0.0, 0.0, 0.0, 0.0, 0.0, 0.0, 0.0, 0.0, 1.645923166841404E9, 0.0, 2022-02-27 11:52:46.841
160.0, -269.38322417536074, -2815.1128071681032, -2124.6227174547575, -9187.8186688207, 50.403183746717424, 653.6767665954551, -4757.166475911913, -1610.1749670714103, -3370.6207121158495, -4338.920633664207, -3536.157731551854, -2443.3138898985258, -2889.052377826259, -1658.857066495069, -7734.955279225741, -15080.319652595479, 0.012, -0.106, 0.988, 192.0, 0.0, 0.0, 0.0, 0.0, 0.0, 0.0, 0.0, 0.0, 0.0, 1.645923166850156E9, 0.0, 2022-02-27 11:52:46.850
162.0, -376.5598388385581, -2879.6199416661193, -2109.9599730920763, -9152.458209092405, 31.851235848812564, 732.3102035892252, -4619.971468445238, -1405.2765256496104, -1419.291069423088, -3948.5250650078137, -3710.948373192355, -2385.8475549039313, -3099.270534428422, -1767.39713757004, -7504.48644214707, -14471.77105805529, 0.012, -0.106, 0.988, 192.0, 0.0, 0.0, 0.0, 0.0, 0.0, 0.0, 0.0, 0.0, 0.0, 1.645923166856628E9, 0.0, 2022-02-27 11:52:46.856
164.0, -36.3886399732399, -2622.261956007714, -1875.1325458446202, -8878.068194159056, 358.47727757421467, 852.8084579477857, -4560.04644156056, -1371.6371502443733, -2360.0983452914174, -3876.775965306278, -3449.120038642888, -2340.0041270260963, -2806.730902997363, -1534.2907946456428, -7508.86738406031, -14548.057561881253, 0.012, -0.106, 0.987, 192.0, 0.0, 48.0, 126.0, 88.0, 15.0, 104.0, 0.0, 0.0, 0.0, 1.645923166864E9, 0.0, 2022-02-27 11:52:46.864
166.0, -599.1832136134165, -3072.9625312045255, -2264.8128586784433, -9348.594766687724, -148.90732156125566, 594.8693269335422, -4780.859325034538, -1611.7842926721924, -2864.308996714234, -4464.984472392139, -3751.4720858898268, -2514.2136233107594, -3095.1578134486454, -1817.621507361115, -7759.1622184708385, -15063.868768676373, 0.012, -0.106, 0.987, 192.0, 0.0, 0.0, 0.0, 0.0, 0.0, 0.0, 0.0, 0.0, 0.0, 1.64592316687207E9, 0.0, 2022-02-27 11:52:46.872
168.0, -160.01613855554325, -2730.06441951566, -1912.3034968737957, -8913.942744009822, 288.8068901070226, 864.185495875537, -4497.886240230351, -1263.3876518473212, -1298.1446144753236, -3667.2954162711403, -3553.7485544381807, -2326.79424605301, -2926.603308511175, -1590.8630598620248, -7384.4352226776155, -14212.62493284046, 0.012, -0.106, 0.987, 192.0, 0.0, 0.0, 0.0, 0.0, 0.0, 0.0, 0.0, 0.0, 0.0, 1.645923166880133E9, 0.0, 2022-02-27 11:52:46.880
170.0, -375.3528446379715, -2895.221459295924, -2131.0376681134308, -9186.25404670883, 50.20201804661966, 649.5863973601339, -4748.382240340977, -1592.1371092959773, -3402.315485753475, -4362.5687792979215, -3567.249008089186, -2488.263247998148, -2891.5110697163427, -1663.9756159753342, -7735.223500159204, -15061.007745386094, 0.012, -0.106, 0.987, 192.0, 0.0, 0.0, 0.0, 0.0, 0.0, 0.0, 0.0, 0.0, 0.0, 1.645923166893724E9, 0.0, 2022-02-27 11:52:46.893
172.0, -427.65592666339, -2925.217500354946, -2121.9405081201207, -9154.782790515756, 9.678305349147958, 720.6872964724656, -4628.5321865716205, -1410.3280198965097, -1471.0130060926683, -3969.0439664177857, -3741.5479113516703, -2408.132244125872, -3117.2189852260335, -1792.945181482456, -7517.003419042042, -14478.655395347525, 0.012, -0.106, 0.987, 192.0, 0.0, 0.0, 0.0, 0.0, 0.0, 0.0, 0.0, 0.0, 0.0, 1.645923166901853E9, 0.0, 2022-02-27 11:52:46.901
174.0, -14.61804087377082, -2622.0831420520717, -1873.0538336102766, -8874.581322024027, 353.4257833273153, 852.3837748031349, -4578.397223758367, -1370.31839732151, -2354.242188244127, -3879.8828577855656, -3454.707974756715, -2335.51142639058, -2820.7901502597515, -1558.9447687798463, -7518.478634176092, -14542.156701345051, 0.011, -0.106, 0.9895, 192.0, 0.0, 40.0, 126.0, 88.0, 15.5, 0.0, 0.0, 0.0, 0.0, 1.645923166909815E9, 0.0, 2022-02-27 11:52:46.909
176.0, -537.9841372947857, -3032.729391184973, -2260.409565020748, -9343.073885807264, -141.53124589100432, 583.1570128389612, -4782.42394714641, -1616.8804904080023, -2858.788115833773, -4470.974739906161, -3740.4526758733605, -2502.903640616374, -3094.0178744814248, -1830.138484256087, -7763.856084806453, -15070.373126312868, 0.011, -0.106, 0.9895, 192.0, 0.0, 0.0, 0.0, 0.0, 0.0, 0.0, 0.0, 0.0, 0.0, 1.64592316691641E9, 0.0, 2022-02-27 11:52:46.916
178.0, -74.0960328693429, -2650.6933749548643, -1909.196604394508, -8909.338284652029, 279.1509365023299, 860.1174783846711, -4522.428455642278, -1263.968797203159, -1268.2826838830333, -3651.1351050299536, -3532.7602663946473, -2301.0673881849516, -2925.4186660550436, -1600.2507925332538, -7386.648045378691, -14208.95924674979, 0.011, -0.106, 0.9895, 192.0, 0.0, 0.0, 0.0, 0.0, 0.0, 0.0, 0.0, 0.0, 0.0, 1.645923166924481E9, 0.0, 2022-02-27 11:52:46.924
180.0, -250.3171861549838, -2799.7795104717625, -2110.60817368128, -9158.984918473354, 66.83171592136812, 662.259836466293, -4795.030331019203, -1591.0418738176672, -3363.4010986567855, -4329.890528904263, -3535.9789175962114, -2445.616119577422, -2883.866773112628, -1662.3886421190075, -7739.023296716607, -15062.25944307559, 0.011, -0.106, 0.9895, 192.0, 0.0, 0.0, 0.0, 0.0, 0.0, 0.0, 0.0, 0.0, 0.0, 1.64592316693245E9, 0.0, 2022-02-27 11:52:46.932
182.0, -346.854370457455, -2858.18461873348, -2130.7470954355117, -9170.451363378927, 2.168119212164785, 711.4113225235131, -4632.421390106844, -1413.7478367981716, -1482.0771195980453, -3977.4035188440707, -3717.788006995679, -2386.629865959867, -3114.134444491201, -1787.3125418797188, -7533.7001721501565, -14507.042110805764, 0.011, -0.106, 0.9895, 192.0, 0.0, 0.0, 0.0, 0.0, 0.0, 0.0, 0.0, 0.0, 0.0, 1.645923166939516E9, 0.0, 2022-02-27 11:52:46.939
184.0, 59.67915769566986, -2544.8355132145302, -1874.7078626999692, -8874.603673768483, 353.96222519424265, 848.6286817346432, -4551.262205989624, -1354.7392314361612, -2275.0276058945187, -3837.1463223870187, -3437.5865385039497, -2324.760237307577, -2822.4888828383546, -1547.7465448077376, -7507.101596248341, -14518.530907455792, 0.0135, -0.106, 0.98875, 192.0, 0.0, 64.0, 126.0, 88.0, 15.0, 112.0, 0.0, 0.0, 0.0, 1.645923166946101E9, 0.0, 2022-02-27 11:52:46.946
186.0, -458.9707206452752, -2950.3855646116217, -2262.7117946996445, -9345.353763741705, -145.5545598929596, 579.7818994262099, -4790.962313528337, -1633.6219470050273, -2893.6791889285078, -4454.009765864583, -3720.336105863584, -2491.884230599908, -3097.3259326608104, -1829.5796906447042, -7769.82400057602, -15084.70059450872, 0.0135, -0.106, 0.98875, 192.0, 0.0, 0.0, 0.0, 0.0, 0.0, 0.0, 0.0, 0.0, 0.0, 1.645923166954152E9, 0.0, 2022-02-27 11:52:46.954
188.0, -19.24485197601938, -2591.617714359488, -1914.583374808237, -8917.921354522867, 264.13056422836354, 857.2788068388471, -4536.621813371398, -1261.554808801986, -1228.9212618972376, -3632.6502123654145, -3527.708772147748, -2296.373521849337, -2937.7791807388285, -1618.311002053142, -7394.448804193593, -14216.268267186675, 0.0135, -0.106, 0.98875, 192.0, 0.0, 0.0, 0.0, 0.0, 0.0, 0.0, 0.0, 0.0, 0.0, 1.645923166961959E9, 0.0, 2022-02-27 11:52:46.961
190.0, -198.90817390777755, -2747.5881871686206, -2110.4070079811822, -9167.8138575332, 58.494515239538586, 660.2705312097706, -4761.8379905030715, -1606.598687958561, -3336.154322165766, -4312.769092651498, -3519.9527168217564, -2430.4839885811793, -2888.1359563035917, -1651.145714657988, -7734.731761781188, -15051.754123181598, 0.0135, -0.106, 0.98875, 192.0, 0.0, 0.0, 0.0, 0.0, 0.0, 0.0, 0.0, 0.0, 0.0, 1.645923166969167E9, 0.0, 2022-02-27 11:52:46.969
192.0, -275.0382155225534, -2788.178955099458, -2116.6878481731237, -9161.510665596803, -0.44703488910614125, 709.4443690114462, -4660.204608464791, -1424.1190462254342, -1448.996537804191, -3961.846704703177, -3701.0912538875646, -2374.7834413985543, -3113.0615607573463, -1788.6759982914923, -7530.302706992949, -14501.387119458572, 0.0135, -0.106, 0.98875, 192.0, 0.0, 0.0, 0.0, 0.0, 0.0, 0.0, 0.0, 0.0, 0.0, 1.645923166977142E9, 0.0, 2022-02-27 11:52:46.977
194.0, 116.05025721195427, -2489.7384631321984, -1866.7729934183353, -8870.446249299795, 355.32568160601636, 852.3390713142243, -4559.219427015713, -1350.067716845002, -2263.918788900231, -3824.718752469868, -3418.1405208278325, -2308.018780710552, -2813.79405424524, -1539.8340272705589, -7512.577773639891, -14521.816613890722, 0.01375, -0.106, 0.990375, 192.0, 0.0, 56.0, 126.0, 88.0, 15.5, 0.0, 0.0, 0.0, 0.0, 1.645923166984593E9, 0.0, 2022-02-27 11:52:46.984
196.0, -405.6171066304573, -2895.1097005736474, -2259.8060679204546, -9347.298365509316, -147.186237238197, 569.8800766325089, -4788.414214660432, -1619.0262578757117, -2868.287607227279, -4438.140027301315, -3708.0649981576203, -2483.0552915400617, -3091.5815343357963, -1823.1200364971205, -7767.655881363855, -15077.391574071835, 0.01375, -0.106, 0.990375, 192.0, 0.0, 0.0, 0.0, 0.0, 0.0, 0.0, 0.0, 0.0, 0.0, 1.645923166991756E9, 0.0, 2022-02-27 11:52:46.991
198.0, 39.60729117480412, -2537.8617689444745, -1908.458996827483, -8906.745482295213, 277.67572136827965, 847.734611956431, -4542.522673907599, -1294.9259632737594, -1211.844529133383, -3599.4355201048284, -3501.64663811286, -2271.406623292759, -2924.301078832278, -1619.763865442737, -7392.727719870534, -14211.395586895418, 0.01375, -0.106, 0.990375, 192.0, 0.0, 0.0, 0.0, 0.0, 0.0, 0.0, 0.0, 0.0, 0.0, 1.645923166999299E9, 0.0, 2022-02-27 11:52:46.999
200.0, -147.8120860829456, -2701.3647796350456, -2109.13295854723, -9152.167636414486, 67.18934383265304, 664.3832521895471, -4769.974025484804, -1589.2313825167876, -3313.5790602659063, -4285.835240582853, -3501.1325479903876, -2406.500566780635, -2871.2380374953796, -1650.3857553465075, -7733.9270989807965, -15046.054428345495, 0.01375, -0.106, 0.990375, 192.0, 0.0, 0.0, 0.0, 0.0, 0.0, 0.0, 0.0, 0.0, 0.0, 1.645923167007359E9, 0.0, 2022-02-27 11:52:47.007
202.0, -234.69331678072416, -2743.6989836333973, -2117.336048762327, -9154.29105213774, 0.11175872227653531, 718.1615493490159, -4657.880027041439, -1405.3882843718868, -1451.544636672096, -3951.989585398386, -3691.9493904053443, -2355.6056446559005, -3112.0333805124023, -1779.4223760869952, -7535.510663451036, -14498.034357790275, 0.01375, -0.106, 0.990375, 192.0, 0.0, 0.0, 0.0, 0.0, 0.0, 0.0, 0.0, 0.0, 0.0, 1.64592316702133E9, 0.0, 2022-02-27 11:52:47.021
204.0, 166.67695840322477, -2439.916424741319, -1859.8216008927348, -8855.090600859, 357.3149868625387, 870.0416529228274, -4553.698546135252, -1336.3437457494433, -2226.6137274043235, -3794.298028266195, -3400.415587474774, -2286.3599403333596, -2808.7872634872515, -1531.697992288827, -7510.029674771986, -14506.103337538641, 0.013875, -0.107, 0.9901875, 192.0, 0.0, 56.0, 126.0, 80.0, 15.0, 120.0, 0.0, 0.0, 0.0, 1.645923167028911E9, 0.0, 2022-02-27 11:52:47.028
206.0, -360.26541713063926, -2853.3566419311337, -2252.9440823726754, -9331.27216473486, -139.29607144547361, 588.2308588303159, -4781.596932601564, -1620.277955565209, -2877.2953602427674, -4426.427713206735, -3686.2273438247853, -2459.2506836951598, -3080.785641763883, -1807.1608909560314, -7768.974634286718, -15078.285643850048, 0.013875, -0.107, 0.9901875, 192.0, 0.0, 0.0, 0.0, 0.0, 0.0, 0.0, 0.0, 0.0, 0.0, 1.645923167037001E9, 0.0, 2022-02-27 11:52:47.037
208.0, 67.32345429938488, -2496.5110417021565, -1907.2743543713516, -8906.030226472643, 267.1704014742853, 859.7374987289309, -4537.538234894066, -1284.2865329130332, -1186.3411887098778, -3592.1935549013087, -3494.0693967425104, -2254.2851870399936, -2926.0445148997924, -1601.8824698784913, -7389.285551224417, -14207.19345893782, 0.013875, -0.107, 0.9901875, 192.0, 0.0, 0.0, 0.0, 0.0, 0.0, 0.0, 0.0, 0.0, 0.0, 1.645923167044939E9, 0.0, 2022-02-27 11:52:47.044
210.0, -101.40986459372814, -2650.5592644881326, -2088.9493333040873, -9136.364953084583, 79.7510242165356, 671.3122929706923, -4780.702862823351, -1592.539440696173, -3291.875516399803, -4271.574827620367, -3488.7720333066027, -2396.0623021200063, -2869.0028630498487, -1628.5481010136725, -7733.167139669316, -15037.761931152574, 0.013875, -0.107, 0.9901875, 192.0, 0.0, 0.0, 0.0, 0.0, 0.0, 0.0, 0.0, 0.0, 0.0, 1.645923167051497E9, 0.0, 2022-02-27 11:52:47.051
212.0, -227.36194459938343, -2744.3918877115116, -2124.6897726881234, -9167.903264511022, -6.906689036689882, 699.90017412903, -4652.917939772361, -1431.673935851328, -1487.7768144341487, -3955.208236599951, -3684.3945007794505, -2351.850551587409, -3111.0052002674583, -1774.9520271959339, -7547.133570567796, -14530.511442483836, 0.013875, -0.107, 0.9901875, 192.0, 0.0, 0.0, 0.0, 0.0, 0.0, 0.0, 0.0, 0.0, 0.0, 1.645923167059595E9, 0.0, 2022-02-27 11:52:47.059
214.0, 184.62540920083634, -2426.0583431790287, -1857.5640747027487, -8857.124609604432, 358.2314083852063, 855.8035917047968, -4568.830677131496, -1360.6400919723621, -2180.7255960375783, -3785.044406061698, -3398.515689196073, -2280.6155420083455, -2812.1400251555474, -1530.669812043883, -7505.7604915810225, -14498.190820001462, 0.0159375, -0.1075, 0.99109375, 192.0, 0.0, 72.0, 126.0, 80.0, 15.5, 0.0, 0.0, 0.0, 0.0, 1.645923167067612E9, 0.0, 2022-02-27 11:52:47.067
216.0, -357.73967000718955, -2853.6919180979635, -2258.0626318529407, -9337.888281093632, -146.02394652652103, 570.1706493104278, -4797.399615931466, -1624.3459730560749, -2884.9843603353934, -4420.593907903899, -3681.5334774891708, -2457.2837301830928, -3080.7409382749725, -1819.8343300621905, -7778.675291380321, -15090.668510278287, 0.0159375, -0.1075, 0.99109375, 192.0, 0.0, 0.0, 0.0, 0.0, 0.0, 0.0, 0.0, 0.0, 0.0, 1.645923167074602E9, 0.0, 2022-02-27 11:52:47.074
218.0, 67.43521302166141, -2508.424521496835, -1913.3763806076504, -8914.322723665562, 256.19569494672953, 847.0640596227718, -4558.2135985152245, -1298.97162902017, -1193.6278574023077, -3604.5540695850937, -3497.958600277734, -2257.056803352452, -2933.2641283588564, -1615.5840892295944, -7394.314693726861, -14211.686159573337, 0.0159375, -0.1075, 0.99109375, 192.0, 0.0, 0.0, 0.0, 0.0, 0.0, 0.0, 0.0, 0.0, 0.0, 1.645923167081189E9, 0.0, 2022-02-27 11:52:47.081
220.0, -101.40986459372814, -2653.5991017340543, -2093.0397025394086, -9147.563177056692, 72.84433517984571, 663.5338859002454, -4760.049850946647, -1619.4285892759074, -3291.4284815106967, -4272.2900834429365, -3484.8828297713794, -2397.5151655096015, -2866.544171159765, -1643.7472872432813, -7731.6248693019, -15044.31099227798, 0.0159375, -0.1075, 0.99109375, 192.0, 0.0, 0.0, 0.0, 0.0, 0.0, 0.0, 0.0, 0.0, 0.0, 1.645923167089222E9, 0.0, 2022-02-27 11:52:47.089
222.0, -227.65251727730242, -2745.867102845562, -2132.669345458668, -9176.888665782055, -15.132130996242882, 695.3627700046027, -4655.823666551551, -1428.410581160853, -1493.476509270252, -3956.0576028892524, -3691.1000241160423, -2366.6250546723672, -3117.2636887149442, -1809.8878037795787, -7544.004326344053, -14535.138253586085, 0.0159375, -0.1075, 0.99109375, 192.0, 0.0, 0.0, 0.0, 0.0, 0.0, 0.0, 0.0, 0.0, 0.0, 1.645923167097274E9, 0.0, 2022-02-27 11:52:47.097
224.0, 180.3115225209621, -2436.72012528421, -1868.7846504193128, -8854.263586314153, 351.0564984150527, 862.1738388745594, -4584.678063950309, -1341.9316818632701, -2188.951037997131, -3799.8412608911112, -3408.573974200961, -2293.1325189033173, -2819.404342103522, -1541.1304284489668, -7504.397035169249, -14494.25691297733, 0.01396875, -0.10775, 0.9905468749999999, 192.0, 0.0, 48.0, 126.0, 80.0, 15.0, 120.0, 0.0, 0.0, 0.0, 1.645923167104314E9, 0.0, 2022-02-27 11:52:47.104
226.0, -350.14007689238514, -2851.5237988857984, -2260.0295853650077, -9338.447074705015, -148.77321109452382, 579.3125127926485, -4807.2343834918, -1635.0748103946223, -2923.2281950984234, -4439.548187201999, -3687.0543583696317, -2460.2788639401037, -3079.2880748853777, -1814.626373604104, -7782.363329215447, -15095.138859169349, 0.01396875, -0.10775, 0.9905468749999999, 192.0, 0.0, 0.0, 0.0, 0.0, 0.0, 0.0, 0.0, 0.0, 0.0, 1.645923167111823E9, 0.0, 2022-02-27 11:52:47.111
228.0, 64.82005892039048, -2510.3467715199913, -1920.1713109220639, -8919.508328379194, 256.9333025137547, 847.4887427674225, -4530.586842368465, -1292.6013818504075, -1189.068101533425, -3605.1352149409313, -3501.981914279689, -2265.416355778737, -2935.8345789712166, -1619.0262578757117, -7390.581952402825, -14212.043787484621, 0.01396875, -0.10775, 0.9905468749999999, 192.0, 0.0, 0.0, 0.0, 0.0, 0.0, 0.0, 0.0, 0.0, 0.0, 1.645923167119809E9, 0.0, 2022-02-27 11:52:47.119
230.0, -80.01924514999928, -2634.354249758035, -2082.8920105566995, -9134.062723405686, 89.67519875469193, 676.2520284953151, -4755.937129966871, -1593.187641285377, -3284.320626773909, -4267.283292684948, -3479.2054866797316, -2402.2537353341268, -2866.5218194153094, -1623.98834514479, -7722.8853372198755, -15026.40724496928, 0.01396875, -0.10775, 0.9905468749999999, 192.0, 0.0, 0.0, 0.0, 0.0, 0.0, 0.0, 0.0, 0.0, 0.0, 1.645923167126945E9, 0.0, 2022-02-27 11:52:47.126
232.0, -224.344459097917, -2738.4239719419447, -2133.1610838366846, -9172.284206424261, -18.88722406473447, 689.8642408685972, -4670.665224869875, -1447.6554331368725, -1524.344268363031, -3974.743661253889, -3684.1709833348973, -2360.0759935469623, -3118.8953660601815, -1798.331951896185, -7553.079134592907, -14546.06825662473, 0.01396875, -0.10775, 0.9905468749999999, 192.0, 0.0, 0.0, 0.0, 0.0, 0.0, 0.0, 0.0, 0.0, 0.0, 1.645923167141417E9, 0.0, 2022-02-27 11:52:47.141
234.0, 187.97817086913238, -2416.044761663051, -1858.9945863478883, -8851.9390048908, 351.6376437708907, 851.154428858093, -4586.265037806635, -1356.192094825756, -2161.1454678947293, -3773.399147200483, -3404.0142183320786, -2278.894457685287, -2822.064199693704, -1558.6765478463826, -7503.994703769053, -14487.05965126272, 0.014, -0.10400000000000001, 0.988, 192.0, 0.0, 56.0, 126.0, 96.0, 15.0, 112.0, 0.0, 0.0, 0.0, 1.645923167149452E9, 0.0, 2022-02-27 11:52:47.149
236.0, -352.4646583157371, -2845.891159283061, -2257.369727774826, -9339.810531116787, -153.31061521895114, 575.8926958909865, -4820.868947609538, -1647.7035460118707, -2940.1708173955462, -4417.263497980059, -3684.4839077572715, -2466.3808901764023, -3077.0976039287575, -1823.9023475530564, -7783.100936782473, -15102.380824372867, 0.014, -0.10400000000000001, 0.988, 192.0, 0.0, 0.0, 0.0, 0.0, 0.0, 0.0, 0.0, 0.0, 0.0, 1.645923167156468E9, 0.0, 2022-02-27 11:52:47.156
238.0, 49.129134312764926, -2528.943422906807, -1924.261680157385, -8922.726979580759, 244.01399421858721, 832.5354257268222, -4545.160179753325, -1300.424492409765, -1200.0428080609809, -3614.4782441232496, -3512.5989928959602, -2255.9392161296864, -2943.7470965083953, -1628.0116591467452, -7394.6499698936905, -14210.501517117205, 0.014, -0.10400000000000001, 0.988, 192.0, 0.0, 0.0, 0.0, 0.0, 0.0, 0.0, 0.0, 0.0, 0.0, 1.645923167164219E9, 0.0, 2022-02-27 11:52:47.164
240.0, -78.36521606030657, -2645.820694663608, -2082.9367140456097, -9140.835301975645, 81.06977713939871, 659.5329236427455, -4775.919589509916, -1608.856214148547, -3280.9902168500685, -4259.214312936582, -3478.2667134126086, -2395.2129358307047, -2861.8503048241505, -1648.083525667611, -7724.628773287389, -15022.78626236752, 0.014, -0.10400000000000001, 0.988, 192.0, 0.0, 0.0, 0.0, 0.0, 0.0, 0.0, 0.0, 0.0, 0.0, 1.645923167172063E9, 0.0, 2022-02-27 11:52:47.172
242.0, -218.53300553953716, -2730.936137549417, -2131.37294428026, -9178.252122193828, -25.12336076776514, 689.774833890776, -4673.7274138602515, -1459.7700786316489, -1515.314163603087, -3971.2791408633166, -3678.851268154534, -2365.9545023387077, -3117.397799181676, -1807.429111889495, -7553.302652037461, -14547.521120014326, 0.014, -0.10400000000000001, 0.988, 192.0, 0.0, 0.0, 0.0, 0.0, 0.0, 0.0, 0.0, 0.0, 0.0, 1.645923167180522E9, 0.0, 2022-02-27 11:52:47.180
244.0, 184.33483652291736, -2428.71820076921, -1862.2802927828186, -8859.024507883132, 343.59101576698015, 845.3429752997131, -4579.313645281034, -1376.286313091077, -2167.7615842535, -3774.6731966344355, -3400.348532241408, -2286.114071144351, -2822.4888828383546, -1560.2411699582542, -7504.039407257964, -14491.082965264675, 0.016, -0.098, 0.988, 192.0, 0.0, 64.0, 126.0, 120.0, 15.0, 112.0, 0.0, 0.0, 0.0, 1.645923167186786E9, 0.0, 2022-02-27 11:52:47.186
246.0, -350.6318152704019, -2851.903778541539, -2263.3376435443934, -9345.599632930713, -162.18425776770803, 562.0346143286961, -4820.019581320236, -1652.8667989810467, -2970.815059043772, -4435.055486566483, -3687.590800236559, -2460.904712784852, -3085.412452866132, -1833.9606325579446, -7787.146602528883, -15109.443975620745, 0.016, -0.098, 0.988, 192.0, 0.0, 0.0, 0.0, 0.0, 0.0, 0.0, 0.0, 0.0, 0.0, 1.645923167193891E9, 0.0, 2022-02-27 11:52:47.193
248.0, 60.03678560695477, -2521.299126303092, -1925.9380609915331, -8930.728904095758, 236.14618017031913, 832.7142396824646, -4562.169857283814, -1308.426416924765, -1187.5258311660089, -3600.8436800055124, -3510.2073562392425, -2261.4153935212366, -2949.5585500667753, -1632.9960981602787, -7397.689807139613, -14211.552049106605, 0.016, -0.098, 0.988, 192.0, 0.0, 0.0, 0.0, 0.0, 0.0, 0.0, 0.0, 0.0, 0.0, 1.645923167201744E9, 0.0, 2022-02-27 11:52:47.201
250.0, -64.64124496474803, -2623.5583571861216, -2076.8793912982214, -9122.082188377643, 91.82096622240141, 663.4668306668796, -4768.163534183924, -1603.6706094349158, -3268.6297021662836, -4244.685679040633, -3474.310454644019, -2389.3791305278696, -2869.9416363169717, -1639.1875313743988, -7720.694866263255, -15013.554991907478, 0.016, -0.098, 0.988, 192.0, 0.0, 0.0, 0.0, 0.0, 0.0, 0.0, 0.0, 0.0, 0.0, 1.645923167208818E9, 0.0, 2022-02-27 11:52:47.208
252.0, -222.89159570832203, -2736.1440940075036, -2137.0726391163635, -9186.321101942194, -30.219558503575147, 688.254915267815, -4680.075309285558, -1470.9459508593025, -1564.8232775715921, -3986.545382326291, -3687.948428147844, -2362.84760985942, -3125.0197440409356, -1810.8712805356122, -7561.237521319094, -14565.402515578571, 0.016, -0.098, 0.988, 192.0, 0.0, 0.0, 0.0, 0.0, 0.0, 0.0, 0.0, 0.0, 0.0, 1.645923167216477E9, 0.0, 2022-02-27 11:52:47.216
254.0, 196.4718337621491, -2410.9709156716963, -1856.4688392244386, -8849.122685089433, 352.0399751710862, 850.506228268889, -4580.721805181719, -1357.287330304066, -2113.1339208047298, -3742.1290567075084, -3399.2309450186426, -2269.350262802871, -2824.925222983983, -1548.8417802860477, -7491.745947807544, -14466.943081252943, 0.016, -0.096, 0.988, 192.0, 0.0, 64.0, 126.5, 0.0, 15.0, 112.0, 0.0, 0.0, 0.0, 1.645923167224342E9, 0.0, 2022-02-27 11:52:47.224
0.0, -340.4841232876925, -2835.542301600254, -2258.2637975530383, -9332.032124046342, -149.51081866154894, 569.3436347655816, -4814.163424272946, -1665.1602584314655, -2979.0628527477807, -4419.878652081329, -3679.745337932746, -2457.596654605467, -3085.166583677123, -1817.5321003832937, -7782.363329215447, -15103.967798229194, 0.016, -0.096, 0.988, 192.0, 0.0, 0.0, 0.0, 0.0, 0.0, 0.0, 0.0, 0.0, 0.0, 1.645923167232356E9, 0.0, 2022-02-27 11:52:47.232
2.0, 63.523657741982674, -2517.1193500899494, -1923.6358313126364, -8927.130273238454, 234.8050755030007, 835.9552426284841, -4563.175685784303, -1309.5440041475301, -1177.8251740724056, -3601.894211994912, -3509.447396927762, -2254.106373084351, -2955.861742003172, -1624.5918422450832, -7395.097004782797, -14207.9534182493, 0.016, -0.096, 0.988, 192.0, 0.0, 0.0, 0.0, 0.0, 0.0, 0.0, 0.0, 0.0, 0.0, 1.645923167239165E9, 0.0, 2022-02-27 11:52:47.239
4.0, -55.208808804608445, -2626.0170490762057, -2070.6209028507355, -9122.149243611007, 93.25147786754107, 663.3103684556924, -4758.149952667946, -1608.2080135593433, -3250.7930100909484, -4224.904385197686, -3470.935341231268, -2380.9972263571294, -2868.6452351385637, -1635.8794731950134, -7714.391674326858, -15003.899038302785, 0.016, -0.096, 0.988, 192.0, 0.0, 0.0, 0.0, 0.0, 0.0, 0.0, 0.0, 0.0, 0.0, 1.645923167247066E9, 0.0, 2022-02-27 11:52:47.247
6.0, -221.5951945299142, -2738.9157103199614, -2138.0114123834865, -9188.57862813218, -36.76861962898012, 674.5085924278012, -4675.850829583505, -1452.9527965727802, -1558.989472268757, -3995.7766527863328, -3693.0669776281093, -2367.407365728303, -3134.2510145009774, -1813.6428968480704, -7553.570872970924, -14562.362678332649, 0.016, -0.096, 0.988, 192.0, 0.0, 0.0, 0.0, 0.0, 0.0, 0.0, 0.0, 0.0, 0.0, 1.645923167254906E9, 0.0, 2022-02-27 11:52:47.254
8.0, 200.20457508618537, -2410.725046482688, -1859.7098421704582, -8855.671746214837, 345.40150706786005, 841.1408473421154, -4593.395244287878, -1368.418499042809, -2119.571223207858, -3752.746135323779, -3407.3669800003745, -2283.990655421097, -2839.543263857754, -1556.3072629341202, -7495.143412964751, -14469.982918498865, 0.014, -0.1, 0.988, 192.0, 0.0, 56.0, 126.0, 112.0, 15.0, 112.0, 0.0, 0.0, 0.0, 1.645923167268511E9, 0.0, 2022-02-27 11:52:47.268
10.0, -336.30434707455004, -2835.922281255994, -2266.466887768136, -9339.743475883422, -163.05597580146502, 544.1308670199951, -4840.270261796744, -1669.2282759223315, -3009.21535601799, -4428.171149274248, -3677.398404764939, -2464.525695386612, -3085.2336389104894, -1834.8323505917015, -7794.634436921411, -15120.105757725927, 0.014, -0.1, 0.988, 192.0, 0.0, 0.0, 0.0, 0.0, 0.0, 0.0, 0.0, 0.0, 0.0, 1.645923167277133E9, 0.0, 2022-02-27 11:52:47.277
12.0, 63.054271108421226, -2516.202928567282, -1931.9953837389212, -8940.742485611736, 220.924642196255, 818.833806375719, -4575.804421401551, -1318.7976263520272, -1173.846563559361, -3602.0730259505544, -3515.9741063087117, -2257.2356173080943, -2971.105631721691, -1630.8503306925693, -7406.965781088565, -14220.828023055557, 0.014, -0.1, 0.988, 192.0, 0.0, 0.0, 0.0, 0.0, 0.0, 0.0, 0.0, 0.0, 0.0, 1.645923167284524E9, 0.0, 2022-02-27 11:52:47.284
14.0, -32.25356724900809, -2603.173566242882, -2062.3954608911827, -9116.427197030449, 97.38655059177287, 663.3327202001477, -4777.059528477136, -1607.4927577367732, -3232.241062193044, -4220.143463628705, -3464.2074661502206, -2382.5618484690012, -2871.3274444732006, -1639.0534209076668, -7716.224517372194, -15005.508363903567, 0.014, -0.1, 0.988, 192.0, 0.0, 0.0, 0.0, 0.0, 0.0, 0.0, 0.0, 0.0, 0.0, 1.64592316729168E9, 0.0, 2022-02-27 11:52:47.291
16.0, -207.37948505633892, -2721.5484048781877, -2134.859816415288, -9187.952779287432, -35.136942283742705, 675.7602901172984, -4685.193858765824, -1468.4649072247635, -1579.1283940229887, -3998.235344676417, -3682.695768200847, -2359.94188308023, -3127.7690086089383, -1807.4067601450397, -7567.428954533215, -14587.642501311602, 0.014, -0.1, 0.988, 192.0, 0.0, 0.0, 0.0, 0.0, 0.0, 0.0, 0.0, 0.0, 0.0, 1.645923167299351E9, 0.0, 2022-02-27 11:52:47.299
18.0, 218.80122647300084, -2399.1021393659285, -1848.8021908762685, -8844.339411775996, 355.4597920727482, 859.6704434955649, -4587.114404095937, -1357.577902981985, -2074.063071496853, -3734.0600769591424, -3391.8548693483913, -2260.9683586321307, -2826.534548584765, -1548.1935796968437, -7487.454412872125, -14460.975165483376, 0.016, -0.1, 0.986, 192.0, 0.0, 64.0, 126.0, 112.0, 15.0, 104.0, 0.0, 0.0, 0.0, 1.645923167307348E9, 0.0, 2022-02-27 11:52:47.307
20.0, -320.21109106672895, -2827.4062666185223, -2258.1520388307617, -9334.915499081077, -156.283397231507, 555.038518314185, -4826.255718023267, -1670.5693805896499, -3010.7129228964955, -4419.141044514304, -3662.735660402258, -2447.3148521560256, -3075.08594692778, -1817.554452127749, -7790.074681052528, -15122.743263571652, 0.016, -0.1, 0.986, 192.0, 0.0, 0.0, 0.0, 0.0, 0.0, 0.0, 0.0, 0.0, 0.0, 1.645923167314294E9, 0.0, 2022-02-27 11:52:47.314
22.0, 63.23308506406368, -2517.9910681237066, -1935.2810901738515, -8939.088456522042, 224.14329339781924, 809.5131289378559, -4567.623682930909, -1311.0862745149464, -1167.3422059228667, -3605.246973663208, -3510.9449638062674, -2255.8498091518654, -2970.3680241546663, -1638.7181447408373, -7398.8744495957435, -14220.783319566646, 0.016, -0.1, 0.986, 192.0, 0.0, 0.0, 0.0, 0.0, 0.0, 0.0, 0.0, 0.0, 0.0, 1.645923167320741E9, 0.0, 2022-02-27 11:52:47.320
24.0, -32.03004980445502, -2604.872298821485, -2059.713251556546, -9111.532164994736, 106.43900709617223, 680.096528541628, -4784.569714614119, -1605.1234728245108, -3231.7940273039376, -4204.877222165731, -3465.2803498840753, -2382.338331024448, -2873.0038253073485, -1639.2545866077646, -7710.882450447375, -14999.540448134, 0.016, -0.1, 0.986, 192.0, 0.0, 0.0, 0.0, 0.0, 0.0, 0.0, 0.0, 0.0, 0.0, 1.645923167329041E9, 0.0, 2022-02-27 11:52:47.329
26.0, -216.27547934955115, -2737.73106786383, -2139.821903684366, -9197.809898592222, -35.740439384035994, 670.8205545926755, -4688.323102989567, -1479.6854829413276, -1601.502490222751, -4009.321809926249, -3687.3225793030956, -2367.8991041063196, -3131.054715043869, -1814.9392980264781, -7568.457134778158, -14595.845591526699, 0.016, -0.1, 0.986, 192.0, 0.0, 0.0, 0.0, 0.0, 0.0, 0.0, 0.0, 0.0, 0.0, 1.645923167336884E9, 0.0, 2022-02-27 11:52:47.336
28.0, 207.82651994544506, -2410.076845893484, -1858.0558130807656, -8852.542501991094, 351.48118155970354, 851.0426701358164, -4573.971578356216, -1337.5730916944854, -2062.261350424451, -3748.9686905108324, -3401.734340397637, -2273.64179773829, -2838.4927318683544, -1550.83108554257, -7482.2241046695835, -14454.359049124605, 0.012, -0.10400000000000001, 0.988, 192.0, 0.0, 48.0, 126.0, 96.0, 15.0, 112.0, 0.0, 0.0, 0.0, 1.645923167344073E9, 0.0, 2022-02-27 11:52:47.344
30.0, -317.59593696545807, -2830.9378422424606, -2258.666128953234, -9327.964106555475, -146.64979537126965, 564.6721201744223, -4842.416029264454, -1652.3527088585747, -3055.751687973939, -4429.3110882414685, -3664.9261313588777, -2453.6403958368774, -3077.2317143954892, -1813.4193794035173, -7790.678178152822, -15127.839461307463, 0.012, -0.10400000000000001, 0.988, 192.0, 0.0, 0.0, 0.0, 0.0, 0.0, 0.0, 0.0, 0.0, 0.0, 1.645923167351669E9, 0.0, 2022-02-27 11:52:47.351
32.0, 53.33126227036265, -2525.9259374053404, -1937.8291890417563, -8941.904776323412, 222.26574686357344, 818.7891028868083, -4573.211619044736, -1311.0192192815805, -1155.4510778726433, -3609.8514330210014, -3523.1937197677757, -2253.212303306139, -2984.7178440949733, -1648.7540780012703, -7401.266086252462, -14222.750273078713, 0.012, -0.10400000000000001, 0.988, 192.0, 0.0, 0.0, 0.0, 0.0, 0.0, 0.0, 0.0, 0.0, 0.0, 1.645923167359452E9, 0.0, 2022-02-27 11:52:47.359
34.0, -22.105875266298685, -2600.0666737635943, -2049.4985043404704, -9095.908295620477, 134.51279813203791, 686.1762030334716, -4765.570731827108, -1582.7717283692036, -3199.652218777206, -4190.1697743141385, -3458.1948468917426, -2370.8718861188754, -2864.308996714234, -1631.923214426424, -7703.014636399107, -14982.01668048104, 0.012, -0.10400000000000001, 0.988, 192.0, 0.0, 0.0, 0.0, 0.0, 0.0, 0.0, 0.0, 0.0, 0.0, 1.645923167367573E9, 0.0, 2022-02-27 11:52:47.367
36.0, -221.01404917407623, -2744.190722011414, -2146.61683399878, -9200.96149456042, -30.35366897030699, 680.4541564529129, -4679.024777296159, -1460.217113520755, -1648.7540780012703, -4010.908783782576, -3692.798756694646, -2364.9039703493086, -3133.8710348452373, -1823.3882574305842, -7570.200570845673, -14615.917458047565, 0.012, -0.10400000000000001, 0.988, 192.0, 0.0, 0.0, 0.0, 0.0, 0.0, 0.0, 0.0, 0.0, 0.0, 1.645923167374264E9, 0.0, 2022-02-27 11:52:47.374
38.0, 206.73128446713503, -2417.296459352548, -1857.6087781916594, -8842.37245826393, 362.18766715379564, 872.0086064348944, -4559.822924116007, -1318.4176466962872, -2020.9553266710434, -3724.78410301019, -3399.00742757409, -2265.1928383341838, -2830.3566968866226, -1548.1041727190225, -7468.924816718676, -14435.04714191522, 0.01, -0.106, 0.986, 192.0, 0.0, 40.0, 126.0, 88.0, 15.0, 104.0, 0.0, 0.0, 0.0, 1.645923167389084E9, 0.0, 2022-02-27 11:52:47.389
40.0, -322.4462655122597, -2834.983507988871, -2259.1131638423403, -9328.902879822597, -137.0608969999429, 574.1269080790172, -4815.415121962443, -1639.8357319636027, -3039.524321499386, -4418.403436947279, -3665.7084424148134, -2452.00871849164, -3071.107336414735, -1803.1822804429867, -7781.625721648422, -15119.99399900365, 0.01, -0.106, 0.986, 192.0, 0.0, 0.0, 0.0, 0.0, 0.0, 0.0, 0.0, 0.0, 0.0, 1.645923167397291E9, 0.0, 2022-02-27 11:52:47.397
42.0, 58.69568093963635, -2524.0930943600056, -1940.1537704651084, -8937.121503009976, 231.29585162351748, 830.8813966371295, -4571.33407251049, -1319.2670129855887, -1144.811647511917, -3595.702778780792, -3515.1023882749546, -2251.245349794072, -2965.4506403744986, -1635.0971621390775, -7390.380786702727, -14215.262438686186, 0.01, -0.106, 0.986, 192.0, 0.0, 0.0, 0.0, 0.0, 0.0, 0.0, 0.0, 0.0, 0.0, 1.645923167403824E9, 0.0, 2022-02-27 11:52:47.403
44.0, -35.271052750474546, -2617.0539995496274, -2064.675338825624, -9098.27758053274, 122.71107705963577, 693.4405199814463, -4749.343365352555, -1563.0127862707122, -3203.384960101242, -4192.851983648776, -3461.8158294935024, -2373.330578008959, -2862.7443746023628, -1628.9057289249574, -7695.213877584205, -14978.172180434727, 0.01, -0.106, 0.986, 192.0, 0.0, 0.0, 0.0, 0.0, 0.0, 0.0, 0.0, 0.0, 0.0, 1.645923167411722E9, 0.0, 2022-02-27 11:52:47.411
46.0, -235.1627034142856, -2760.6192541860646, -2157.3009678484163, -9197.139346258564, -31.58301491534888, 687.1149763005944, -4674.643835382919, -1468.151982802389, -1645.1330953995105, -4026.487949667925, -3702.275896343696, -2372.235342530649, -3138.296680247388, -1820.527234140305, -7569.597073745379, -14604.003978252886, 0.01, -0.10500000000000001, 0.985, 192.0, 0.0, 40.0, 126.0, 96.0, 15.0, 96.0, 0.0, 0.0, 0.0, 1.645923167419897E9, 0.0, 2022-02-27 11:52:47.419
48.0, 196.2036128286854, -2431.24394789266, -1865.3424817731957, -8841.679554185816, 358.6113880409465, 873.4838215689447, -4561.231084016691, -1340.2553010291222, -2050.0796496963085, -3730.7520187797572, -3412.6643434362823, -2264.9916726340857, -2842.18076970348, -1551.9039692764247, -7471.651729542224, -14441.28327861825, 0.01, -0.10500000000000001, 0.985, 192.0, 0.0, 0.0, 0.0, 0.0, 0.0, 0.0, 0.0, 0.0, 0.0, 1.645923167426908E9, 0.0, 2022-02-27 11:52:47.426
50.0, -333.242158084173, -2848.6851273399743, -2264.7010999561667, -9328.36643795567, -139.00549876755463, 571.8693818890312, -4820.600726676074, -1643.0096796762562, -3091.1344994466904, -4439.570538946455, -3670.402308750428, -2453.7968580480647, -3077.2764178844, -1812.88293753659, -7787.124250784427, -15129.828766563985, 0.01, -0.10500000000000001, 0.985, 192.0, 0.0, 0.0, 0.0, 0.0, 0.0, 0.0, 0.0, 0.0, 0.0, 1.645923167434499E9, 0.0, 2022-02-27 11:52:47.434
52.0, 39.160256285697976, -2545.8636934594742, -1949.519151391882, -8943.156474012909, 230.91587196777726, 836.0446496063054, -4570.372947498911, -1300.1115679873906, -1164.3470721658555, -3610.2984679101073, -3531.7767896386135, -2260.901303398765, -2983.4884981499313, -1648.7987814901808, -7392.03481579242, -14216.804709053602, 0.01, -0.10500000000000001, 0.985, 192.0, 0.0, 0.0, 0.0, 0.0, 0.0, 0.0, 0.0, 0.0, 0.0, 1.645923167441539E9, 0.0, 2022-02-27 11:52:47.441
54.0, -20.85417757680149, -2613.8577000925184, -2052.493638097482, -9088.17459203894, 137.59733886687027, 698.1343863170608, -4734.6582692454185, -1554.0720884885895, -3198.333465854343, -4185.9452946120855, -3461.927588215779, -2377.085671077451, -2864.890142070072, -1631.2526620927647, -7695.057415373018, -14960.71546801513, 0.01, -0.10500000000000001, 0.985, 192.0, 0.0, 0.0, 0.0, 0.0, 0.0, 0.0, 0.0, 0.0, 0.0, 1.64592316744946E9, 0.0, 2022-02-27 11:52:47.449
56.0, -244.2822151520509, -2770.901056635506, -2161.7489649950226, -9205.454195195936, -49.35265175731799, 678.5989616631224, -4689.910076845894, -1477.7855846626264, -1706.041599040222, -4046.381002233148, -3706.768596979213, -2379.9913978566406, -3142.81173262736, -1826.9198330545228, -7579.141268627795, -14624.36641745167, 0.009000000000000001, -0.10550000000000001, 0.9864999999999999, 192.0, 0.0, 32.0, 126.0, 88.0, 15.0, 112.0, 0.0, 0.0, 0.0, 1.645923167456601E9, 0.0, 2022-02-27 11:52:47.456
58.0, 204.83138618843392, -2422.236194877171, -1857.2511502803745, -8835.488120971695, 357.69496651827893, 870.086356411738, -4564.382679984889, -1344.7256499201835, -1993.6638466911133, -3716.469254072816, -3404.1483287988103, -2255.7827539184996, -2839.029173735282, -1560.5093908917179, -7471.5399708199475, -14423.647752243014, 0.009000000000000001, -0.10550000000000001, 0.9864999999999999, 192.0, 0.0, 0.0, 0.0, 0.0, 0.0, 0.0, 0.0, 0.0, 0.0, 1.645923167464163E9, 0.0, 2022-02-27 11:52:47.464
60.0, -324.6143847244245, -2840.0797057246814, -2260.566027231935, -9323.247888475405, -154.2046849971634, 570.2377045437938, -4830.2790320252225, -1656.4654298383512, -3084.764252276928, -4430.585137675422, -3657.4606487108053, -2447.270148667115, -3069.2297898804895, -1810.6701148355146, -7791.885172353408, -15130.387560175368, 0.009000000000000001, -0.10550000000000001, 0.9864999999999999, 192.0, 0.0, 0.0, 0.0, 0.0, 0.0, 0.0, 0.0, 0.0, 0.0, 1.645923167472105E9, 0.0, 2022-02-27 11:52:47.472
62.0, 30.934814326144974, -2554.200894141304, -1952.4919334044378, -8946.285718236652, 206.91009842277748, 819.8396348762077, -4551.172799011802, -1311.7791785930608, -1155.3840226392774, -3621.206119204297, -3528.021696570122, -2262.555332488457, -2983.242628960923, -1657.1583339164656, -7395.834612349822, -14219.822194555069, 0.009000000000000001, -0.10550000000000001, 0.9864999999999999, 192.0, 0.0, 0.0, 0.0, 0.0, 0.0, 0.0, 0.0, 0.0, 0.0, 1.645923167479158E9, 0.0, 2022-02-27 11:52:47.479
64.0, -20.138921754231664, -2606.3028104666246, -2047.7327165285012, -9079.546818679193, 131.58471960839267, 693.2840577702592, -4741.609661771019, -1565.7396990942598, -3198.4452245766192, -4192.628466204223, -3463.469858583195, -2375.923380365775, -2868.6899386274745, -1634.8736446945245, -7694.878601417376, -14965.275223884015, 0.009000000000000001, -0.10550000000000001, 0.9864999999999999, 192.0, 0.0, 0.0, 0.0, 0.0, 0.0, 0.0, 0.0, 0.0, 0.0, 1.645923167486724E9, 0.0, 2022-02-27 11:52:47.486
66.0, -245.44450586372685, -2768.062385089682, -2164.0064911850086, -9212.651456910546, -51.051384335921334, 668.2948074692258, -4692.234658269245, -1495.2422970822213, -1725.5993754386159, -4061.960168118497, -3702.7229312328022, -2374.537572209546, -3140.151875037179, -1826.3833911875954, -7579.230675605617, -14643.410103727592, 0.0105, -0.10375000000000001, 0.98625, 192.0, 0.0, 48.0, 126.0, 104.0, 15.0, 104.0, 0.0, 0.0, 0.0, 1.6459231674947E9, 0.0, 2022-02-27 11:52:47.494
68.0, 202.39504604280546, -2422.0573809215284, -1857.4523159804721, -8839.086751829, 358.1643531518404, 870.8016122343079, -4571.781107399596, -1330.8899201023485, -1965.098317277231, -3705.0251609116985, -3402.9189828537683, -2261.4377452656922, -2831.3625253871114, -1554.630882099972, -7457.793647979934, -14413.433005026938, 0.0105, -0.10375000000000001, 0.98625, 192.0, 0.0, 0.0, 0.0, 0.0, 0.0, 0.0, 0.0, 0.0, 0.0, 1.645923167502647E9, 0.0, 2022-02-27 11:52:47.502
70.0, -328.61534698192446, -2847.3663744171113, -2262.3765185328148, -9328.65701063359, -144.86165581484508, 566.3261492641151, -4820.936002842904, -1664.1991334198874, -3111.6534008566623, -4432.507387698578, -3657.885331855456, -2457.7978203055645, -3060.8702374542045, -1815.3192776822184, -7787.615989162445, -15133.270935210103, 0.0105, -0.10375000000000001, 0.98625, 192.0, 0.0, 0.0, 0.0, 0.0, 0.0, 0.0, 0.0, 0.0, 0.0, 1.64592316751643E9, 0.0, 2022-02-27 11:52:47.516
72.0, 24.65397413420369, -2564.2144756572816, -1959.1527532521193, -8947.984450815255, 205.34547631090598, 824.5782047007328, -4561.991043328171, -1308.739341347139, -1154.5346563499756, -3626.4140756623838, -3532.156769294354, -2264.6116929783457, -2980.046329503814, -1663.3274153861303, -7396.169888516652, -14221.453871900305, 0.0105, -0.10375000000000001, 0.98625, 192.0, 0.0, 0.0, 0.0, 0.0, 0.0, 0.0, 0.0, 0.0, 0.0, 1.645923167524378E9, 0.0, 2022-02-27 11:52:47.524
74.0, -18.95427929810039, -2610.013200046206, -2051.867789252733, -9070.9413970639, 138.42435341171665, 705.1528340760273, -4742.369621082499, -1571.506449163729, -3179.9826836565358, -4183.8889341221975, -3458.5301230585724, -2375.3198832654816, -2862.2302844798905, -1626.3352783125972, -7690.676473459777, -14950.970107432619, 0.0105, -0.10375000000000001, 0.98625, 192.0, 0.0, 0.0, 0.0, 0.0, 0.0, 0.0, 0.0, 0.0, 0.0, 1.645923167532645E9, 0.0, 2022-02-27 11:52:47.532
76.0, -264.2870264395507, -2789.542411511232, -2177.283427391461, -9212.8749743551, -58.5392187284492, 669.4570981809019, -4709.154928821913, -1489.028512123646, -1746.9229396489789, -4069.738575188944, -3708.377922579995, -2387.5462874825344, -3140.777723881927, -1835.8605308366457, -7594.541620557502, -14652.529615465357, 0.01125, -0.10287500000000001, 0.9861249999999999, 192.0, 0.0, 48.0, 126.0, 104.0, 15.0, 104.0, 0.0, 0.0, 0.0, 1.645923167538939E9, 0.0, 2022-02-27 11:52:47.538
78.0, 180.3562260098727, -2444.4761806102015, -1866.7059381849692, -8845.971089121234, 353.5598937940471, 865.3477865872129, -4574.485668478688, -1344.9938708536472, -1970.5297911798707, -3725.2534896437514, -3412.5749364584613, -2281.6213705088344, -2844.2371301933686, -1567.639597372961, -7467.427249840171, -14415.936400405932, 0.01125, -0.10287500000000001, 0.9861249999999999, 192.0, 0.0, 0.0, 0.0, 0.0, 0.0, 0.0, 0.0, 0.0, 0.0, 1.645923167547487E9, 0.0, 2022-02-27 11:52:47.547
80.0, -344.5297890341031, -2862.9008368135496, -2271.0936988703847, -9333.730856624945, -148.88496981680035, 569.455393487858, -4846.461695010865, -1675.0620812251666, -3125.3773719522205, -4438.341193001413, -3661.0592795681096, -2476.5732856480226, -3066.078193912291, -1822.0248010188104, -7798.233067778715, -15145.653801638342, 0.01125, -0.10287500000000001, 0.9861249999999999, 192.0, 0.0, 0.0, 0.0, 0.0, 0.0, 0.0, 0.0, 0.0, 0.0, 1.645923167554927E9, 0.0, 2022-02-27 11:52:47.554
82.0, 3.442168646117288, -2588.6002288580216, -1968.9875208124545, -8965.038831834654, 207.3347815674283, 826.5451582127998, -4548.602348399442, -1326.7324956336613, -1166.0905082333695, -3649.726945129269, -3547.467714246239, -2288.3939490787925, -2991.311608709289, -1663.595636319594, -7400.640237407713, -14230.595735382527, 0.01125, -0.10287500000000001, 0.9861249999999999, 192.0, 0.0, 0.0, 0.0, 0.0, 0.0, 0.0, 0.0, 0.0, 0.0, 1.645923167562033E9, 0.0, 2022-02-27 11:52:47.562
84.0, -23.446979933617108, -2624.653592664432, -2050.325518885317, -9081.491420446804, 149.15319075026403, 708.7514649333317, -4735.820559957095, -1575.306245721131, -3176.1158318657676, -4183.01721608844, -3463.603969049927, -2391.23432531766, -2857.894046055561, -1639.0087174187563, -7684.28387454556, -14953.361744089336, 0.01125, -0.10287500000000001, 0.9861249999999999, 192.0, 0.0, 0.0, 0.0, 0.0, 0.0, 0.0, 0.0, 0.0, 0.0, 1.645923167568516E9, 0.0, 2022-02-27 11:52:47.568
86.0, -259.10142172591947, -2783.9768271418607, -2171.606084299813, -9214.149023789052, -50.470238980083344, 672.6533976380107, -4702.695274674329, -1489.8108231795816, -1741.2232448128755, -4077.5393340038463, -3709.920192947411, -2397.112834109406, -3133.915738334148, -1832.2171964904305, -7590.719472255644, -14654.049534088319, 0.013625, -0.10043750000000001, 0.9870625, 192.0, 0.0, 64.0, 126.0, 120.0, 15.0, 112.0, 0.0, 0.0, 0.0, 1.645923167576717E9, 0.0, 2022-02-27 11:52:47.576
88.0, 187.57583946893686, -2441.9057299978413, -1860.7603741598577, -8847.915690888845, 366.2333329002062, 862.4197080635677, -4557.163066525825, -1339.6294521843736, -1970.0380528018538, -3735.9376234933884, -3416.1735673157655, -2282.78366122051, -2837.017516734304, -1564.532704893673, -7467.695470773634, -14419.445624285416, 0.013625, -0.10043750000000001, 0.9870625, 192.0, 0.0, 0.0, 0.0, 0.0, 0.0, 0.0, 0.0, 0.0, 0.0, 1.645923167584724E9, 0.0, 2022-02-27 11:52:47.584
90.0, -332.951585406254, -2852.1496477305473, -2259.627253964812, -9328.187624000027, -131.27179518601838, 563.9792160963078, -4829.831997136116, -1680.4488516388956, -3158.1897328126115, -4447.0360215945275, -3648.8105236066012, -2466.5597041320448, -3046.2969000693442, -1814.1122834816317, -7793.315683998548, -15164.295156514068, 0.013625, -0.10043750000000001, 0.9870625, 192.0, 0.0, 0.0, 0.0, 0.0, 0.0, 0.0, 0.0, 0.0, 0.0, 1.645923167591306E9, 0.0, 2022-02-27 11:52:47.591
92.0, 5.275011691452467, -2568.349548381513, -1968.1158027786976, -8971.25261679323, 201.925659409244, 816.1739487855374, -4559.487647949177, -1341.9316818632701, -1154.2440836720566, -3653.7726108756797, -3549.211150313753, -2289.913867701753, -2994.597315144219, -1665.7861072762141, -7407.099891555297, -14249.147683280431, 0.013625, -0.10043750000000001, 0.9870625, 192.0, 0.0, 0.0, 0.0, 0.0, 0.0, 0.0, 0.0, 0.0, 0.0, 1.64592316759932E9, 0.0, 2022-02-27 11:52:47.599
94.0, -13.299287950907702, -2597.22800221777, -2039.9766612025096, -9066.180475494919, 155.65754838675838, 718.4074185380243, -4732.758370966718, -1571.5288009081842, -3122.248127728478, -4143.253462702449, -3443.7556199736146, -2383.992360114141, -2847.791057561762, -1630.1574266144546, -7677.913627375798, -14941.962354417128, 0.013625, -0.10043750000000001, 0.9870625, 192.0, 0.0, 0.0, 0.0, 0.0, 0.0, 0.0, 0.0, 0.0, 0.0, 1.645923167607584E9, 0.0, 2022-02-27 11:52:47.607
96.0, -271.5289916430702, -2808.921373953983, -2176.635226802257, -9219.893422114066, -57.95807337261121, 669.9264848144633, -4718.117978348491, -1491.2413348247212, -1763.239713101353, -4067.704566443511, -3714.0776174160983, -2394.2741625635817, -3147.8185233853487, -1840.3532314721624, -7599.816632248954, -14657.446999245525, 0.0118125, -0.09821875000000001, 0.98753125, 192.0, 0.0, 40.0, 126.5, 0.0, 15.0, 112.0, 0.0, 0.0, 0.0, 1.645923167614371E9, 0.0, 2022-02-27 11:52:47.614
98.0, 178.61278994235875, -2457.0602127385396, -1861.8556096381676, -8842.886548386401, 356.77854499561136, 863.4702400529671, -4546.188359998269, -1336.969594594192, -1945.8311135567562, -3730.7073152908465, -3419.0569423505003, -2276.636931495301, -2846.5840633611756, -1556.0166902562012, -7464.09683991633, -14408.269752057762, 0.0118125, -0.09821875000000001, 0.98753125, 192.0, 0.0, 0.0, 0.0, 0.0, 0.0, 0.0, 0.0, 0.0, 0.0, 1.645923167621957E9, 0.0, 2022-02-27 11:52:47.621
100.0, -333.2645098286283, -2857.6705286110077, -2259.984881876097, -9329.260507733883, -137.0385452554876, 561.0734893171178, -4821.763017387751, -1661.5839793186165, -3158.7038229350833, -4452.154571074792, -3656.9689103327887, -2471.1418117453827, -3056.533999029875, -1810.9830392578888, -7789.940570585796, -15152.336973230478, 0.0118125, -0.09821875000000001, 0.98753125, 192.0, 0.0, 0.0, 0.0, 0.0, 0.0, 0.0, 0.0, 0.0, 0.0, 1.645923167637002E9, 0.0, 2022-02-27 11:52:47.637
102.0, 4.626811102248562, -2577.804336286108, -1967.2664364893958, -8961.82018063309, 205.21136584417414, 814.184643529015, -4560.404069471845, -1327.5371584340523, -1141.525941076987, -3636.472360667272, -3543.936138622301, -2268.791469191488, -2990.082262764247, -1672.111650957066, -7397.354530972783, -14231.57921213856, 0.0118125, -0.09821875000000001, 0.98753125, 192.0, 0.0, 0.0, 0.0, 0.0, 0.0, 0.0, 0.0, 0.0, 0.0, 1.64592316764404E9, 0.0, 2022-02-27 11:52:47.644
104.0, -17.7249333530585, -2615.8023018601302, -2039.5966815467696, -9066.582806895114, 157.9821298101103, 699.6096014511111, -4726.701048219329, -1570.2323997297765, -3133.8039796118715, -4166.6333874027005, -3453.188056133754, -2370.1342785518505, -2852.954310530938, -1621.6190602325273, -7678.13714482035, -14934.876851424797, 0.0118125, -0.09821875000000001, 0.98753125, 192.0, 0.0, 0.0, 0.0, 0.0, 0.0, 0.0, 0.0, 0.0, 0.0, 1.645923167651698E9, 0.0, 2022-02-27 11:52:47.651
106.0, -268.77972707506746, -2796.4043970590114, -2171.1590494107068, -9220.765140147823, -55.611140204803974, 656.9624730303852, -4698.582553694553, -1512.0508089126122, -1770.68284400497, -4088.9387236760526, -3710.9260214479, -2393.7153689521992, -3143.012898327458, -1843.0801442957097, -7596.106242669373, -14675.484857020958, 0.008906250000000001, -0.097109375, 0.990765625, 192.0, 0.0, 24.0, 126.5, 0.0, 15.5, 8.0, 0.0, 0.0, 0.0, 1.645923167659684E9, 0.0, 2022-02-27 11:52:47.659
108.0, 184.87127838984472, -2438.5082648406346, -1850.7914961327906, -8835.778693649614, 367.59678931197993, 872.5450483018218, -4554.458505446733, -1333.2368532701557, -1919.6125173106811, -3704.0640359001204, -3410.2503550351094, -2272.8818384268093, -2841.4655138809103, -1564.3315391935753, -7455.267900856484, -14405.922818889954, 0.008906250000000001, -0.097109375, 0.990765625, 192.0, 0.0, 0.0, 0.0, 0.0, 0.0, 0.0, 0.0, 0.0, 0.0, 1.64592316766753E9, 0.0, 2022-02-27 11:52:47.667
110.0, -341.7358209771897, -2863.9737205474044, -2249.837189893388, -9318.12933899514, -122.8228357819123, 582.4417570163914, -4821.450092965376, -1671.9775404903341, -3174.5735614983514, -4438.2294342791365, -3643.24493923723, -2459.0271662506066, -3045.8275134357827, -1786.2173064014087, -7787.481878695712, -15154.438037209278, 0.008906250000000001, -0.097109375, 0.990765625, 192.0, 0.0, 0.0, 0.0, 0.0, 0.0, 0.0, 0.0, 0.0, 0.0, 1.645923167674144E9, 0.0, 2022-02-27 11:52:47.674
112.0, -48.816209890390624, -2627.961650843817, -1974.1731255260856, -8968.548055714138, 200.09281636390884, 820.4654837209564, -4562.639243917375, -1334.6897166597507, -1157.976824996093, -3645.7259828717692, -3555.7155079502477, -2278.805050707466, -2999.537050668842, -1655.3254908711303, -7396.6392751502135, -14235.781340096157, 0.008906250000000001, -0.097109375, 0.990765625, 192.0, 0.0, 0.0, 0.0, 0.0, 0.0, 0.0, 0.0, 0.0, 0.0, 1.645923167682277E9, 0.0, 2022-02-27 11:52:47.682
114.0, -78.20875384911942, -2670.228799608803, -2036.065105922831, -9061.441905670394, 169.51562994904876, 708.4608922554127, -4742.056696660125, -1579.6424841454607, -3140.5989099262847, -4167.035718802896, -3466.9120272293126, -2383.701787436222, -2859.9057030565386, -1617.2157665748318, -7669.621130182878, -14922.404578018735, 0.008906250000000001, -0.097109375, 0.990765625, 192.0, 0.0, 0.0, 0.0, 0.0, 0.0, 0.0, 0.0, 0.0, 0.0, 1.645923167689201E9, 0.0, 2022-02-27 11:52:47.689
116.0, -379.06323421755246, -2897.4119302525437, -2184.793613528444, -9229.415265252026, -60.14854432923131, 668.7418423583321, -4724.667039473897, -1513.6154310244838, -1828.104475510654, -4115.537299577868, -3736.496417104771, -2420.9844971876737, -3153.71938392155, -1837.1792837595087, -7603.88464973982, -14681.09514487924, 0.011453125000000001, -0.0985546875, 0.9923828125, 192.0, 0.0, 56.0, 126.0, 112.0, 15.5, 8.0, 0.0, 0.0, 0.0, 1.645923167697198E9, 0.0, 2022-02-27 11:52:47.697
118.0, 31.985346315544408, -2587.3485311685245, -1873.0314818658212, -8849.815589167547, 370.9942544691866, 875.9425134590285, -4535.861854059917, -1345.3738505093875, -1962.0584800313093, -3743.69367881938, -3454.7526782456257, -2306.632972554323, -2858.5198949003097, -1566.6561206169274, -7456.363136334794, -14397.786783908223, 0.011453125000000001, -0.0985546875, 0.9923828125, 192.0, 0.0, 0.0, 0.0, 0.0, 0.0, 0.0, 0.0, 0.0, 0.0, 1.645923167703853E9, 0.0, 2022-02-27 11:52:47.703
120.0, -517.4205323959031, -3026.403847504121, -2269.372614547326, -9337.888281093632, -121.59348983687042, 575.8256406576205, -4814.766921373239, -1683.3769301625407, -3251.0835827688675, -4496.701597774219, -3699.079596886587, -2508.491576730201, -3059.9314641870815, -1806.780911300291, -7786.610160661956, -15158.48370295569, 0.011453125000000001, -0.0985546875, 0.9923828125, 192.0, 0.0, 0.0, 0.0, 0.0, 0.0, 0.0, 0.0, 0.0, 0.0, 1.645923167711793E9, 0.0, 2022-02-27 11:52:47.711
122.0, -223.94212769772147, -2791.5317167677545, -1985.1478320536414, -8985.758898944725, 208.92175542375512, 828.4897599804116, -4556.3360519809785, -1331.6945829027395, -1210.5481279549751, -3683.0310443676767, -3607.146871941909, -2339.2441677146157, -3004.7673588713837, -1673.1621829464655, -7395.566391416359, -14239.022343042177, 0.011453125000000001, -0.0985546875, 0.9923828125, 192.0, 0.0, 0.0, 0.0, 0.0, 0.0, 0.0, 0.0, 0.0, 0.0, 1.645923167719922E9, 0.0, 2022-02-27 11:52:47.719
124.0, -240.37065987237216, -2826.959231729416, -2043.4635333375377, -9064.973481294332, 182.85962138886708, 729.9632704214181, -4709.132577077458, -1550.6299198424722, -3184.2518668474995, -4211.895669924697, -3516.1082167754435, -2436.854235750942, -2860.866828068117, -1623.496606766773, -7666.357775492404, -14915.944923871151, 0.011453125000000001, -0.0985546875, 0.9923828125, 192.0, 0.0, 0.0, 0.0, 0.0, 0.0, 0.0, 0.0, 0.0, 0.0, 1.645923167726645E9, 0.0, 2022-02-27 11:52:47.726
126.0, -513.5760323495904, -3026.6050132042187, -2199.635171846768, -9248.21308233894, -53.28655878145204, 669.1888772474382, -4700.661265928897, -1502.9536489193022, -1916.550328320304, -4167.6839193921, -3788.397167729994, -2467.8784570549083, -3161.207218314078, -1864.9177986285447, -7606.7233212856445, -14698.641264276655, 0.016, -0.10400000000000001, 0.994, 192.0, 0.0, 64.0, 126.0, 96.0, 15.5, 8.0, 0.0, 0.0, 0.0, 1.645923167734588E9, 0.0, 2022-02-27 11:52:47.734
128.0, -44.23410227705268, -2646.6700609529094, -1878.2841418128185, -8860.27620557263, 369.9660742242425, 892.3710456336792, -4560.4264212163, -1325.2796322440663, -1956.9622822954993, -3752.388507412494, -3487.632094339382, -2338.9982985256074, -2867.0806130266924, -1575.730928865782, -7452.272767099473, -14389.22606578184, 0.016, -0.10400000000000001, 0.994, 192.0, 0.0, 0.0, 0.0, 0.0, 0.0, 0.0, 0.0, 0.0, 0.0, 1.645923167742482E9, 0.0, 2022-02-27 11:52:47.742
130.0, -526.4506371558473, -3049.98493790447, -2269.2161523361387, -9335.116664781173, -118.73246654659111, 575.2221435573273, -4821.673610409929, -1678.5489533601944, -3287.2710570420095, -4498.355626863912, -3705.6063062675366, -2526.1271031054384, -3060.378499076188, -1803.9422397544672, -7797.249591022682, -15162.462313468734, 0.016, -0.10400000000000001, 0.994, 192.0, 0.0, 0.0, 0.0, 0.0, 0.0, 0.0, 0.0, 0.0, 0.0, 1.64592316774948E9, 0.0, 2022-02-27 11:52:47.749
132.0, -210.19580485770763, -2786.904905665506, -1999.2517828049401, -8995.995997905255, 189.6098482143698, 808.3061347372693, -4573.5915987004755, -1344.9491673647365, -1216.9630786136483, -3722.817149498123, -3621.116712226476, -2330.929318777242, -3027.521434726886, -1701.6830088714373, -7408.485699711526, -14256.099075806032, 0.016, -0.10400000000000001, 0.994, 192.0, 0.0, 0.0, 0.0, 0.0, 0.0, 0.0, 0.0, 0.0, 0.0, 1.645923167764066E9, 0.0, 2022-02-27 11:52:47.764
134.0, -169.9850165826102, -2764.0167193432712, -2038.9261292131102, -9063.65472837147, 176.69053991920234, 715.3675812921025, -4726.857510430516, -1561.246998458743, -3146.075087317835, -4183.151326555172, -3503.188908480276, -2418.011715175118, -2868.4217176940106, -1636.2594528507536, -7670.269330772082, -14911.608685446821, 0.016, -0.10400000000000001, 0.994, 192.0, 0.0, 0.0, 0.0, 0.0, 0.0, 0.0, 0.0, 0.0, 0.0, 1.645923167772161E9, 0.0, 2022-02-27 11:52:47.772
136.0, -444.9561768717977, -2955.3253001362446, -2197.8917357792543, -9250.336498062194, -66.58584673235974, 666.41726093498, -4705.869222386983, -1517.504634559707, -1900.3900170791171, -4144.348698180759, -3766.425402930427, -2453.5286371146008, -3166.1246020942453, -1858.3240340142293, -7615.954591745686, -14709.95124697104, 0.016, -0.10400000000000001, 0.994, 192.0, 0.0, 64.0, 126.0, 96.0, 15.5, 8.0, 0.0, 0.0, 0.0, 1.645923167779199E9, 0.0, 2022-02-27 11:52:47.779
138.0, 36.88037835125665, -2581.291208421136, -1871.3998045205838, -8857.638699726904, 362.6794055318124, 886.5148885863887, -4553.1621042683255, -1332.7004114032284, -1928.910843004089, -3737.9045770054554, -3467.314358629508, -2333.9915077676187, -2868.8464008386613, -1584.895144092458, -7456.050211912419, -14391.528295460737, 0.016, -0.10400000000000001, 0.994, 192.0, 0.0, 0.0, 0.0, 0.0, 0.0, 0.0, 0.0, 0.0, 0.0, 1.645923167786816E9, 0.0, 2022-02-27 11:52:47.786
140.0, -451.99697637521945, -2971.1950386995127, -2267.8079924354547, -9333.395580458115, -122.97929799309946, 575.8703441465311, -4847.981613633825, -1681.0523487391888, -3266.3498242318424, -4489.280818615058, -3686.897896158445, -2509.1844808083156, -3057.6068827637296, -1811.4747776359056, -7800.177669546327, -15169.547816461065, 0.016, -0.10400000000000001, 0.994, 192.0, 0.0, 0.0, 0.0, 0.0, 0.0, 0.0, 0.0, 0.0, 0.0, 1.645923167794768E9, 0.0, 2022-02-27 11:52:47.794
142.0, -126.39911489476144, -2700.4707098568333, -1992.7027216795352, -8987.323521056596, 182.74786266659055, 807.9485068259844, -4588.4331570188, -1352.258187801622, -1181.3343979518888, -3682.2263815672854, -3597.2003456592975, -2308.1975946661946, -3017.1949287885345, -1689.1883837209207, -7415.906478870688, -14254.19917752733, 0.016, -0.10400000000000001, 0.994, 192.0, 0.0, 0.0, 0.0, 0.0, 0.0, 0.0, 0.0, 0.0, 0.0, 1.645923167802765E9, 0.0, 2022-02-27 11:52:47.802
144.0, -88.17763187618637, -2678.364834590535, -2030.678335509102, -9047.7849898082, 174.6788829182247, 733.0254594117952, -4725.225833085279, -1557.6930710903491, -3120.4823399165084, -4155.546922152867, -3484.8604780269243, -2398.006903887618, -2871.819182851217, -1632.3926010599855, -7675.678452930267, -14910.580505201879, 0.016, -0.10400000000000001, 0.994, 192.0, 0.0, 0.0, 0.0, 0.0, 0.0, 0.0, 0.0, 0.0, 0.0, 1.645923167810385E9, 0.0, 2022-02-27 11:52:47.810
146.0, -380.2478766736838, -2890.058206326748, -2199.702227080134, -9255.186826608995, -69.04453862244351, 646.4348013919356, -4732.467798288799, -1539.118771447989, -1940.0196599983765, -4145.354526681248, -3744.6101003420476, -2443.4703521097126, -3172.427794030642, -1868.6281882081257, -7636.518196644569, -14742.696552598067, 0.012, -0.108, 0.994, 192.0, 0.0, 48.0, 126.0, 80.0, 15.5, 8.0, 0.0, 0.0, 0.0, 1.645923167816443E9, 0.0, 2022-02-27 11:52:47.816
148.0, 93.47499531209414, -2521.6120507254664, -1867.0859178407095, -8854.531807247617, 346.40733556834886, 865.1913243760258, -4577.167877813325, -1349.0842400889683, -1855.0830310682097, -3706.768596979213, -3449.812942721003, -2300.687408529211, -2875.373110219611, -1585.9456760818573, -7457.368964835283, -14386.297987258195, 0.012, -0.108, 0.994, 192.0, 0.0, 0.0, 0.0, 0.0, 0.0, 0.0, 0.0, 0.0, 0.0, 1.645923167824371E9, 0.0, 2022-02-27 11:52:47.824
150.0, -393.48010939122554, -2915.405084539066, -2255.44747775167, -9332.255641490894, -128.83545504038992, 563.196905040372, -4852.921349158448, -1720.4808259583506, -3255.3527659598312, -4476.5626760199875, -3666.1554773039197, -2497.0251318246287, -3054.6564524956293, -1808.010257245333, -7810.750044673687, -15179.784915421596, 0.012, -0.108, 0.994, 192.0, 0.0, 0.0, 0.0, 0.0, 0.0, 0.0, 0.0, 0.0, 0.0, 1.64592316783146E9, 0.0, 2022-02-27 11:52:47.831
152.0, -91.17276563319751, -2662.5397995161775, -1992.1439280681525, -8995.21368684932, 171.9072666057666, 809.6025359156771, -4595.161032099847, -1342.3116615190104, -1168.3256826789002, -3677.8677913985007, -3586.896191465401, -2305.5824405649237, -3028.147283571635, -1705.594564151116, -7419.661571939179, -14267.163189311408, 0.012, -0.108, 0.994, 192.0, 0.0, 0.0, 0.0, 0.0, 0.0, 0.0, 0.0, 0.0, 0.0, 1.645923167839073E9, 0.0, 2022-02-27 11:52:47.839
154.0, -45.441096477639256, -2638.1987498043477, -2025.291565095373, -9045.192187451386, 177.18227829721909, 718.8768051715857, -4738.435714058365, -1557.5813123680728, -3093.593191336774, -4143.968718525019, -3474.0869371994663, -2391.56960148449, -2874.0767090412032, -1641.6462232644826, -7673.867961629387, -14907.764185400509, 0.012, -0.108, 0.994, 192.0, 0.0, 0.0, 0.0, 0.0, 0.0, 0.0, 0.0, 0.0, 0.0, 1.645923167846962E9, 0.0, 2022-02-27 11:52:47.846
156.0, -344.21686461172874, -2858.6093018781307, -2198.316418923905, -9249.487131772892, -71.39147179025076, 659.7787928317539, -4728.533891264665, -1535.050753957123, -1912.1917381515193, -4147.187369726583, -3740.1173997065307, -2424.2031483892383, -3175.0205963874578, -1862.0567753382654, -7636.7193623446665, -14737.421540906615, 0.008, -0.11, 0.992, 192.0, 0.0, 32.0, 126.0, 72.0, 15.5, 0.0, 0.0, 0.0, 0.0, 1.645923167854952E9, 0.0, 2022-02-27 11:52:47.854
158.0, 130.1095044743424, -2491.1242712884273, -1863.4202317500392, -8855.403525281374, 360.55598980855825, 886.313722886291, -4561.275787505601, -1336.254338771622, -1862.7273276719247, -3712.3565330930396, -3441.453390294718, -2298.1393096613065, -2874.2108195079354, -1589.79017612817, -7463.426287582671, -14388.622568681547, 0.008, -0.11, 0.992, 192.0, 0.0, 0.0, 0.0, 0.0, 0.0, 0.0, 0.0, 0.0, 0.0, 1.645923167863098E9, 0.0, 2022-02-27 11:52:47.863
160.0, -356.37621359541583, -2876.4236422090107, -2252.117067827829, -9332.926193824553, -124.78978929397933, 568.2036957983609, -4842.617194964551, -1701.3253809601524, -3257.5432369164514, -4460.514123501078, -3651.9621195747995, -2489.6043526654666, -3052.823609450294, -1818.9849637728887, -7808.917201628352, -15184.568188735031, 0.008, -0.11, 0.992, 192.0, 0.0, 0.0, 0.0, 0.0, 0.0, 0.0, 0.0, 0.0, 0.0, 1.645923167871002E9, 0.0, 2022-02-27 11:52:47.871
162.0, -56.929893127667086, -2627.939299099362, -1984.9913698424543, -8996.8230124501, 181.18324055471905, 810.4742539494341, -4586.197982573269, -1351.8111529125158, -1152.299481904445, -3675.833782653068, -3576.7037959937807, -2300.307428873471, -3024.794521903339, -1704.0075902947892, -7417.0687695823635, -14269.755991668224, 0.008, -0.11, 0.992, 192.0, 0.0, 0.0, 0.0, 0.0, 0.0, 0.0, 0.0, 0.0, 0.0, 1.645923167885124E9, 0.0, 2022-02-27 11:52:47.885
164.0, 0.7599593114804402, -2593.137632982449, -2004.9514776410435, -9032.317582645128, 191.97913312663235, 735.0818199016834, -4735.7758564681835, -1581.8553068465362, -3064.6700340116067, -4133.86573003122, -3459.4241928367846, -2377.5774094554677, -2861.313862957223, -1627.855196935558, -7674.6949761742335, -14905.149031299237, 0.008, -0.11, 0.992, 192.0, 0.0, 0.0, 0.0, 0.0, 0.0, 0.0, 0.0, 0.0, 0.0, 1.645923167891171E9, 0.0, 2022-02-27 11:52:47.891
166.0, -313.9078991303324, -2826.9815834738715, -2193.4660903771032, -9252.63872774109, -83.05908239592104, 652.514475883779, -4758.239359645768, -1541.2645389156985, -1955.0400322723428, -4155.368108197225, -3722.6159837980254, -2414.9048226958303, -3156.2451310449997, -1857.1170398136426, -7649.482208428647, -14772.513779701447, 0.012, -0.112, 0.996, 192.0, 0.0, 48.0, 126.0, 64.0, 15.5, 16.0, 0.0, 0.0, 0.0, 1.645923167899221E9, 0.0, 2022-02-27 11:52:47.899
168.0, 153.5341326635042, -2461.7093755852434, -1857.2064467914638, -8848.876815900423, 354.0516321720639, 871.2933506123246, -4566.61785443042, -1327.3806962228653, -1785.524402323294, -3684.9085909019223, -3434.3455355579304, -2283.8341932099097, -2873.6296741520973, -1593.2323447742874, -7455.804342723411, -14371.299966728684, 0.012, -0.112, 0.996, 192.0, 0.0, 0.0, 0.0, 0.0, 0.0, 0.0, 0.0, 0.0, 0.0, 1.64592316790725E9, 0.0, 2022-02-27 11:52:47.907
170.0, -324.4132190243267, -2839.185635946469, -2238.9742420881084, -9317.27997270584, -123.4263328822056, 584.3863587840032, -4882.246837883811, -1705.6169158955713, -3265.0757747978896, -4456.379050776845, -3636.5617676450934, -2474.4722216692235, -3038.876120910182, -1811.653591591548, -7813.3428470305025, -15185.238741068692, 0.012, -0.112, 0.996, 192.0, 0.0, 0.0, 0.0, 0.0, 0.0, 0.0, 0.0, 0.0, 0.0, 1.645923167914369E9, 0.0, 2022-02-27 11:52:47.914
172.0, -57.265169294496694, -2617.5680896720996, -1993.6191432022028, -9004.869640454011, 161.82662985642312, 797.577297398722, -4585.348616283967, -1368.7537752096387, -1148.2761679024898, -3686.1602885914194, -3579.2742466061413, -2294.3171613594486, -3027.432027749065, -1713.372971221563, -7435.799531435911, -14282.854113919035, 0.012, -0.112, 0.996, 192.0, 0.0, 0.0, 0.0, 0.0, 0.0, 0.0, 0.0, 0.0, 0.0, 1.645923167921806E9, 0.0, 2022-02-27 11:52:47.921
174.0, 14.349819940307134, -2579.4360136313458, -2006.0690648638088, -9026.774350020212, 195.6224674728474, 724.7329622188762, -4701.980018851759, -1545.2878529176537, -3024.4145422475985, -4116.76664552291, -3451.9810619331674, -2374.8057931430094, -2855.547112887754, -1632.727877226815, -7665.642519669834, -14884.361908955803, 0.012, -0.112, 0.996, 192.0, 0.0, 0.0, 0.0, 0.0, 0.0, 0.0, 0.0, 0.0, 0.0, 1.645923167929949E9, 0.0, 2022-02-27 11:52:47.929
176.0, -318.0429718545642, -2825.6851822954636, -2205.4019219162374, -9258.69605048848, -96.04544592445446, 642.1432664565166, -4729.517368020698, -1546.6513093294275, -1998.4918234934598, -4182.167849799139, -3733.9706699813214, -2426.3489158569478, -3164.559979982374, -1868.203505063475, -7654.8019236090095, -14775.978300092018, 0.014, -0.108, 0.988, 192.0, 0.0, 56.0, 126.0, 80.0, 15.0, 112.0, 0.0, 0.0, 0.0, 1.645923167937127E9, 0.0, 2022-02-27 11:52:47.937
178.0, 165.2464467580851, -2448.9688812457184, -1856.5135427133494, -8838.75147566217, 340.5064750321478, 874.2661326248805, -4574.731537667696, -1341.9093301188148, -1769.5429050377495, -3682.360492034017, -3432.6244512348717, -2277.3298355734155, -2867.885275827083, -1587.8008708716477, -7454.709107245101, -14362.135751502008, 0.014, -0.108, 0.988, 192.0, 0.0, 0.0, 0.0, 0.0, 0.0, 0.0, 0.0, 0.0, 0.0, 1.645923167943455E9, 0.0, 2022-02-27 11:52:47.943
180.0, -325.0390678690753, -2841.219644691902, -2248.0937538258736, -9315.692998849512, -129.1260277183089, 561.9675590953302, -4827.708581412862, -1707.8073868521915, -3261.0524607959346, -4452.400440263801, -3636.6735263673695, -2470.717128600732, -3037.5797197317747, -1802.8693560206123, -7812.247611552193, -15178.354403776457, 0.014, -0.108, 0.988, 192.0, 0.0, 0.0, 0.0, 0.0, 0.0, 0.0, 0.0, 0.0, 0.0, 1.64592316795163E9, 0.0, 2022-02-27 11:52:47.951
182.0, -42.58007318735996, -2608.7615023567087, -1988.165317555108, -8992.665587981413, 159.1891240106969, 795.7221026089314, -4585.795651173074, -1364.7528129521386, -1139.9613189651154, -3663.0709365690873, -3574.6250837594375, -2297.535812561013, -3022.246423035434, -1707.8967938300127, -7429.541042988425, -14276.193294071352, 0.014, -0.108, 0.988, 192.0, 0.0, 0.0, 0.0, 0.0, 0.0, 0.0, 0.0, 0.0, 0.0, 1.645923167959708E9, 0.0, 2022-02-27 11:52:47.959
184.0, 14.550985640404898, -2580.5312491096556, -2004.1244630961971, -9021.097006928565, 190.01217961456533, 728.5551105207337, -4723.549452251131, -1546.3383849070533, -3022.2911265243447, -4113.8609187437205, -3445.2084833632093, -2367.2509035171156, -2849.8697697961056, -1626.0223538902228, -7672.392746495337, -14883.84781883333, 0.014, -0.108, 0.988, 192.0, 0.0, 0.0, 0.0, 0.0, 0.0, 0.0, 0.0, 0.0, 0.0, 1.645923167968228E9, 0.0, 2022-02-27 11:52:47.968
186.0, -317.0147916096201, -2825.640478806553, -2201.4009596587375, -9254.136294619597, -91.50804180002712, 640.5339408557345, -4730.36673431, -1545.7572395512152, -1970.5968464132366, -4173.562428183845, -3731.243757157774, -2424.5831280449784, -3157.452125245586, -1868.3376155302067, -7654.310185230993, -14767.39523022118, 0.014, -0.10400000000000001, 0.986, 192.0, 0.0, 56.0, 126.0, 96.0, 15.0, 104.0, 0.0, 0.0, 0.0, 1.645923167974154E9, 0.0, 2022-02-27 11:52:47.974
188.0, 148.10265876086459, -2467.8784570549083, -1866.6388829516034, -8850.46378975675, 339.0536116425528, 867.1359261436374, -4553.720897879708, -1330.5099404466082, -1806.780911300291, -3700.241887598263, -3439.1735123602766, -2283.051882153974, -2873.0485287962592, -1596.9427343538684, -7460.341746847838, -14372.283443484717, 0.014, -0.10400000000000001, 0.986, 192.0, 0.0, 0.0, 0.0, 0.0, 0.0, 0.0, 0.0, 0.0, 0.0, 1.645923167982403E9, 0.0, 2022-02-27 11:52:47.982
190.0, -322.8933004013658, -2847.724002328396, -2242.438762478681, -9317.190565728017, -115.04442871146546, 570.6847394329, -4850.909692157471, -1691.4459099109067, -3296.234106568588, -4465.856190425896, -3640.562729902593, -2481.5353729171006, -3029.466036494498, -1811.6982950804586, -7812.582887719022, -15185.216389324236, 0.014, -0.10400000000000001, 0.986, 192.0, 0.0, 0.0, 0.0, 0.0, 0.0, 0.0, 0.0, 0.0, 0.0, 1.645923167990177E9, 0.0, 2022-02-27 11:52:47.990
192.0, -68.06106186641, -2632.879034623985, -2004.9067741521328, -9012.603344035548, 148.348527949873, 789.6200763726326, -4578.084299335993, -1370.6313217438844, -1160.524923863998, -3700.4877567872713, -3587.499688565694, -2308.085835943918, -3027.141455071146, -1724.951174849412, -7434.659592468691, -14286.810372687623, 0.014, -0.10400000000000001, 0.986, 192.0, 0.0, 0.0, 0.0, 0.0, 0.0, 0.0, 0.0, 0.0, 0.0, 1.645923167996905E9, 0.0, 2022-02-27 11:52:47.996
194.0, 15.981497285544549, -2582.4982026217226, -2003.520965995904, -9017.744245260268, 198.7070082076798, 737.9428431919627, -4698.448443227821, -1535.3636783794975, -3006.890774594638, -4108.652962285633, -3450.125867143377, -2375.789269899043, -2847.3663744171113, -1628.4139905469408, -7660.523970189568, -14868.022783758974, 0.012, -0.10400000000000001, 0.987, 192.0, 0.0, 40.0, 126.0, 96.0, 15.0, 112.0, 0.0, 0.0, 0.0, 1.645923168011773E9, 0.0, 2022-02-27 11:52:48.011
196.0, -331.63283248339087, -2841.7113830699186, -2213.470901664603, -9266.966195936942, -96.73835000256896, 636.0412402202178, -4717.089798103547, -1549.892312275447, -2034.7910564888784, -4194.506012738468, -3738.7092398058467, -2435.490779339168, -3158.145029323701, -1875.0878423557094, -7661.641557412334, -14784.762535662954, 0.012, -0.10400000000000001, 0.987, 192.0, 0.0, 0.0, 0.0, 0.0, 0.0, 0.0, 0.0, 0.0, 0.0, 1.645923168019879E9, 0.0, 2022-02-27 11:52:48.019
198.0, 153.66824313023605, -2466.0009105206623, -1865.6777579400252, -8852.631908968915, 348.86602745843265, 868.6558447665984, -4540.488665162166, -1343.2951382750439, -1760.6469107445373, -3689.200125837341, -3439.8217129494806, -2288.081024656418, -2865.2701217258123, -1603.2012228013543, -7450.216406609584, -14358.26889971124, 0.012, -0.10400000000000001, 0.987, 192.0, 0.0, 0.0, 0.0, 0.0, 0.0, 0.0, 0.0, 0.0, 0.0, 1.645923168026376E9, 0.0, 2022-02-27 11:52:48.026
200.0, -330.694059216268, -2855.0777262541924, -2253.4581724951477, -9321.817376830266, -118.79952177995703, 572.8305069006094, -4839.8455786520935, -1690.9094680439794, -3302.7608159495376, -4466.3479288039125, -3633.05254376561, -2482.071814784028, -3021.330001512766, -1811.497129380361, -7809.207774306271, -15180.544874733076, 0.012, -0.10400000000000001, 0.987, 192.0, 0.0, 0.0, 0.0, 0.0, 0.0, 0.0, 0.0, 0.0, 0.0, 1.645923168034469E9, 0.0, 2022-02-27 11:52:48.034
202.0, -71.77145144599098, -2635.673002680898, -2014.450969034549, -9010.010541678732, 158.71973737713546, 802.6511433900766, -4584.521601739121, -1358.4272692712868, -1167.588075111875, -3695.950352662844, -3594.8757642359456, -2315.0372284695186, -3027.6331934491627, -1722.4030759815068, -7429.697505199612, -14278.406116772429, 0.012, -0.10400000000000001, 0.987, 192.0, 0.0, 0.0, 0.0, 0.0, 0.0, 0.0, 0.0, 0.0, 0.0, 1.645923168042308E9, 0.0, 2022-02-27 11:52:48.042
204.0, 14.640392618226127, -2582.006464243706, -2009.8241579323005, -9012.871564969011, 215.247299104607, 758.1041166906497, -4696.772062393673, -1539.1634749368995, -3014.155091542613, -4097.633552269167, -3458.1724951472875, -2373.017653586585, -2849.4897901403656, -1631.4538277928625, -7657.282967243549, -14861.004336000007, 0.012, -0.10500000000000001, 0.9875, 192.0, 0.0, 48.0, 126.0, 88.0, 15.0, 112.0, 0.0, 0.0, 0.0, 1.645923168049631E9, 0.0, 2022-02-27 11:52:48.049
206.0, -328.8388644264775, -2839.3644499021116, -2219.237651734072, -9265.870960458633, -89.5857917768707, 671.6028656486113, -4723.370638295489, -1544.6843558173605, -2043.932919971099, -4201.658570964167, -3741.9055392629552, -2436.5189595841125, -3151.52891296493, -1877.814755179257, -7652.365583463381, -14785.477791485524, 0.012, -0.10500000000000001, 0.9875, 192.0, 0.0, 0.0, 0.0, 0.0, 0.0, 0.0, 0.0, 0.0, 0.0, 1.645923168057164E9, 0.0, 2022-02-27 11:52:48.057
208.0, 148.54969364997075, -2467.811401821542, -1881.2122203364636, -8849.793237423091, 352.531713549103, 885.1961356635256, -4549.205845499736, -1327.9171380897926, -1765.787811969258, -3687.791965936657, -3447.6895269977485, -2289.4221293237365, -2866.0747845262035, -1595.176946541899, -7448.204749608607, -14353.262108953251, 0.012, -0.10500000000000001, 0.9875, 192.0, 0.0, 0.0, 0.0, 0.0, 0.0, 0.0, 0.0, 0.0, 0.0, 1.645923168064033E9, 0.0, 2022-02-27 11:52:48.064
210.0, -328.36947779291603, -2853.289586697768, -2262.868256910832, -9316.475309905447, -112.78690252147943, 579.8713064040311, -4829.072037824636, -1677.6772353264375, -3325.4701883161297, -4469.655986983298, -3639.691011868836, -2483.725843873721, -3023.498120724931, -1805.3727513996068, -7809.1183673284495, -15177.281520042601, 0.012, -0.10500000000000001, 0.9875, 192.0, 0.0, 0.0, 0.0, 0.0, 0.0, 0.0, 0.0, 0.0, 0.0, 1.645923168072057E9, 0.0, 2022-02-27 11:52:48.072
212.0, -69.3127595559072, -2635.80711314763, -2020.3741813152053, -9017.297210371162, 154.11527801934218, 804.9310213245179, -4583.493421494177, -1361.9141414063147, -1167.878647789794, -3708.6014400245476, -3596.3286276255403, -2313.5396615910126, -3026.627364948674, -1728.2815847732527, -7430.010429621987, -14280.484829006771, 0.012, -0.10500000000000001, 0.9875, 192.0, 0.0, 0.0, 0.0, 0.0, 0.0, 0.0, 0.0, 0.0, 0.0, 1.645923168078846E9, 0.0, 2022-02-27 11:52:48.078
214.0, 24.162235756186934, -2577.3796531414573, -2007.5219282534038, -9013.005675435743, 215.40376131579416, 761.0098434698396, -4698.5602019500975, -1524.2101578962993, -2986.5953906292193, -4099.332284847771, -3450.192922376743, -2374.559923954001, -2841.7560865588293, -1628.5481010136725, -7651.024478796063, -14853.360039396292, 0.011, -0.10450000000000001, 0.98775, 192.0, 0.0, 40.0, 126.0, 96.0, 15.0, 112.0, 0.0, 0.0, 0.0, 1.645923168086722E9, 0.0, 2022-02-27 11:52:48.086
216.0, -331.7445912056674, -2844.214778448913, -2222.5904134023685, -9270.676585516523, -98.48178607008292, 653.9449875289188, -4730.74671396574, -1541.9797947382683, -2056.382841632705, -4204.296076809893, -3740.7432485512795, -2440.4752183527016, -3151.7747821539383, -1876.4065952785727, -7660.702784145211, -14797.525381746935, 0.011, -0.10450000000000001, 0.98775, 192.0, 0.0, 0.0, 0.0, 0.0, 0.0, 0.0, 0.0, 0.0, 0.0, 1.645923168094636E9, 0.0, 2022-02-27 11:52:48.094
218.0, 155.12110651983102, -2467.5208291436234, -1873.903199899578, -8853.302461302574, 350.4082978258488, 882.9609612179948, -4537.940566294261, -1321.3457252199323, -1751.9744338958783, -3681.4217187668946, -3444.15795137381, -2294.6747892707335, -2863.4819821693877, -1600.1613855554326, -7448.696487986624, -14355.050248509677, 0.011, -0.10450000000000001, 0.98775, 192.0, 0.0, 0.0, 0.0, 0.0, 0.0, 0.0, 0.0, 0.0, 0.0, 1.645923168102038E9, 0.0, 2022-02-27 11:52:48.102
220.0, -317.7971026655558, -2842.18076970348, -2250.172466060217, -9311.714388336468, -109.36708561981746, 585.0792628621176, -4840.158503074468, -1680.0688719831553, -3317.2447463565763, -4463.665719469276, -3620.602622104004, -2481.982407806207, -3005.4155594605877, -1801.3270856531963, -7808.581925461523, -15187.295101558579, 0.011, -0.10450000000000001, 0.98775, 192.0, 0.0, 0.0, 0.0, 0.0, 0.0, 0.0, 0.0, 0.0, 0.0, 1.645923168109438E9, 0.0, 2022-02-27 11:52:48.109
222.0, -83.34965507384004, -2641.8867876394734, -2019.5024632814484, -9017.990114449276, 150.2931297174847, 802.9417160679956, -4589.483689008199, -1358.874304160393, -1170.4714501466096, -3706.2321551122855, -3592.5511828125937, -2309.2928301445045, -3028.2813940383667, -1724.0571050711997, -7434.011391879487, -14290.811334945123, 0.011, -0.10450000000000001, 0.98775, 192.0, 0.0, 0.0, 0.0, 0.0, 0.0, 0.0, 0.0, 0.0, 0.0, 1.645923168117278E9, 0.0, 2022-02-27 11:52:48.117
224.0, 10.058285004888178, -2588.868449791485, -2008.5724602428033, -9011.262239368229, 215.09083689341986, 761.1216021921161, -4694.201611781313, -1516.029419425657, -2984.4496231615094, -4094.280790600871, -3451.511675299606, -2380.170211812283, -2843.253653437335, -1631.4091243039518, -7647.425847938758, -14846.095722448317, 0.0115, -0.10525000000000001, 0.984875, 192.0, 0.0, 48.0, 126.0, 88.0, 15.0, 88.0, 0.0, 0.0, 0.0, 1.645923168131558E9, 0.0, 2022-02-27 11:52:48.131
226.0, -342.8087047110444, -2854.1389529870694, -2232.7828088739884, -9277.896198975588, -99.73348375958011, 658.3259294421589, -4752.673775276396, -1539.4987511037293, -2099.834632853822, -4224.345591586303, -3749.6392428444915, -2451.5169801136235, -3161.7436601810055, -1880.4969645138938, -7665.731926647655, -14808.187163852117, 0.0115, -0.10525000000000001, 0.984875, 192.0, 0.0, 0.0, 0.0, 0.0, 0.0, 0.0, 0.0, 0.0, 0.0, 1.645923168139045E9, 0.0, 2022-02-27 11:52:48.139
228.0, 141.95592903565515, -2476.238009481193, -1883.3132843152625, -8853.66008921386, 351.45882981524824, 887.5207170868775, -4547.373002454401, -1319.1999577522229, -1738.921015133979, -3683.791003679157, -3451.377564832874, -2298.385178850315, -2874.747261374863, -1601.3013245226532, -7447.601252508313, -14345.573108860626, 0.0115, -0.10525000000000001, 0.984875, 192.0, 0.0, 0.0, 0.0, 0.0, 0.0, 0.0, 0.0, 0.0, 0.0, 1.64592316814699E9, 0.0, 2022-02-27 11:52:48.146
230.0, -316.09837008695246, -2841.3761069030893, -2255.8051056629547, -9303.734815565922, -98.48178607008292, 605.5758125276343, -4827.395656990488, -1679.532430116228, -3347.061973459956, -4449.606472206888, -3625.7435233287247, -2480.5965996499776, -3012.791635130839, -1799.9412774969671, -7810.750044673687, -15184.881113157406, 0.0115, -0.10525000000000001, 0.984875, 192.0, 0.0, 0.0, 0.0, 0.0, 0.0, 0.0, 0.0, 0.0, 0.0, 1.645923168155143E9, 0.0, 2022-02-27 11:52:48.155
232.0, -86.43419580867241, -2646.848874908552, -2036.73565825649, -9030.97647797781, 137.0608969999429, 814.6987336514871, -4597.217392589735, -1356.3262052924879, -1188.8222323444168, -3714.7034662608467, -3605.112863196476, -2319.7087430606775, -3045.380478546677, -1732.4166574974845, -7443.71204897309, -14299.506163538237, 0.0115, -0.10525000000000001, 0.984875, 192.0, 0.0, 0.0, 0.0, 0.0, 0.0, 0.0, 0.0, 0.0, 0.0, 1.645923168161679E9, 0.0, 2022-02-27 11:52:48.161
234.0, 38.19913127411977, -2566.0249669581613, -1999.3188380383062, -9007.820070722111, 225.730267254146, 766.575427839211, -4703.164661307891, -1515.2024048808105, -2942.3165848632557, -4073.9183514020865, -3440.738134472148, -2373.0847088199507, -2843.0301359927817, -1619.27212706472, -7647.738772361133, -14832.192937397116, 0.01075, -0.105625, 0.9884375, 192.0, 0.0, 40.0, 126.0, 88.0, 15.5, 0.0, 0.0, 0.0, 0.0, 1.64592316816958E9, 0.0, 2022-02-27 11:52:48.169
236.0, -335.1867598517847, -2847.8357610506728, -2231.888739095776, -9285.182867668018, -93.74321624555782, 650.03343224924, -4734.859434945516, -1540.0351929706567, -2109.2670690139616, -4226.603117776289, -3738.97746073931, -2451.0028899911513, -3157.6085874567734, -1879.781708691324, -7668.637653426845, -14819.810070968875, 0.01075, -0.105625, 0.9884375, 192.0, 0.0, 0.0, 0.0, 0.0, 0.0, 0.0, 0.0, 0.0, 0.0, 1.645923168177576E9, 0.0, 2022-02-27 11:52:48.177
238.0, 145.9121878042445, -2473.466393168735, -1887.426005295039, -8861.28203407312, 355.4374403282929, 889.3312083877574, -4539.99692678415, -1316.2942309730329, -1718.8715003575685, -3678.6053989655256, -3449.8799979543687, -2299.1674899062505, -2884.0679388127255, -1605.503452480251, -7442.370944305771, -14341.818015792134, 0.01075, -0.105625, 0.9884375, 192.0, 0.0, 0.0, 0.0, 0.0, 0.0, 0.0, 0.0, 0.0, 0.0, 1.645923168184963E9, 0.0, 2022-02-27 11:52:48.184
240.0, -305.3695327484051, -2835.318784155701, -2260.253102809561, -9310.261524946873, -96.47012906910528, 596.0092659007628, -4840.940814130404, -1682.9298952734346, -3354.035717730012, -4458.569521733466, -3622.793093060624, -2485.4469281967795, -3020.301821267822, -1796.87908850659, -7809.967733617751, -15185.10463060196, 0.01075, -0.105625, 0.9884375, 192.0, 0.0, 0.0, 0.0, 0.0, 0.0, 0.0, 0.0, 0.0, 0.0, 1.645923168191247E9, 0.0, 2022-02-27 11:52:48.191
242.0, -74.56541950290436, -2641.909139383929, -2034.1875593885852, -9024.270954641219, 143.14057149178643, 810.608364416166, -4598.267924579135, -1356.0356326145688, -1173.4442321591655, -3707.081521401587, -3596.4627380922725, -2313.986696480119, -3045.9392721580593, -1725.6440789275264, -7441.610984994291, -14296.488678036772, 0.01075, -0.105625, 0.9884375, 192.0, 0.0, 0.0, 0.0, 0.0, 0.0, 0.0, 0.0, 0.0, 0.0, 1.645923168199295E9, 0.0, 2022-02-27 11:52:48.199
244.0, 47.69862266762527, -2563.521571579167, -1998.8270996602894, -8999.572277018104, 228.41247658878288, 777.3713204111243, -4691.966437335782, -1517.9516694488132, -2937.086276660714, -4067.0116623653967, -3441.2075211057095, -2366.535647694546, -2848.081630239681, -1624.7483044562705, -7643.6484031258115, -14828.50489956199, 0.010374999999999999, -0.1058125, 0.9882187499999999, 192.0, 0.0, 40.0, 126.0, 88.0, 15.0, 112.0, 0.0, 0.0, 0.0, 1.645923168207254E9, 0.0, 2022-02-27 11:52:48.207
246.0, -332.370440050416, -2848.5957203621533, -2235.576776930902, -9288.669739803045, -106.39430360726162, 651.5757026166561, -4744.671850761396, -1548.7076698193157, -2151.4671625455812, -4231.252280622993, -3736.0046787267543, -2452.075773725006, -3166.549285238896, -1882.7544907038798, -7678.13714482035, -14836.12684442125, 0.010374999999999999, -0.1058125, 0.9882187499999999, 192.0, 0.0, 0.0, 0.0, 0.0, 0.0, 0.0, 0.0, 0.0, 0.0, 1.645923168214028E9, 0.0, 2022-02-27 11:52:48.214
