%OpenBCI Raw EEG Data
%Number of channels = 16
%Sample Rate = 125 Hz
%Board = OpenBCI_GUI$BoardCytonSerialDaisy
Sample Index, EXG Channel 0, EXG Channel 1, EXG Channel 2, EXG Channel 3, EXG Channel 4, EXG Channel 5, EXG Channel 6, EXG Channel 7, EXG Channel 8, EXG Channel 9, EXG Channel 10, EXG Channel 11, EXG Channel 12, EXG Channel 13, EXG Channel 14, EXG Channel 15, Accel Channel 0, Accel Channel 1, Accel Channel 2, Other, Other, Other, Other, Other, Other, Other, Analog Channel 0, Analog Channel 1, Analog Channel 2, Timestamp, Other, Timestamp (Formatted)
252.0, -410.7803595996332, -3009.0588938068026, -2016.864957435722, -9284.758184523367, 275.9769887896763, 336.46080928573724, -4899.100053203113, -1533.2626144006986, -2737.1946259969027, -4363.48520082059, -3519.9527168217564, -2680.1976776358697, -2984.471974905965, -1795.4932803503611, -8151.569444128209, -14953.920537700718, 0.0, 0.0, 0.0, 192.0, 0.0, 0.0, 0.0, 0.0, 0.0, 0.0, 0.0, 0.0, 0.0, 1.645922865256826E9, 0.0, 2022-02-27 11:47:45.256
2.0, -359.68427177480123, -2915.6286019836193, -1951.9107880486, -9182.163677473507, 374.369367881938, 446.36433677248203, -4808.910764325949, -1421.906223524359, -1763.0161956568, -3992.356835884671, -3589.0419589331104, -2589.583705614055, -3073.700138771551, -1807.1608909560314, -8012.787462805208, -14535.87586115311, 0.0, 0.0, 0.0, 192.0, 0.0, 0.0, 0.0, 0.0, 0.0, 0.0, 0.0, 0.0, 0.0, 1.645922865367996E9, 0.0, 2022-02-27 11:47:45.367
4.0, -898.115443958693, -3345.4302961147187, -2390.563772984001, -9670.214017655137, -156.81983909843436, 77.04646313744344, -5192.623161390205, -1897.9983804223991, -3865.018947722787, -4929.856053573615, -3751.8073620566565, -2790.5705917561763, -3198.8922594657256, -2004.191518329563, -8408.301580941867, -15597.471964057919, 0.0, 0.0, 0.0, 192.0, 0.0, 0.0, 0.0, 0.0, 0.0, 0.0, 0.0, 0.0, 0.0, 1.645922865374594E9, 0.0, 2022-02-27 11:47:45.374
6.0, -671.5581621597007, -3149.561959452863, -2164.632340029757, -9430.759779305432, 78.52167827149371, 307.0682653270084, -4910.454739386409, -1525.2383381412433, -1286.3428934029214, -4100.0698924147955, -3804.177499315441, -2648.458200509334, -3300.346827548364, -1974.8883813486555, -8055.523998203755, -14569.403477836071, 0.0, 0.0, 0.0, 192.0, 0.0, 0.0, 0.0, 0.0, 0.0, 0.0, 0.0, 0.0, 0.0, 1.645922865382582E9, 0.0, 2022-02-27 11:47:45.382
8.0, -436.7307349122447, -2985.164878984079, -2049.163228173641, -9284.221742656438, 277.07222426798637, 334.1585796068406, -4964.657719690528, -1636.8853016955022, -3183.4472040471082, -4427.142969029304, -3548.9876328692003, -2645.820694663608, -3001.5487076698196, -1797.7284547958918, -8201.212668563447, -15103.476059851178, 0.012, -0.11, 0.994, 192.0, 0.0, 48.0, 126.0, 72.0, 15.5, 8.0, 0.0, 0.0, 0.0, 1.645922865390483E9, 0.0, 2022-02-27 11:47:45.390
10.0, -976.9053431636505, -3385.775194856548, -2408.981610415174, -9709.508384407567, -210.59813625790315, 102.23687913857451, -5092.844974141714, -1759.104640377121, -2567.969568725773, -4731.909004677415, -3942.9818323828977, -2788.782452199752, -3411.323238768964, -2132.5575867363914, -8309.97625708297, -15247.644811587908, 0.012, -0.11, 0.994, 192.0, 0.0, 0.0, 0.0, 0.0, 0.0, 0.0, 0.0, 0.0, 0.0, 1.645922865397517E9, 0.0, 2022-02-27 11:47:45.397
12.0, -355.079812417008, -2908.990133880393, -1947.5745496242703, -9183.840058307655, 374.25760915966146, 446.2302263057502, -4815.57158417363, -1425.5942613594846, -1731.6119946970935, -3980.1751351565285, -3590.7853950006242, -2577.5361153526446, -3064.7817927338833, -1795.9403152394673, -8008.294762169691, -14533.998314618864, 0.012, -0.11, 0.994, 192.0, 0.0, 0.0, 0.0, 0.0, 0.0, 0.0, 0.0, 0.0, 0.0, 1.645922865405211E9, 0.0, 2022-02-27 11:47:45.405
14.0, -887.6101240646988, -3329.4711505736295, -2383.4782699916686, -9663.754363507553, -142.6935366026803, 79.63926549425906, -5174.272379192398, -1889.4823657849272, -3866.4718111123816, -4919.171919723978, -3747.806399799156, -2774.0079491147935, -3187.1799453711446, -1990.4675472340045, -8402.110147727746, -15596.533190790797, 0.012, -0.11, 0.994, 192.0, 0.0, 0.0, 0.0, 0.0, 0.0, 0.0, 0.0, 0.0, 0.0, 1.645922865413137E9, 0.0, 2022-02-27 11:47:45.413
16.0, -681.3705779755805, -3147.304433262877, -2169.437965087648, -9437.688820086578, 81.71797772860262, 300.67566641279063, -4914.053370243713, -1508.698047244316, -1294.3001144290108, -4098.6617325141115, -3810.011304618276, -2647.6535377089426, -3298.6927984586714, -1974.351939481728, -8050.986594079327, -14572.64448078209, 0.012, -0.109, 0.993, 192.0, 0.0, 48.0, 126.0, 80.0, 15.5, 0.0, 0.0, 0.0, 0.0, 1.645922865427216E9, 0.0, 2022-02-27 11:47:45.427
18.0, -429.1534935418956, -2980.4933643929203, -2040.133123413697, -9279.304358876272, 293.76897737610074, 337.3995825528601, -4971.095022093657, -1631.5432347706837, -3160.849590402793, -4413.642515378298, -3547.9818043687114, -2646.4688952528113, -2997.503041923409, -1790.6429518035593, -8192.696653925974, -15090.579103300466, 0.012, -0.109, 0.993, 192.0, 0.0, 0.0, 0.0, 0.0, 0.0, 0.0, 0.0, 0.0, 0.0, 1.645922865434876E9, 0.0, 2022-02-27 11:47:45.434
20.0, -976.5700669968209, -3386.1998780011986, -2407.014656903107, -9710.737730352608, -207.82651994544506, 98.95117270364436, -5104.087901602734, -1760.0881171331546, -2603.710008109809, -4723.08006561757, -3934.39876251206, -2788.804803944207, -3407.0093520890896, -2138.257281572495, -8311.898507106127, -15261.480541405743, 0.012, -0.109, 0.993, 192.0, 0.0, 0.0, 0.0, 0.0, 0.0, 0.0, 0.0, 0.0, 0.0, 1.645922865442786E9, 0.0, 2022-02-27 11:47:45.442
22.0, -348.240178613684, -2902.441072754988, -1944.869988545178, -9177.559218115714, 373.58705682600225, 447.43722050633676, -4841.074924597136, -1421.0345054906018, -1713.7976543662137, -3981.2480188903833, -3589.824269989046, -2571.903475749907, -3074.683615527584, -1800.2765536637967, -8006.417215635445, -14525.169375559019, 0.012, -0.109, 0.993, 192.0, 0.0, 0.0, 0.0, 0.0, 0.0, 0.0, 0.0, 0.0, 0.0, 1.645922865450793E9, 0.0, 2022-02-27 11:47:45.450
24.0, -873.9755599469614, -3320.3739905803195, -2372.078880319462, -9649.605709267344, -136.43504815519432, 87.060044653421, -5170.651396590638, -1882.4192145370503, -3872.551485604225, -4907.504309118308, -3740.631489829003, -2769.224675801358, -3184.8553639477927, -1981.3480354962392, -8399.874973282216, -15588.911245931537, 0.012, -0.109, 0.993, 192.0, 0.0, 0.0, 0.0, 0.0, 0.0, 0.0, 0.0, 0.0, 0.0, 1.645922865457375E9, 0.0, 2022-02-27 11:47:45.457
26.0, -688.031397823262, -3155.976910111536, -2172.120174422285, -9449.378782436703, 71.23500957906361, 289.7680151186008, -4891.187535665934, -1527.92054747588, -1316.3165827174882, -4122.1981194255495, -3812.045313363709, -2648.9946423762613, -3307.164109607233, -1986.6901024210576, -8052.908844102484, -14587.955425733975, 0.013000000000000001, -0.1075, 0.9915, 192.0, 0.0, 56.0, 126.0, 88.0, 15.0, 120.0, 0.0, 0.0, 0.0, 1.645922865465477E9, 0.0, 2022-02-27 11:47:45.465
28.0, -434.5402639556246, -2984.9860650284368, -2037.8532454792555, -9278.276178631328, 290.03623605206445, 340.2382540986841, -4960.83557138867, -1620.724990454315, -3131.6135086552513, -4402.354884428369, -3543.667917688837, -2646.066563852616, -2999.9393820690375, -1792.3863878710733, -8183.823011377217, -15075.31286183749, 0.013000000000000001, -0.1075, 0.9915, 192.0, 0.0, 0.0, 0.0, 0.0, 0.0, 0.0, 0.0, 0.0, 0.0, 1.64592286547335E9, 0.0, 2022-02-27 11:47:45.473
30.0, -995.3231805948235, -3403.298962509509, -2416.625907018889, -9717.68912287821, -220.8799387073444, 93.89967845674497, -5109.29585806082, -1772.4486318169395, -2632.4096479904233, -4754.551321810642, -3949.2179690859284, -2805.099225652126, -3416.307677782497, -2136.580900738347, -8316.12298680818, -15267.157884497392, 0.013000000000000001, -0.1075, 0.9915, 192.0, 0.0, 0.0, 0.0, 0.0, 0.0, 0.0, 0.0, 0.0, 0.0, 1.645922865479372E9, 0.0, 2022-02-27 11:47:45.479
32.0, -379.5326208511139, -2925.86570094415, -1956.2470264729295, -9191.618465378102, 365.67453928882355, 439.47999948024744, -4821.248927265278, -1424.1190462254342, -1724.884119616046, -3982.1197369241404, -3606.923354497356, -2587.0132550016947, -3085.814784266327, -1799.8965740080566, -8004.450262123378, -14527.87393663811, 0.013000000000000001, -0.1075, 0.9915, 192.0, 0.0, 0.0, 0.0, 0.0, 0.0, 0.0, 0.0, 0.0, 0.0, 1.64592286548724E9, 0.0, 2022-02-27 11:47:45.487
34.0, -887.0960339422267, -3326.8559964723586, -2375.8339733879534, -9657.25000587106, -129.4836556295938, 74.3642538028066, -5174.339434425764, -1899.3394850897178, -3896.1325760045743, -4917.897870290026, -3749.8627602890447, -2786.815498687685, -3191.0915006508235, -2002.001047372943, -8397.729205814507, -15598.030757669301, 0.013000000000000001, -0.1075, 0.9915, 192.0, 0.0, 0.0, 0.0, 0.0, 0.0, 0.0, 0.0, 0.0, 0.0, 1.645922865494994E9, 0.0, 2022-02-27 11:47:45.494
36.0, -703.9234881309853, -3169.8573434182817, -2177.0599099469077, -9450.541073148379, 81.62857075078139, 291.04206455255326, -4896.484899101842, -1512.5425472906288, -1326.8889578448484, -4130.58002359629, -3824.8081594476894, -2653.9567296453392, -3312.2826590874984, -1982.2197535299963, -8050.584262679132, -14591.866981013654, 0.0145, -0.10675, 0.98875, 192.0, 0.0, 64.0, 126.0, 88.0, 15.0, 104.0, 0.0, 0.0, 0.0, 1.645922865503169E9, 0.0, 2022-02-27 11:47:45.503
38.0, -445.3138047830826, -2977.3864719136327, -2035.3051466113504, -9273.336443106704, 300.0945210569526, 352.8446379714773, -4958.913321365514, -1610.085560093589, -3147.4832472185194, -4414.067198522949, -3561.7057754642697, -2647.452372008845, -3008.6118589176967, -1784.3174081227075, -8181.967816587427, -15072.116562380383, 0.0145, -0.10675, 0.98875, 192.0, 0.0, 0.0, 0.0, 0.0, 0.0, 0.0, 0.0, 0.0, 0.0, 1.645922865509603E9, 0.0, 2022-02-27 11:47:45.509
40.0, -1010.8352912468066, -3409.5574509569947, -2417.1623488858163, -9719.544317668, -222.8245404749561, 100.35933260432871, -5112.894488918125, -1753.851980430124, -2698.3919976224897, -4771.359833641032, -3956.549341267269, -2808.0720076646817, -3420.9121371402907, -2131.261185557984, -8320.302763021322, -15278.445515447322, 0.0145, -0.10675, 0.98875, 192.0, 0.0, 0.0, 0.0, 0.0, 0.0, 0.0, 0.0, 0.0, 0.0, 1.645922865517797E9, 0.0, 2022-02-27 11:47:45.517
42.0, -393.90479253587637, -2943.277709874834, -1954.9282735500663, -9192.221962478396, 372.13419343640726, 452.1310868419513, -4824.735799400306, -1413.3231536535209, -1714.6693723999706, -3986.9924172153974, -3613.695933067314, -2585.4262811453677, -3094.688426815084, -1796.432053617484, -8002.304494655668, -14512.384177730582, 0.0145, -0.10675, 0.98875, 192.0, 0.0, 0.0, 0.0, 0.0, 0.0, 0.0, 0.0, 0.0, 0.0, 1.645922865525631E9, 0.0, 2022-02-27 11:47:45.525
44.0, -901.7364265604529, -3348.961871738657, -2369.5531331960124, -9652.466732557623, -118.33013514639559, 89.96577143261092, -5153.373498126686, -1883.4250430375391, -3921.010067583331, -4934.371105953587, -3748.9239870219217, -2786.256705076302, -3189.750395983505, -1976.3635964827058, -8391.157792944645, -15583.882103429092, 0.0145, -0.10675, 0.98875, 192.0, 0.0, 0.0, 0.0, 0.0, 0.0, 0.0, 0.0, 0.0, 0.0, 1.645922865532702E9, 0.0, 2022-02-27 11:47:45.532
46.0, -734.0536396567393, -3194.4219105746643, -2181.485555349059, -9457.581872651801, 74.25249508053007, 295.2218407656957, -4893.310951389188, -1499.220907595266, -1364.4398885297644, -4157.893855320675, -3836.8333979646445, -2671.2793315982026, -3323.7044005041603, -1989.6181809447028, -8051.970070835361, -14593.431603125526, 0.013250000000000001, -0.106375, 0.987375, 192.0, 0.0, 48.0, 126.0, 88.0, 15.0, 104.0, 0.0, 0.0, 0.0, 1.645922865547363E9, 0.0, 2022-02-27 11:47:45.547
48.0, -454.2545025652054, -3007.7848443728503, -2032.1982541320629, -9276.018652441342, 304.9895530926649, 346.34028033498294, -4943.378858969076, -1602.5753739566057, -3141.4482762155862, -4418.246974736092, -3562.6892522203034, -2660.5728460041105, -3013.6186496756854, -1792.8557745046348, -8177.989206074382, -15054.861015660885, 0.013250000000000001, -0.106375, 0.987375, 192.0, 0.0, 0.0, 0.0, 0.0, 0.0, 0.0, 0.0, 0.0, 0.0, 1.64592286555521E9, 0.0, 2022-02-27 11:47:45.555
50.0, -1041.4124776616666, -3448.225968864676, -2423.331430355481, -9734.698800408698, -217.88480495033323, 95.48665231307177, -5101.897430646113, -1766.7712887252915, -2723.4706549013445, -4797.131394998002, -3960.6173587581347, -2821.930089226972, -3420.9791923736566, -2138.704316461601, -8324.057856089814, -15288.50380045221, 0.013250000000000001, -0.106375, 0.987375, 192.0, 0.0, 0.0, 0.0, 0.0, 0.0, 0.0, 0.0, 0.0, 0.0, 1.645922865563302E9, 0.0, 2022-02-27 11:47:45.563
52.0, -430.27108076466095, -2983.2873324498337, -1958.10222126272, -9206.258857996329, 373.22942891471735, 445.9396536278312, -4811.548270171675, -1427.315345682543, -1722.0230963257668, -4012.741626827911, -3627.8222355630683, -2609.2532407347253, -3091.7827000358943, -1807.496167122861, -8002.952695244872, -14516.92158185501, 0.013250000000000001, -0.106375, 0.987375, 192.0, 0.0, 0.0, 0.0, 0.0, 0.0, 0.0, 0.0, 0.0, 0.0, 1.645922865570488E9, 0.0, 2022-02-27 11:47:45.570
54.0, -948.9656625945166, -3398.001599073601, -2372.4812117196575, -9664.447267585667, -116.51964384551572, 91.23982086656343, -5145.371573611686, -1863.3755282611287, -3942.6912597049786, -4961.751992911339, -3761.9774057838213, -2805.836833219151, -3184.7659569699717, -1981.8174221298007, -8390.084909210791, -15591.459344799441, 0.013250000000000001, -0.106375, 0.987375, 192.0, 0.0, 0.0, 0.0, 0.0, 0.0, 0.0, 0.0, 0.0, 0.0, 1.645922865578028E9, 0.0, 2022-02-27 11:47:45.578
56.0, -810.608364416166, -3279.582056949384, -2190.3368461533605, -9472.244617014483, 81.69562598414731, 303.00024783614253, -4894.830870012149, -1495.3987592934084, -1389.384435341887, -4194.796585416387, -3858.3581278751053, -2693.9887039647942, -3322.899737703769, -1997.4412915040602, -8051.21011152388, -14599.55598110628, 0.012625, -0.10718749999999999, 0.9896875, 192.0, 0.0, 48.0, 126.0, 80.0, 15.5, 0.0, 0.0, 0.0, 0.0, 1.645922865585327E9, 0.0, 2022-02-27 11:47:45.585
58.0, -560.5593991946458, -3106.0878164872906, -2035.9980506894651, -9275.057527429763, 328.7718091931116, 380.02435922913065, -4939.333193222666, -1572.6463881309496, -3146.298604762388, -4445.1584750602815, -3583.476374563739, -2683.349273604068, -3000.0958442802244, -1787.267838390808, -8168.489714680877, -15040.98058235414, 0.012625, -0.10718749999999999, 0.9896875, 192.0, 0.0, 0.0, 0.0, 0.0, 0.0, 0.0, 0.0, 0.0, 0.0, 1.645922865593381E9, 0.0, 2022-02-27 11:47:45.593
60.0, -1188.777528855506, -3582.47054606325, -2437.725953784699, -9742.052524334495, -203.62439198784733, 110.21645190911913, -5081.467936213963, -1758.590550254649, -2814.531661812265, -4838.102142584579, -3992.1556701845734, -2847.344022672656, -3412.3067155249973, -2128.1989965676066, -8323.700228178528, -15293.823515632574, 0.012625, -0.10718749999999999, 0.9896875, 192.0, 0.0, 0.0, 0.0, 0.0, 0.0, 0.0, 0.0, 0.0, 0.0, 1.645922865600342E9, 0.0, 2022-02-27 11:47:45.600
62.0, -620.0373911902179, -3150.0984013197904, -1978.48701220596, -9220.027532580798, 390.4626238897591, 456.0202903771747, -4775.360795898533, -1390.4573190757417, -1753.3378903076518, -4043.5646824317796, -3675.274989041685, -2644.770162674208, -3094.107281459246, -1808.1443677120649, -7987.82056424863, -14502.527058425792, 0.012625, -0.10718749999999999, 0.9896875, 192.0, 0.0, 0.0, 0.0, 0.0, 0.0, 0.0, 0.0, 0.0, 0.0, 1.645922865606755E9, 0.0, 2022-02-27 11:47:45.606
64.0, -1124.6056705243195, -3560.7893539416023, -2377.75622341111, -9657.00413668205, -84.57900101888193, 112.9657164771219, -5131.1111606491995, -1839.5485686717714, -4017.2343274634277, -4992.9326764264915, -3810.2124703183736, -2846.9193395280054, -3180.362663312276, -1972.8543726032226, -8378.283188138388, -15574.2261498244, 0.012625, -0.10718749999999999, 0.9896875, 192.0, 0.0, 0.0, 0.0, 0.0, 0.0, 0.0, 0.0, 0.0, 0.0, 1.645922865614909E9, 0.0, 2022-02-27 11:47:45.614
66.0, -992.0598259043487, -3437.899462926324, -2214.990820287564, -9491.78004166842, 74.18543984716415, 295.6241721658912, -4901.603448582107, -1500.5620122625844, -1479.707834685783, -4249.491304098524, -3911.1753000229955, -2738.356916708579, -3328.8900052177914, -2002.0457508618535, -8057.200379037903, -14615.626885369646, 0.013312500000000001, -0.10659374999999999, 0.99184375, 192.0, 0.0, 56.0, 126.0, 88.0, 15.5, 8.0, 0.0, 0.0, 0.0, 1.645922865623247E9, 0.0, 2022-02-27 11:47:45.623
68.0, -673.3910052050359, -3211.230422405055, -2041.45187633656, -9280.377242610126, 329.93409990478756, 374.19055392629554, -4911.594678353629, -1569.4277369293854, -3161.274273547444, -4458.278949055547, -3618.6580203363924, -2710.5960500950873, -3002.6215914036743, -1767.5759515256825, -8161.538322155277, -15020.439329199711, 0.013312500000000001, -0.10659374999999999, 0.99184375, 192.0, 0.0, 0.0, 0.0, 0.0, 0.0, 0.0, 0.0, 0.0, 0.0, 1.645922865629996E9, 0.0, 2022-02-27 11:47:45.629
70.0, -1246.556788272475, -3645.1671892603863, -2442.2186544202154, -9749.339193026924, -212.47568279214894, 99.48761457057174, -5079.4562792129855, -1766.0560329027217, -2855.0777262541924, -4871.965035434369, -4015.9602780294754, -2883.509145201343, -3418.4981487391174, -2141.6323949852463, -8316.994704841936, -15302.473640736776, 0.013312500000000001, -0.10659374999999999, 0.99184375, 192.0, 0.0, 0.0, 0.0, 0.0, 0.0, 0.0, 0.0, 0.0, 0.0, 1.645922865637537E9, 0.0, 2022-02-27 11:47:45.637
72.0, -604.0335421602181, -3144.5775204393294, -1979.1128610507085, -9214.618410422612, 377.4762603612257, 461.4070607909037, -4802.249944478267, -1390.993760942669, -1757.9647014099005, -4047.8785691116536, -3674.559733219115, -2642.646746950954, -3097.1247669607123, -1812.1453299695647, -7987.529991570711, -14499.06253803522, 0.013312500000000001, -0.10659374999999999, 0.99184375, 192.0, 0.0, 0.0, 0.0, 0.0, 0.0, 0.0, 0.0, 0.0, 0.0, 1.64592286564556E9, 0.0, 2022-02-27 11:47:45.645
74.0, -1058.690376125619, -3505.446434670262, -2378.3820722558585, -9655.57362503691, -96.80540523593488, 118.0395624684766, -5136.699096763026, -1860.2909875262962, -3992.736815540411, -4977.12999309659, -3787.7042636518795, -2827.2945078962457, -3170.080860862835, -1970.1498115241304, -8378.03731894938, -15567.230053809888, 0.013312500000000001, -0.10659374999999999, 0.99184375, 192.0, 0.0, 0.0, 0.0, 0.0, 0.0, 0.0, 0.0, 0.0, 0.0, 1.645922865652664E9, 0.0, 2022-02-27 11:47:45.652
76.0, -894.4274061235674, -3355.779153797526, -2208.374703928793, -9485.409794498659, 65.78118393196868, 308.3870182498715, -4883.945570462414, -1505.1664716203777, -1438.0888865100012, -4216.634239749222, -3892.042206769253, -2711.601878595576, -3326.2748511165205, -1993.5073844799263, -8055.568701692665, -14609.077824244241, 0.01265625, -0.104296875, 0.9899218750000001, 192.0, 0.0, 48.0, 126.0, 104.0, 15.0, 112.0, 0.0, 0.0, 0.0, 1.645922865660144E9, 0.0, 2022-02-27 11:47:45.660
78.0, -583.8946204059864, -3133.5134069339524, -2040.8930827251772, -9280.936036221508, 324.27910855759484, 378.72795805072286, -4922.099998247623, -1575.9767980547904, -3138.497845947486, -4442.968004103662, -3606.5880783305265, -2698.77197727823, -3005.4826146939536, -1792.9675332269114, -8165.204008245946, -15031.324628749446, 0.01265625, -0.104296875, 0.9899218750000001, 192.0, 0.0, 0.0, 0.0, 0.0, 0.0, 0.0, 0.0, 0.0, 0.0, 1.645922865675171E9, 0.0, 2022-02-27 11:47:45.675
80.0, -1156.5910168398639, -3558.3530137959738, -2449.2594539236375, -9753.094286095416, -223.31627885297286, 98.61589653681476, -5099.774014922859, -1770.884009705068, -2882.6597789120415, -4856.363517804565, -3995.2178591749503, -2862.342043202167, -3413.9830963591453, -2137.8773019167547, -8331.657449204618, -15330.50272828373, 0.01265625, -0.104296875, 0.9899218750000001, 192.0, 0.0, 0.0, 0.0, 0.0, 0.0, 0.0, 0.0, 0.0, 0.0, 1.6459228656823E9, 0.0, 2022-02-27 11:47:45.682
82.0, -512.3243346600932, -3057.696289741551, -1976.29654124934, -9213.59023017767, 372.60358006996876, 460.8035636906104, -4803.5686974011305, -1403.5330895820964, -1683.756909818281, -4017.390789674615, -3663.115640057998, -2625.8605868650184, -3103.0926827302796, -1814.648725348559, -7992.223857906325, -14493.787526343767, 0.01265625, -0.104296875, 0.9899218750000001, 192.0, 0.0, 0.0, 0.0, 0.0, 0.0, 0.0, 0.0, 0.0, 0.0, 1.645922865689733E9, 0.0, 2022-02-27 11:47:45.689
84.0, -956.2746830314021, -3412.373770758363, -2360.9700633251746, -9636.038200382973, -88.2670388540076, 126.01913523902122, -5154.245216160442, -1845.0470978077767, -3955.6329197446016, -4940.137856023056, -3753.5731498686255, -2802.8193477176846, -3160.357852024776, -1968.361671967706, -8381.837115506783, -15563.385553763575, 0.01265625, -0.104296875, 0.9899218750000001, 192.0, 0.0, 0.0, 0.0, 0.0, 0.0, 0.0, 0.0, 0.0, 0.0, 1.645922865697874E9, 0.0, 2022-02-27 11:47:45.697
86.0, -831.1496175705931, -3289.6626936987277, -2211.6604103637233, -9491.914152135152, 48.30211976791856, 296.697055899746, -4906.2079079399, -1523.316088118087, -1438.737087099205, -4218.020047905451, -3864.2142849223956, -2696.9167824884394, -3326.967755194635, -2012.5734225003032, -8067.482181487344, -14630.267277987872, 0.014, -0.10400000000000001, 0.986, 192.0, 0.0, 56.0, 126.0, 96.0, 15.0, 104.0, 0.0, 0.0, 0.0, 1.645922865705869E9, 0.0, 2022-02-27 11:47:45.705
88.0, -500.6567240544229, -3051.862484438716, -2020.5529952708478, -9261.26650110084, 342.4957802886701, 387.93687676630935, -4907.5266608627635, -1583.084652791578, -3050.722545471495, -4398.353922170869, -3563.6950807207922, -2666.4737065403115, -2987.6235708741633, -1787.2007831574422, -8147.479074892888, -15000.993311523594, 0.014, -0.10400000000000001, 0.986, 192.0, 0.0, 0.0, 0.0, 0.0, 0.0, 0.0, 0.0, 0.0, 0.0, 1.645922865712438E9, 0.0, 2022-02-27 11:47:45.712
90.0, -1106.366647048789, -3510.40852193934, -2438.5976718184556, -9745.092361580415, -219.20355787319636, 102.77332100550187, -5089.358102006687, -1763.4185270569953, -2860.2409792233684, -4844.830017665627, -3968.6863385065008, -2841.666679581008, -3404.237735776632, -2140.023069384464, -8325.55542296832, -15319.908001411915, 0.014, -0.10400000000000001, 0.986, 192.0, 0.0, 0.0, 0.0, 0.0, 0.0, 0.0, 0.0, 0.0, 0.0, 1.645922865720369E9, 0.0, 2022-02-27 11:47:45.720
92.0, -486.64218028094535, -3029.9130713836043, -1975.1789540265745, -9215.132500545085, 358.1643531518404, 451.1252583414624, -4802.138185755991, -1413.4572641202528, -1684.5392208742169, -4012.004019260886, -3650.1292765294647, -2618.775083872686, -3099.047016983869, -1823.6341266195927, -7984.713671769342, -14492.804049587734, 0.014, -0.10400000000000001, 0.986, 192.0, 0.0, 0.0, 0.0, 0.0, 0.0, 0.0, 0.0, 0.0, 0.0, 1.645922865727486E9, 0.0, 2022-02-27 11:47:45.727
94.0, -924.1105227602152, -3378.28736046402, -2355.113906277884, -9634.71944746011, -88.6246667652925, 122.01817298152126, -5148.791390513348, -1857.5417229582933, -3965.065355904741, -4937.746219366339, -3747.3593649100503, -2802.6181820175866, -3152.847665887793, -1968.2722649898847, -8374.014004947425, -15566.201873564945, 0.014, -0.10400000000000001, 0.986, 192.0, 0.0, 0.0, 0.0, 0.0, 0.0, 0.0, 0.0, 0.0, 0.0, 1.645922865735545E9, 0.0, 2022-02-27 11:47:45.735
96.0, -794.4704049194343, -3256.939739816158, -2203.300857937438, -9489.701329434078, 54.538256470949236, 307.9176316163101, -4898.92123924747, -1517.057599670601, -1425.7283718262163, -4212.432111791624, -3857.1287819300633, -2693.4969655867776, -3317.557670778951, -2011.5005387664485, -8061.134286062037, -14627.093330275218, 0.014, -0.11, 0.986, 192.0, 0.0, 56.0, 126.0, 72.0, 15.0, 104.0, 0.0, 0.0, 0.0, 1.645922865742078E9, 0.0, 2022-02-27 11:47:45.742
98.0, -449.7394501852334, -3000.2970099803224, -2009.1312538541858, -9250.716477717933, 350.7659257371337, 392.3401704240049, -4915.148605722023, -1572.1322980084776, -3027.9237661270818, -4382.528887096511, -3551.736897437203, -2655.3425378015686, -2982.214448715979, -1789.9947512143556, -8146.294432436756, -14998.758137078064, 0.014, -0.11, 0.986, 192.0, 0.0, 0.0, 0.0, 0.0, 0.0, 0.0, 0.0, 0.0, 0.0, 1.645922865749966E9, 0.0, 2022-02-27 11:47:45.749
100.0, -1053.3706609452558, -3459.7147655147037, -2430.551043814545, -9736.866919620863, -217.9965636726098, 103.93561171717784, -5102.389169024131, -1784.7420912673583, -2878.971741076916, -4826.14395930099, -3941.171341082018, -2811.93885945545, -3388.4574041911847, -2137.6761362166567, -8331.433931760064, -15338.303487098634, 0.014, -0.11, 0.986, 192.0, 0.0, 0.0, 0.0, 0.0, 0.0, 0.0, 0.0, 0.0, 0.0, 1.645922865758172E9, 0.0, 2022-02-27 11:47:45.758
102.0, -442.0951535815184, -2982.885001049638, -1966.4841254334601, -9208.8740120976, 361.49476307568113, 462.0329096356523, -4810.318924226633, -1418.1064269669566, -1629.1963016028765, -3973.424908331026, -3621.697857582314, -2590.3213131810803, -3088.139365689679, -1829.333821455696, -7990.547477072178, -14488.53486639677, 0.014, -0.11, 0.986, 192.0, 0.0, 0.0, 0.0, 0.0, 0.0, 0.0, 0.0, 0.0, 0.0, 1.645922865764703E9, 0.0, 2022-02-27 11:47:45.764
104.0, -870.8910192121291, -3336.7354675216043, -2329.655269343289, -9615.049912339438, -69.0221868779882, 134.1998737096636, -5151.250082403431, -1861.1850573045085, -3939.651422459057, -4911.013532997791, -3716.4245505839053, -2772.510382236288, -3140.911834348659, -1961.7902590978456, -8381.188914917579, -15559.138722317068, 0.014, -0.11, 0.986, 192.0, 0.0, 0.0, 0.0, 0.0, 0.0, 0.0, 0.0, 0.0, 0.0, 1.645922865773157E9, 0.0, 2022-02-27 11:47:45.773
106.0, -793.4198729300348, -3257.520885171996, -2207.793558572955, -9505.146384852695, 32.99117481603322, 281.6990353702349, -4930.995992540836, -1549.8476087865365, -1450.896436082892, -4225.060847408873, -3853.2842818837503, -2686.456166083356, -3327.191272639188, -2026.9902976739763, -8079.708585704397, -14656.687039934044, 0.01, -0.10200000000000001, 0.99, 192.0, 0.0, 40.0, 126.0, 104.0, 15.0, 120.0, 0.0, 0.0, 0.0, 1.645922865780713E9, 0.0, 2022-02-27 11:47:45.780
108.0, -438.7423919132223, -2998.0394837903364, -2003.6327247181805, -9244.54739624827, 326.73780044767864, 390.9767140122311, -4950.5537689392295, -1590.594838928561, -2983.1085184941912, -4355.595035027866, -3550.5522549810717, -2645.3289562855907, -2990.439890675532, -1791.6487803040482, -8148.239034204368, -14980.63087232481, 0.01, -0.10200000000000001, 0.99, 192.0, 0.0, 0.0, 0.0, 0.0, 0.0, 0.0, 0.0, 0.0, 0.0, 1.645922865794407E9, 0.0, 2022-02-27 11:47:45.794
110.0, -1046.6651376086638, -3457.5913497914494, -2432.3838868598805, -9741.963117356672, -237.57669181545876, 98.86176572582313, -5125.836148957747, -1797.2143646734196, -2890.3264272602114, -4843.980651376325, -3945.038192872786, -2818.8231967476845, -3400.1697182857656, -2143.7781624529557, -8345.068495877802, -15345.456045324332, 0.01, -0.10200000000000001, 0.99, 192.0, 0.0, 0.0, 0.0, 0.0, 0.0, 0.0, 0.0, 0.0, 0.0, 1.64592286580229E9, 0.0, 2022-02-27 11:47:45.802
112.0, -424.2584615061834, -2973.765489311873, -1964.7853928548568, -9213.67963715549, 354.36455659443817, 456.2438078217278, -4823.774674388727, -1427.8517875494704, -1616.925193896913, -3987.908838738065, -3622.0107820046883, -2591.684769592854, -3097.0353599828914, -1827.299812710263, -7991.173325916926, -14486.43380241797, 0.01, -0.10200000000000001, 0.99, 192.0, 0.0, 0.0, 0.0, 0.0, 0.0, 0.0, 0.0, 0.0, 0.0, 1.645922865810448E9, 0.0, 2022-02-27 11:47:45.810
114.0, -856.8541236941962, -3315.8365864558923, -2337.6795456027444, -9621.643676953754, -87.52943128698246, 137.17265572221945, -5167.142172711155, -1860.1568770595643, -3924.295774018261, -4899.211811925389, -3705.9639341788215, -2765.648396688509, -3135.3909534681984, -1948.2227502134742, -8371.152981657146, -15554.713076914917, 0.01, -0.10200000000000001, 0.99, 192.0, 0.0, 0.0, 0.0, 0.0, 0.0, 0.0, 0.0, 0.0, 0.0, 1.645922865817595E9, 0.0, 2022-02-27 11:47:45.817
116.0, -765.256674916348, -3223.9485650001247, -2205.379570171782, -9490.371881767736, 27.62675614675953, 290.2821052410728, -4950.464361961408, -1545.5337221066623, -1413.2113949312443, -4202.709102953566, -3849.7974097487227, -2671.905180442951, -3325.425484827219, -2014.3168585678172, -8075.0817746021485, -14642.068999060273, 0.016, -0.1, 0.986, 192.0, 0.0, 64.0, 126.0, 112.0, 15.0, 104.0, 0.0, 0.0, 0.0, 1.645922865825105E9, 0.0, 2022-02-27 11:47:45.825
118.0, -419.721057381756, -2974.212524200979, -2002.9398206400658, -9243.340402047683, 337.22076859721767, 390.529679123125, -4945.1669985255, -1598.6414669324718, -2980.3592539261886, -4359.618349029822, -3553.4579817602616, -2638.265805037714, -2993.21150698799, -1777.6118847861153, -8153.80461857374, -14990.06330848495, 0.016, -0.1, 0.986, 192.0, 0.0, 0.0, 0.0, 0.0, 0.0, 0.0, 0.0, 0.0, 0.0, 1.645922865833116E9, 0.0, 2022-02-27 11:47:45.833
120.0, -1034.4834368805214, -3434.859625680402, -2433.657936293833, -9739.727942911142, -236.30264238150627, 91.32922784438466, -5137.0343729298565, -1801.5729548422046, -2907.984305379904, -4839.599709463085, -3943.518274249825, -2812.184728644458, -3395.408796716785, -2137.4302670276484, -8346.208434845023, -15362.689240299374, 0.016, -0.1, 0.986, 192.0, 0.0, 0.0, 0.0, 0.0, 0.0, 0.0, 0.0, 0.0, 0.0, 1.645922865841062E9, 0.0, 2022-02-27 11:47:45.841
122.0, -411.69678112230076, -2952.1960559125014, -1967.6240644006807, -9211.288000498773, 344.5074372896478, 452.73458394224457, -4833.788255904706, -1417.7487990556717, -1591.1312807954885, -3966.942902438987, -3620.602622104004, -2575.815031029586, -3094.2860954148887, -1823.947051041967, -7989.787517760697, -14482.119915738096, 0.016, -0.1, 0.986, 192.0, 0.0, 0.0, 0.0, 0.0, 0.0, 0.0, 0.0, 0.0, 0.0, 1.645922865847229E9, 0.0, 2022-02-27 11:47:45.847
124.0, -835.8881873951182, -3293.3730832783085, -2334.237376956627, -9610.08782507036, -80.84625969484564, 133.32815567590663, -5174.473544892496, -1860.9391881155002, -3911.8235006121995, -4881.330416361144, -3696.8667741855115, -2749.778658125241, -3129.624203398729, -1949.9885380254434, -8375.019833447914, -15550.533300701774, 0.016, -0.1, 0.986, 192.0, 0.0, 0.0, 0.0, 0.0, 0.0, 0.0, 0.0, 0.0, 0.0, 1.645922865854601E9, 0.0, 2022-02-27 11:47:45.854
126.0, -754.1478579220603, -3209.464634593086, -2210.8110440744217, -9491.444765501592, 29.23608174754164, 289.96918081869853, -4935.846321087637, -1551.8369140430586, -1415.6700868213281, -4187.375806257225, -3846.042316680231, -2663.6350349944873, -3325.1796156382106, -2012.4616637780266, -8078.658053714998, -14648.103970063206, 0.016, -0.10200000000000001, 0.988, 192.0, 0.0, 64.0, 126.0, 104.0, 15.0, 112.0, 0.0, 0.0, 0.0, 1.645922865862715E9, 0.0, 2022-02-27 11:47:45.862
128.0, -394.86591754745456, -2948.664480288563, -1995.0943583362532, -9230.801073408255, 338.20424535325117, 394.12830998042944, -4945.770495625794, -1582.7270248802931, -2938.472084816943, -4340.060572631428, -3539.085810075499, -2626.0841043095716, -2984.49432665042, -1779.7353005093696, -8146.696763836952, -14975.937005989195, 0.016, -0.10200000000000001, 0.988, 192.0, 0.0, 0.0, 0.0, 0.0, 0.0, 0.0, 0.0, 0.0, 0.0, 1.645922865870706E9, 0.0, 2022-02-27 11:47:45.870
130.0, -1018.9266227396278, -3418.632259205849, -2431.2886513815706, -9735.59287018691, -238.56016857149228, 96.71599825811366, -5133.569852539284, -1803.0258182317996, -2918.601383996175, -4834.950546616381, -3932.0294775997972, -2803.0428651622374, -3388.636218146827, -2148.315566577383, -8345.962565656015, -15368.65715606894, 0.016, -0.10200000000000001, 0.988, 192.0, 0.0, 0.0, 0.0, 0.0, 0.0, 0.0, 0.0, 0.0, 0.0, 1.645922865877174E9, 0.0, 2022-02-27 11:47:45.877
132.0, -402.71137985126734, -2943.1659511525577, -1964.9865585549544, -9209.164584775519, 345.8485419569662, 456.5343804996468, -4834.257642538267, -1427.5835666160067, -1566.4549549168296, -3963.701899492967, -3619.6862005813364, -2576.2173624297816, -3094.978999493003, -1819.4096469175397, -7982.143221156982, -14476.129648224074, 0.016, -0.10200000000000001, 0.988, 192.0, 0.0, 0.0, 0.0, 0.0, 0.0, 0.0, 0.0, 0.0, 0.0, 1.645922865885303E9, 0.0, 2022-02-27 11:47:45.885
134.0, -814.028181317828, -3280.230257538588, -2320.8710337723537, -9602.488231955556, -67.92695139967816, 140.72658309061327, -5167.142172711155, -1873.8137929217569, -3900.7370353623674, -4870.91450344497, -3690.2506578267407, -2748.8845883470285, -3125.2209097410337, -1942.0089652548988, -8369.32013861181, -15547.046428566746, 0.016, -0.10200000000000001, 0.988, 192.0, 0.0, 0.0, 0.0, 0.0, 0.0, 0.0, 0.0, 0.0, 0.0, 1.645922865893334E9, 0.0, 2022-02-27 11:47:45.893
136.0, -754.3713753666134, -3212.9515067281136, -2212.666238864212, -9499.178469083128, 14.327468195851827, 278.97212254668744, -4944.429390958476, -1558.9447687798463, -1420.3639531569427, -4214.108492625773, -3847.0928486696303, -2668.5300670301995, -3327.191272639188, -2022.9222801831104, -8078.903922904006, -14662.386734770149, 0.01, -0.11, 0.988, 192.0, 0.0, 40.0, 126.0, 72.0, 15.0, 112.0, 0.0, 0.0, 0.0, 1.645922865900021E9, 0.0, 2022-02-27 11:47:45.900
138.0, -399.89506004989863, -2955.6158728141636, -1996.0778350922867, -9233.438579253982, 330.4705417717149, 391.5131558791585, -4946.128123537079, -1586.8397458600696, -2911.962915892949, -4335.903148162741, -3546.0372026010996, -2630.6662119229095, -2991.1774982425572, -1794.0851204496767, -8141.377048656589, -14964.649375039266, 0.01, -0.11, 0.988, 192.0, 0.0, 0.0, 0.0, 0.0, 0.0, 0.0, 0.0, 0.0, 0.0, 1.645922865907904E9, 0.0, 2022-02-27 11:47:45.907
140.0, -1028.6049280887758, -3428.5340819995504, -2438.6200235629112, -9747.26048079258, -244.2598634075956, 88.2893905984629, -5148.322003879786, -1813.0170480033219, -2955.4594106029763, -4851.401430535488, -3943.3618120386377, -2816.0515804352262, -3393.0171600600675, -2141.095953118319, -8354.903263438138, -15378.648385840463, 0.01, -0.11, 0.988, 192.0, 0.0, 0.0, 0.0, 0.0, 0.0, 0.0, 0.0, 0.0, 0.0, 1.645922865922978E9, 0.0, 2022-02-27 11:47:45.922
142.0, -412.6802578783343, -2950.944358223004, -1970.0157010573985, -9220.631029681092, 347.3014053465611, 455.79677293262165, -4829.183796546912, -1425.191929959289, -1553.0439082436453, -3967.613454772646, -3632.493750154227, -2590.075443992072, -3096.3871593936874, -1830.3396499561848, -7984.959540958351, -14475.34733716814, 0.01, -0.11, 0.988, 192.0, 0.0, 0.0, 0.0, 0.0, 0.0, 0.0, 0.0, 0.0, 0.0, 1.645922865929638E9, 0.0, 2022-02-27 11:47:45.929
144.0, -806.4732916919342, -3265.6792718981833, -2312.7126470461667, -9594.106327784817, -54.895884382234144, 151.45542042916065, -5146.645623045638, -1868.1588015745642, -3900.1558900065293, -4867.360576076577, -3691.0329688826764, -2750.7621348812745, -3112.301601445866, -1935.5940145962256, -8361.742897241462, -15537.79280636225, 0.01, -0.11, 0.988, 192.0, 0.0, 0.0, 0.0, 0.0, 0.0, 0.0, 0.0, 0.0, 0.0, 1.645922865937542E9, 0.0, 2022-02-27 11:47:45.937
146.0, -760.7639742808312, -3213.7338177840493, -2213.1356254977736, -9503.06767261835, 21.167101999175788, 284.3365412159611, -4933.789960597749, -1553.088611732556, -1431.7633428291492, -4213.057960636373, -3851.2279213938623, -2663.970311161317, -3321.580984780906, -2017.06612313582, -8076.64639671402, -14667.058249361307, 0.012, -0.112, 0.988, 192.0, 0.0, 48.0, 126.0, 64.0, 15.0, 112.0, 0.0, 0.0, 0.0, 1.645922865945672E9, 0.0, 2022-02-27 11:47:45.945
148.0, -383.6006383419798, -2942.785971496817, -1981.325683751784, -9227.023628595309, 354.7445362501784, 404.58892638551316, -4926.235070971856, -1569.6959578628491, -2882.3692062341224, -4311.785615895465, -3541.723315921225, -2620.9432030848507, -2985.4554516619983, -1783.266876133308, -8133.509234608321, -14945.203357363149, 0.012, -0.112, 0.988, 192.0, 0.0, 0.0, 0.0, 0.0, 0.0, 0.0, 0.0, 0.0, 0.0, 1.645922865953554E9, 0.0, 2022-02-27 11:47:45.953
150.0, -1016.3785238717228, -3421.3591720293966, -2425.678363523288, -9745.941727869716, -231.45231383470463, 87.97646617608859, -5141.102390420722, -1816.0345335047882, -2978.5487626253084, -4851.177913090934, -3923.915794362521, -2808.764911742796, -3376.0745377629446, -2131.305889046894, -8351.192873858556, -15387.298510944667, 0.012, -0.112, 0.988, 192.0, 0.0, 0.0, 0.0, 0.0, 0.0, 0.0, 0.0, 0.0, 0.0, 1.645922865960232E9, 0.0, 2022-02-27 11:47:45.960
152.0, -415.78715035762195, -2953.604215813186, -1970.6862533910578, -9221.905079115044, 336.6396232413797, 451.2817205526496, -4834.034125093714, -1417.5699851000293, -1523.7407712627378, -3952.1236958651184, -3630.1691687308753, -2583.325217166569, -3099.5834588507964, -1837.0228215483216, -7983.2161048908365, -14468.686517320457, 0.012, -0.112, 0.988, 192.0, 0.0, 0.0, 0.0, 0.0, 0.0, 0.0, 0.0, 0.0, 0.0, 1.645922865968177E9, 0.0, 2022-02-27 11:47:45.968
154.0, -800.0806927777163, -3268.115612043812, -2306.0965306873954, -9587.266693981492, -44.14469529923145, 150.0472605284763, -5142.890529977147, -1855.686528168503, -3904.358017964127, -4860.923273673448, -3692.7093497168244, -2751.4997424482995, -3118.8059590823605, -1945.6075961122033, -8360.915882696616, -15529.567364402696, 0.012, -0.112, 0.988, 192.0, 0.0, 0.0, 0.0, 0.0, 0.0, 0.0, 0.0, 0.0, 0.0, 1.645922865975349E9, 0.0, 2022-02-27 11:47:45.975
156.0, -780.545268123778, -3229.8494255363257, -2224.8479395923546, -9519.943239682108, 3.129244223742989, 270.9701980316875, -4954.93471085247, -1563.1245449929888, -1479.1043375854895, -4250.228911665548, -3864.5272093447697, -2679.5941805355765, -3336.489598332596, -2040.2672338804286, -8086.391757296534, -14689.387642072159, 0.012, -0.114, 0.984, 192.0, 0.0, 48.0, 126.0, 56.0, 15.0, 96.0, 0.0, 0.0, 0.0, 1.645922865982489E9, 0.0, 2022-02-27 11:47:45.982
158.0, -378.39268188389326, -2932.3253550917334, -1976.2741895048846, -9224.6766954275, 354.4092600833488, 405.59475488600197, -4934.7063821204165, -1571.0147107857122, -2845.2429586938574, -4286.997531294529, -3540.1810455538093, -2622.9548600858284, -2983.913181294582, -1793.4145681160176, -8127.094283949648, -14925.869098409308, 0.012, -0.114, 0.984, 192.0, 0.0, 0.0, 0.0, 0.0, 0.0, 0.0, 0.0, 0.0, 0.0, 1.645922865989835E9, 0.0, 2022-02-27 11:47:45.989
160.0, -1017.853739005773, -3419.77219817307, -2430.260471136626, -9738.811521388474, -244.48338085214866, 92.67033251170308, -5164.817591287803, -1812.525309625305, -2985.2542859619007, -4856.788200949216, -3926.1509688080514, -2806.440330319444, -3380.164906998266, -2139.441924028626, -8354.098600637746, -15384.90687428795, 0.012, -0.114, 0.984, 192.0, 0.0, 0.0, 0.0, 0.0, 0.0, 0.0, 0.0, 0.0, 0.0, 1.645922865997764E9, 0.0, 2022-02-27 11:47:45.997
162.0, -419.27402249264986, -2954.5206373358533, -1970.5297911798707, -9217.434730223982, 324.4132190243267, 450.4323542633479, -4830.189625047401, -1430.3998864173755, -1523.6513642849166, -3961.5561320252577, -3630.303279197607, -2580.4418421318346, -3105.037284497891, -1835.0782197807098, -7986.546514814677, -14458.091790448641, 0.012, -0.114, 0.984, 192.0, 0.0, 0.0, 0.0, 0.0, 0.0, 0.0, 0.0, 0.0, 0.0, 1.645922866005078E9, 0.0, 2022-02-27 11:47:46.005
164.0, -807.345009725691, -3269.9037516002363, -2309.6728098002445, -9587.065528281395, -66.94347464364465, 142.96175753614398, -5145.706849778516, -1859.240455536897, -3904.9838668088755, -4860.029203895236, -3686.2273438247853, -2751.902073848495, -3120.974078294525, -1942.5230553773708, -8356.13260938318, -15526.751044601328, 0.009000000000000001, -0.113, 0.987, 192.0, 0.0, 24.0, 126.0, 64.0, 15.0, 120.0, 0.0, 0.0, 0.0, 1.6459228660124E9, 0.0, 2022-02-27 11:47:46.012
166.0, -777.0807477332054, -3226.9436987571357, -2217.293049966461, -9508.096815120794, 3.3751134127513667, 274.6582358668132, -4951.73841139536, -1559.6823763468715, -1468.1072793134786, -4248.217254664571, -3862.8731802550774, -2685.159764904948, -3345.7879240260036, -2036.6686030231242, -8085.162411351492, -14677.921197166586, 0.009000000000000001, -0.113, 0.987, 192.0, 0.0, 0.0, 0.0, 0.0, 0.0, 0.0, 0.0, 0.0, 0.0, 1.645922866020408E9, 0.0, 2022-02-27 11:47:46.020
168.0, -375.95634173826477, -2934.761695237362, -1972.072061547287, -9218.418206980015, 345.5132657901366, 407.9416880538092, -4920.647134858029, -1559.2576932022207, -2851.7473163303516, -4310.71273216161, -3541.5445019655826, -2624.675944408887, -2988.472937163465, -1786.0831959346767, -8127.407208372022, -14928.081921110383, 0.009000000000000001, -0.113, 0.987, 192.0, 0.0, 0.0, 0.0, 0.0, 0.0, 0.0, 0.0, 0.0, 0.0, 1.645922866028538E9, 0.0, 2022-02-27 11:47:46.028
170.0, -1018.3901808727004, -3417.894651638824, -2428.4052763468358, -9743.68420167973, -255.34632865742788, 86.16597487520873, -5142.510550321406, -1821.5330626407938, -3034.0928475967467, -4871.6074075230845, -3921.3453437501603, -2810.664810021497, -3376.901552307791, -2133.876339659255, -8357.831341961783, -15403.14589776348, 0.009000000000000001, -0.113, 0.987, 192.0, 0.0, 0.0, 0.0, 0.0, 0.0, 0.0, 0.0, 0.0, 0.0, 1.645922866042226E9, 0.0, 2022-02-27 11:47:46.042
172.0, -430.27108076466095, -2960.376794383144, -1969.1886865125523, -9224.006143093842, 312.9691258632095, 445.2914530386273, -4832.313040770655, -1431.2045492177665, -1512.6319542684503, -3969.781573984811, -3636.405305433906, -2584.0181212446837, -3118.6047933822624, -1831.0325540342992, -7982.210276390348, -14458.985860226854, 0.009000000000000001, -0.113, 0.987, 192.0, 0.0, 0.0, 0.0, 0.0, 0.0, 0.0, 0.0, 0.0, 0.0, 1.645922866050077E9, 0.0, 2022-02-27 11:47:46.050
174.0, -777.125451222116, -3242.679326853672, -2287.4775275561246, -9566.948958271618, -53.46537273709449, 156.17163850923043, -5168.7962018008475, -1859.754545659369, -3901.9663813074094, -4857.414049793965, -3672.4586692403163, -2740.323870220646, -3111.876918301215, -1933.4258953840608, -8361.005289674436, -15516.201021218423, 0.009500000000000001, -0.10850000000000001, 0.9884999999999999, 192.0, 0.0, 40.0, 126.0, 96.0, 15.0, 120.0, 0.0, 0.0, 0.0, 1.645922866058023E9, 0.0, 2022-02-27 11:47:46.058
176.0, -779.4947361343785, -3226.0272772344683, -2222.3221924689046, -9516.79164371391, -17.836692075335037, 268.57856137496964, -4931.174806496479, -1553.8709227884917, -1500.3384948180312, -4258.186132691638, -3857.106430185608, -2674.76620373323, -3343.5751013249283, -2035.3945535891717, -8098.394644069033, -14692.315720595805, 0.009500000000000001, -0.10850000000000001, 0.9884999999999999, 192.0, 0.0, 0.0, 0.0, 0.0, 0.0, 0.0, 0.0, 0.0, 0.0, 1.645922866064677E9, 0.0, 2022-02-27 11:47:46.064
178.0, -362.6347020429018, -2916.2320990839125, -1963.9583783100104, -9206.527078929792, 342.58518726649135, 411.94265031130914, -4925.765684338294, -1559.794135069148, -2814.486958323355, -4287.511621417001, -3533.6766879173147, -2610.639048890954, -2989.8140418307835, -1782.3728063550957, -8121.148719924537, -14901.6174556753, 0.009500000000000001, -0.10850000000000001, 0.9884999999999999, 192.0, 0.0, 0.0, 0.0, 0.0, 0.0, 0.0, 0.0, 0.0, 0.0, 1.645922866072686E9, 0.0, 2022-02-27 11:47:46.072
180.0, -1023.5087303529657, -3422.119131340877, -2429.3216978695036, -9738.230376032636, -267.99741601913166, 85.00368416353275, -5146.980899212468, -1823.1200364971205, -3052.55538851683, -4861.05738414018, -3921.2782885167944, -2803.802824473718, -3383.8976483223023, -2133.8539879147993, -8361.89935945265, -15399.010825039248, 0.009500000000000001, -0.10850000000000001, 0.9884999999999999, 192.0, 0.0, 0.0, 0.0, 0.0, 0.0, 0.0, 0.0, 0.0, 0.0, 1.645922866080648E9, 0.0, 2022-02-27 11:47:46.080
182.0, -430.4722464647587, -2963.304872906789, -1972.3179307362952, -9223.357942504637, 304.81073913702244, 444.82206640506587, -4828.6920581688955, -1437.0160027761465, -1516.1188264034781, -3964.2383413598945, -3640.1827502468527, -2581.3135601655913, -3121.4211131836314, -1841.716687883936, -7979.550418800166, -14451.632136301057, 0.009500000000000001, -0.10850000000000001, 0.9884999999999999, 192.0, 0.0, 0.0, 0.0, 0.0, 0.0, 0.0, 0.0, 0.0, 0.0, 1.645922866087784E9, 0.0, 2022-02-27 11:47:46.087
184.0, -779.2265152009148, -3247.5296554004735, -2291.187917135706, -9571.709879840599, -66.87641941027873, 143.90053080326686, -5161.934216253068, -1863.7555079168687, -3904.737997619867, -4854.061288125669, -3680.0359106106653, -2743.6319284000315, -3110.491110144986, -1934.2305581844519, -8358.725411739995, -15514.457585150909, 0.01175, -0.10625000000000001, 0.99025, 192.0, 0.0, 56.0, 126.0, 96.0, 15.5, 0.0, 0.0, 0.0, 0.0, 1.645922866094391E9, 0.0, 2022-02-27 11:47:46.094
186.0, -779.6288466011104, -3226.4743121235747, -2220.087018023374, -9509.63908548821, -21.994116544022148, 264.8011165620228, -4937.299184477232, -1574.8368590875698, -1493.5882679925285, -4253.55932158939, -3863.6331395665575, -2673.6262647660096, -3343.999784469579, -2038.9484809575656, -8094.348978322623, -14693.366252585203, 0.01175, -0.10625000000000001, 0.99025, 192.0, 0.0, 0.0, 0.0, 0.0, 0.0, 0.0, 0.0, 0.0, 0.0, 1.645922866102414E9, 0.0, 2022-02-27 11:47:46.102
188.0, -366.434498600304, -2925.1057416326694, -1959.1527532521193, -9200.223886993395, 343.21103611123993, 413.5966794010019, -4901.357579393099, -1545.5337221066623, -2814.151682156525, -4290.931438318663, -3540.4269147428176, -2611.846043091541, -2991.244553475923, -1779.8023557427355, -8118.913545479006, -14896.968292828597, 0.01175, -0.10625000000000001, 0.99025, 192.0, 0.0, 0.0, 0.0, 0.0, 0.0, 0.0, 0.0, 0.0, 0.0, 1.645922866110521E9, 0.0, 2022-02-27 11:47:46.110
190.0, -1010.8352912468066, -3416.642953949327, -2420.179834387283, -9731.904832351784, -263.5941223614362, 80.75685271702442, -5159.87785576318, -1839.2803477383077, -3088.4522901120536, -4874.647244769007, -3916.3832564810823, -2798.550164526721, -3368.6090551148723, -2128.8471971568106, -8360.64766176315, -15410.969008322838, 0.01175, -0.10625000000000001, 0.99025, 192.0, 0.0, 0.0, 0.0, 0.0, 0.0, 0.0, 0.0, 0.0, 0.0, 1.645922866117079E9, 0.0, 2022-02-27 11:47:46.117
192.0, -430.96398484277546, -2964.7800880408395, -1973.2343522589629, -9224.721398916412, 294.75245413213423, 441.8716361369653, -4822.232404021312, -1428.3211741830319, -1485.2734190551544, -3957.6222250011238, -3639.1769217463643, -2575.3232926515693, -3115.1626247361455, -1833.3124319687406, -7982.880828724007, -14450.33573512265, 0.01175, -0.10625000000000001, 0.99025, 192.0, 0.0, 0.0, 0.0, 0.0, 0.0, 0.0, 0.0, 0.0, 0.0, 1.645922866124902E9, 0.0, 2022-02-27 11:47:46.124
194.0, -769.8611342741411, -3245.965033288602, -2276.8380971953984, -9555.169588943672, -47.743326156535886, 154.4282024417165, -5147.539692823851, -1857.2287985359192, -3897.965419049909, -4842.684250197917, -3676.3031692866293, -2744.0119080557715, -3107.8312525548045, -1924.7981220243123, -8351.08111513628, -15503.192305945435, 0.013875, -0.107125, 0.989125, 192.0, 0.0, 64.0, 126.0, 80.0, 15.0, 112.0, 0.0, 0.0, 0.0, 1.645922866132941E9, 0.0, 2022-02-27 11:47:46.132
196.0, -803.7463788683866, -3251.195341491144, -2235.1073902973403, -9526.894632207708, -40.47900920856109, 251.54653210002567, -4974.201914572945, -1584.112833036522, -1554.2956059331425, -4292.2501912415255, -3882.073328742186, -2693.29579988668, -3356.2038369421766, -2046.5704258168253, -8107.290638362246, -14715.516831340414, 0.013875, -0.107125, 0.989125, 192.0, 0.0, 0.0, 0.0, 0.0, 0.0, 0.0, 0.0, 0.0, 0.0, 1.645922866140012E9, 0.0, 2022-02-27 11:47:46.140
198.0, -368.5355625791029, -2929.6431457570966, -1959.2421602299405, -9201.386177705072, 349.44717281427063, 415.3177637240605, -4898.6083148250955, -1546.5842540960616, -2763.346167009612, -4270.2337229530485, -3542.1032955769656, -2618.1492350279373, -2989.8363935752386, -1777.9248092084897, -8109.615219785598, -14874.683603606654, 0.013875, -0.107125, 0.989125, 192.0, 0.0, 0.0, 0.0, 0.0, 0.0, 0.0, 0.0, 0.0, 0.0, 1.645922866147585E9, 0.0, 2022-02-27 11:47:46.147
200.0, -1016.2891168939016, -3420.219233062176, -2424.1584449003276, -9737.001030087595, -256.24039843564015, 91.39628307775058, -5144.656317789116, -1822.650649863559, -3125.623241141229, -4885.219619896367, -3920.4959774608587, -2806.641496019542, -3366.507991136073, -2117.2689935289613, -8359.172446629102, -15415.551115936176, 0.013875, -0.107125, 0.989125, 192.0, 0.0, 0.0, 0.0, 0.0, 0.0, 0.0, 0.0, 0.0, 0.0, 1.645922866155689E9, 0.0, 2022-02-27 11:47:46.155
202.0, -432.01451683217493, -2962.2319891729344, -1966.685291133558, -9228.342381518172, 301.8603088689219, 451.25936880819427, -4824.2887645112, -1429.349354427976, -1468.1966862912998, -3955.3423470666826, -3646.1059625275093, -2575.9714932407733, -3114.335610191299, -1833.5806529022043, -7971.906122196451, -14445.217185642385, 0.013875, -0.107125, 0.989125, 192.0, 0.0, 0.0, 0.0, 0.0, 0.0, 0.0, 0.0, 0.0, 0.0, 1.645922866169912E9, 0.0, 2022-02-27 11:47:46.169
204.0, -774.3538349096578, -3245.5627018884065, -2271.1831058482057, -9555.169588943672, -35.09223879483209, 172.4884119616046, -5142.8458264882365, -1837.0675250372321, -3883.883820043066, -4819.5948981755855, -3667.764802904702, -2730.846730571596, -3087.5358685893857, -1915.8350724977342, -8337.2677370629, -15492.463468606886, 0.012937500000000001, -0.1055625, 0.9875625, 192.0, 0.0, 48.0, 126.0, 96.0, 15.0, 104.0, 0.0, 0.0, 0.0, 1.645922866177228E9, 0.0, 2022-02-27 11:47:46.177
206.0, -793.7327973524091, -3240.332393685865, -2221.0257912904967, -9521.396103071702, -16.540290896927225, 268.57856137496964, -4940.964870567903, -1572.1770014973881, -1525.7077247748048, -4280.113194002294, -3874.71960481639, -2684.6903782713866, -3338.836531500403, -2034.8134082333338, -8090.593885254131, -14704.542124812857, 0.012937500000000001, -0.1055625, 0.9875625, 192.0, 0.0, 0.0, 0.0, 0.0, 0.0, 0.0, 0.0, 0.0, 0.0, 1.645922866185241E9, 0.0, 2022-02-27 11:47:46.185
208.0, -366.27803638911683, -2926.0445148997924, -1951.6872706040467, -9198.815727092711, 364.2216758992286, 440.99991810320836, -4884.370253607065, -1535.2966231461314, -2764.8660856325732, -4274.145278232727, -3542.304461277063, -2615.6011361600326, -2979.4204806590656, -1770.5487335382384, -8103.803766227218, -14878.170475741683, 0.012937500000000001, -0.1055625, 0.9875625, 192.0, 0.0, 0.0, 0.0, 0.0, 0.0, 0.0, 0.0, 0.0, 0.0, 1.64592286619325E9, 0.0, 2022-02-27 11:47:46.193
210.0, -1033.9022915246835, -3436.781875703559, -2428.4052763468358, -9747.081666836937, -242.7175930401794, 96.13485290227568, -5126.327887335764, -1817.9567835279447, -3149.4054972416757, -4897.602486324607, -3923.289945517772, -2810.0389611767487, -3358.975453254635, -2108.5294614469362, -8354.925615182592, -15421.42962472792, 0.012937500000000001, -0.1055625, 0.9875625, 192.0, 0.0, 0.0, 0.0, 0.0, 0.0, 0.0, 0.0, 0.0, 0.0, 1.645922866199834E9, 0.0, 2022-02-27 11:47:46.199
212.0, -450.0076711186971, -2979.308721936789, -1976.5647621828036, -9236.612526966635, 316.210128809229, 454.99211013223055, -4815.146901028979, -1424.9684125147357, -1471.2365235372215, -3974.7883647428, -3658.958215589311, -2588.2873044356475, -3116.4143224256427, -1844.398897218573, -7966.362889571535, -14442.24440362983, 0.012937500000000001, -0.1055625, 0.9875625, 192.0, 0.0, 0.0, 0.0, 0.0, 0.0, 0.0, 0.0, 0.0, 0.0, 1.645922866207942E9, 0.0, 2022-02-27 11:47:46.207
214.0, -767.7377185508869, -3247.283786211465, -2265.081079611907, -9547.36883012877, -16.473235663561304, 178.97041785364365, -5127.691343747538, -1830.4067051895506, -3894.9926370373532, -4826.076904067624, -3673.3750907629837, -2739.1168760200594, -3090.978037235503, -1919.1207789326645, -8336.261908562412, -15488.596616816118, 0.013468750000000002, -0.10678125, 0.9867812499999999, 192.0, 0.0, 56.0, 126.0, 80.0, 15.0, 104.0, 0.0, 0.0, 0.0, 1.645922866215998E9, 0.0, 2022-02-27 11:47:46.215
216.0, -833.3624402716686, -3279.64911218275, -2247.624367192312, -9546.765333028476, -48.03389883445488, 253.02174723407595, -4971.586760471673, -1591.019522073212, -1599.2002605438545, -4319.496967732545, -3894.7020643594346, -2707.5562128491656, -3360.7859445555146, -2049.7220217850236, -8111.582173297665, -14741.131930486195, 0.013468750000000002, -0.10678125, 0.9867812499999999, 192.0, 0.0, 0.0, 0.0, 0.0, 0.0, 0.0, 0.0, 0.0, 0.0, 1.645922866222818E9, 0.0, 2022-02-27 11:47:46.222
218.0, -380.20317318477316, -2939.0085266838705, -1957.0293375288652, -9202.7719858613, 361.18183865330684, 429.4664179642699, -4903.525698605264, -1534.6260708124723, -2721.2131287113584, -4257.314414657881, -3555.000252127678, -2621.5019966962336, -2990.149317997613, -1768.715890492903, -8102.395606326534, -14849.470835861068, 0.013468750000000002, -0.10678125, 0.9867812499999999, 192.0, 0.0, 0.0, 0.0, 0.0, 0.0, 0.0, 0.0, 0.0, 0.0, 1.645922866229504E9, 0.0, 2022-02-27 11:47:46.229
220.0, -1044.9887567745159, -3442.3027565840193, -2433.5461775715567, -9754.211873318181, -253.73700305664576, 83.48376554057188, -5143.181102655066, -1835.1229232696205, -3171.1537445966896, -4897.580134580152, -3930.487207232381, -2823.248842149835, -3363.289339934509, -2122.2757842869505, -8362.681670508584, -15427.53165096422, 0.013468750000000002, -0.10678125, 0.9867812499999999, 192.0, 0.0, 0.0, 0.0, 0.0, 0.0, 0.0, 0.0, 0.0, 0.0, 1.645922866237641E9, 0.0, 2022-02-27 11:47:46.237
222.0, -463.9104561698981, -2993.9044110661043, -1982.130346552175, -9243.809788681245, 304.56486994801406, 441.60341520350164, -4815.281011495711, -1427.315345682543, -1457.0208140636462, -3975.682434521012, -3665.1943522923416, -2601.519537153189, -3128.2830987314105, -1849.2492257653746, -7970.8332384625965, -14442.222051885374, 0.013468750000000002, -0.10678125, 0.9867812499999999, 192.0, 0.0, 0.0, 0.0, 0.0, 0.0, 0.0, 0.0, 0.0, 0.0, 1.64592286624571E9, 0.0, 2022-02-27 11:47:46.245
224.0, -770.0846517186942, -3243.685155354161, -2266.8692191683317, -9547.88292025124, -22.262337477485833, 168.6886154042024, -5126.819625713781, -1839.392106460584, -3880.3745961635827, -4823.729970899817, -3670.5811227060703, -2739.1168760200594, -3089.4581186125424, -1919.746627777413, -8334.674934706085, -15483.858046991594, 0.012734375000000001, -0.10639062499999999, 0.988390625, 192.0, 0.0, 48.0, 126.0, 88.0, 15.0, 120.0, 0.0, 0.0, 0.0, 1.645922866252774E9, 0.0, 2022-02-27 11:47:46.252
226.0, -818.0514953197832, -3254.54810315944, -2240.53886419998, -9537.042324190417, -46.961015100600136, 256.79919204702287, -4967.630501703084, -1596.5404029536728, -1575.1050800210335, -4286.125813260772, -3889.494107901348, -2691.1723841634257, -3360.025985244034, -2038.7473152574678, -8110.352827352623, -14732.995895504464, 0.012734375000000001, -0.10639062499999999, 0.988390625, 192.0, 0.0, 0.0, 0.0, 0.0, 0.0, 0.0, 0.0, 0.0, 0.0, 1.645922866260367E9, 0.0, 2022-02-27 11:47:46.260
228.0, -360.26541713063926, -2919.0037153963704, -1946.7251833349687, -9195.328854957683, 358.43257408530405, 422.1126940384739, -4899.457681114398, -1554.988510011257, -2714.1723292079364, -4228.681830010632, -3543.6902694332925, -2606.2357552332587, -2989.5905243862303, -1776.695463263448, -8103.513193549299, -14863.015993000985, 0.012734375000000001, -0.10639062499999999, 0.988390625, 192.0, 0.0, 0.0, 0.0, 0.0, 0.0, 0.0, 0.0, 0.0, 0.0, 1.64592286626824E9, 0.0, 2022-02-27 11:47:46.268
230.0, -1022.3240878968344, -3420.934488884746, -2429.925194969797, -9747.662812192775, -264.309378184006, 76.08533812586523, -5161.665995319605, -1843.3260134847183, -3166.0128433719688, -4871.4285935674425, -3911.935259334476, -2802.5511267842207, -3358.8636945323583, -2122.4993017315032, -8362.3240425973, -15442.507319749275, 0.012734375000000001, -0.10639062499999999, 0.988390625, 192.0, 0.0, 0.0, 0.0, 0.0, 0.0, 0.0, 0.0, 0.0, 0.0, 1.645922866275442E9, 0.0, 2022-02-27 11:47:46.275
232.0, -447.07959259505185, -2972.9161230225714, -1982.5997331857366, -9243.340402047683, 290.8185471080002, 433.8250081330548, -4832.648316937485, -1443.7885813461044, -1444.2356162352105, -3958.44923954597, -3651.6044916635146, -2577.0890804635383, -3123.0974940177794, -1838.0062983043551, -7967.234607605292, -14445.932441464955, 0.012734375000000001, -0.10639062499999999, 0.988390625, 192.0, 0.0, 0.0, 0.0, 0.0, 0.0, 0.0, 0.0, 0.0, 0.0, 1.645922866289984E9, 0.0, 2022-02-27 11:47:46.289
234.0, -753.6784712884988, -3225.803759789915, -2270.1772773477173, -9546.295946394916, -36.16512252868683, 161.96074032315497, -5153.2393876599535, -1842.9013303400673, -3868.8634477690994, -4818.678476652918, -3660.7240034012802, -2726.4657886583555, -3086.015949966425, -1904.838014225723, -8334.093789350247, -15482.718108024374, 0.01, -0.108, 0.996, 192.0, 0.0, 40.0, 126.0, 80.0, 15.5, 16.0, 0.0, 0.0, 0.0, 1.645922866297867E9, 0.0, 2022-02-27 11:47:46.297
236.0, -798.381960199113, -3239.2148064630996, -2244.1374950572845, -9534.248356133505, -49.21854129058615, 246.02565121956485, -4978.2252285749, -1597.5238797097063, -1561.6940333478492, -4299.358045978313, -3881.559238619714, -2679.2365526242916, -3358.8413427879027, -2043.575292059814, -8110.978676197372, -14736.125139728207, 0.01, -0.108, 0.996, 192.0, 0.0, 0.0, 0.0, 0.0, 0.0, 0.0, 0.0, 0.0, 0.0, 1.645922866304913E9, 0.0, 2022-02-27 11:47:46.304
238.0, -355.30332986156105, -2912.991096137893, -1956.3140817062954, -9193.384253190072, 356.1973996397733, 421.5539004270912, -4916.3332481781545, -1548.5959110970393, -2697.095596444082, -4239.500074327001, -3536.470655974228, -2598.8373278185522, -2990.7975185868168, -1775.8460969741461, -8106.284809861757, -14860.333783666347, 0.01, -0.108, 0.996, 192.0, 0.0, 0.0, 0.0, 0.0, 0.0, 0.0, 0.0, 0.0, 0.0, 1.64592286631253E9, 0.0, 2022-02-27 11:47:46.312
240.0, -1022.5029018524768, -3423.348477285919, -2438.731782285188, -9749.78622791603, -259.07906998146416, 64.46243100910557, -5161.621291830694, -1844.6447664075813, -3219.522919597974, -4908.376027152065, -3911.0858930451745, -2806.954420441916, -3357.9472730096904, -2127.37198202276, -8373.388156102677, -15461.10397113609, 0.01, -0.108, 0.996, 192.0, 0.0, 0.0, 0.0, 0.0, 0.0, 0.0, 0.0, 0.0, 0.0, 1.645922866320505E9, 0.0, 2022-02-27 11:47:46.320
242.0, -453.2486740647166, -2977.4535271469986, -1991.1828030565744, -9251.655250985057, 294.9089163433214, 421.75506612718897, -4828.110912813057, -1442.9839185457133, -1410.9091652523477, -3963.657196004057, -3665.015538336699, -2580.7994700431195, -3136.0168023129468, -1845.1141530411428, -7971.727308240808, -14450.358086867105, 0.01, -0.108, 0.996, 192.0, 0.0, 0.0, 0.0, 0.0, 0.0, 0.0, 0.0, 0.0, 0.0, 1.645922866328488E9, 0.0, 2022-02-27 11:47:46.328
244.0, -725.4705697859014, -3202.6026490453064, -2256.028623107508, -9526.31348685187, -3.2857064349301384, 171.5496386944817, -5132.496968805429, -1822.6730016080144, -3845.170598646474, -4795.276200208211, -3653.8843695979563, -2720.2073002108696, -3078.662226040629, -1902.4463775690053, -8325.845995646237, -15472.056325919191, 0.012, -0.106, 0.994, 192.0, 0.0, 48.0, 126.0, 88.0, 15.5, 8.0, 0.0, 0.0, 0.0, 1.645922866335255E9, 0.0, 2022-02-27 11:47:46.335
246.0, -819.5043587093782, -3256.5374084159625, -2265.1034313563623, -9552.330917397847, -69.80449793392395, 231.18409290124094, -4984.506068766841, -1606.084597836089, -1623.921289911424, -4325.0625521019165, -3890.0305497682753, -2687.909029472951, -3366.6868050917155, -2056.2487311659734, -8122.735693780863, -14774.21251228005, 0.012, -0.106, 0.994, 192.0, 0.0, 0.0, 0.0, 0.0, 0.0, 0.0, 0.0, 0.0, 0.0, 1.645922866342247E9, 0.0, 2022-02-27 11:47:46.342
248.0, -342.0263936551087, -2904.1621570780467, -1956.1129160061976, -9186.634026364569, 356.01858568413087, 426.20306327379507, -4907.571364351674, -1529.5298730766624, -2628.7663136442084, -4219.942297928607, -3536.314193763041, -2596.3115806951023, -2989.8140418307835, -1766.6595300030149, -8093.320798077679, -14828.12491990625, 0.012, -0.106, 0.994, 192.0, 0.0, 0.0, 0.0, 0.0, 0.0, 0.0, 0.0, 0.0, 0.0, 1.645922866350221E9, 0.0, 2022-02-27 11:47:46.350
250.0, -1021.206500674069, -3417.268802794076, -2447.426610878302, -9740.107922566882, -270.277293953573, 64.14950658673126, -5162.73887905346, -1853.943092100989, -3248.557835645418, -4903.369236394076, -3911.197651767451, -2799.3548273271117, -3358.1707904542436, -2108.6188684247577, -8372.09175492427, -15458.019430401258, 0.012, -0.106, 0.994, 192.0, 0.0, 0.0, 0.0, 0.0, 0.0, 0.0, 0.0, 0.0, 0.0, 1.645922866357118E9, 0.0, 2022-02-27 11:47:46.357
252.0, -462.010557891197, -2980.6721783485627, -2008.706570709535, -9246.961384649443, 277.5863143904584, 420.72688588224486, -4834.950546616381, -1434.6690696083392, -1421.4591886352528, -3950.1790940975065, -3675.3867477639615, -2575.189182184837, -3149.6960699195947, -1845.8070571192573, -7975.169476886926, -14442.825548985667, 0.012, -0.106, 0.994, 192.0, 0.0, 0.0, 0.0, 0.0, 0.0, 0.0, 0.0, 0.0, 0.0, 1.645922866364833E9, 0.0, 2022-02-27 11:47:46.364
254.0, -734.0983431456499, -3212.3033061389096, -2270.6466639812784, -9527.073446163351, -10.773540827458005, 165.73818513610186, -5141.124742165178, -1834.877054080612, -3854.8042005067114, -4785.3743774145105, -3659.1593812894084, -2719.223823454836, -3089.1898976790785, -1894.779729220835, -8329.377571270177, -15462.445075803409, 0.016, -0.108, 0.99, 192.0, 0.0, 64.0, 126.0, 80.0, 15.0, 120.0, 0.0, 0.0, 0.0, 1.645922866372819E9, 0.0, 2022-02-27 11:47:46.372
0.0, -808.8202248597414, -3251.240044980055, -2256.8109341634436, -9542.69731553761, -45.038765077443735, 244.14810468531905, -4967.630501703084, -1589.6113621725276, -1597.926211109902, -4318.401732254235, -3889.203535223429, -2691.5970673080765, -3370.486601649118, -2047.6656612951354, -8115.60548729962, -14751.637250380189, 0.016, -0.108, 0.99, 192.0, 0.0, 0.0, 0.0, 0.0, 0.0, 0.0, 0.0, 0.0, 0.0, 1.645922866382214E9, 0.0, 2022-02-27 11:47:46.382
2.0, -345.468562301226, -2905.7491309343736, -1949.6979653475244, -9188.511572898815, 366.5462573225805, 432.5062552101917, -4900.798785781716, -1527.92054747588, -2654.1802470898924, -4234.426228335647, -3539.018754842133, -2603.41943543189, -2996.050178533814, -1765.8548672026238, -8093.432556799956, -14832.528213563946, 0.016, -0.108, 0.99, 192.0, 0.0, 0.0, 0.0, 0.0, 0.0, 0.0, 0.0, 0.0, 0.0, 1.645922866388164E9, 0.0, 2022-02-27 11:47:46.388
4.0, -1023.0393437194043, -3426.5894802319385, -2437.7036020402434, -9749.182730815737, -269.3161689419948, 55.96876811608888, -5178.45215540554, -1862.5485137162823, -3242.9922512760463, -4909.895945775026, -3907.0849307876747, -2803.735769240352, -3359.0425084880007, -2115.7937783949114, -8372.315272368822, -15464.769657226761, 0.016, -0.108, 0.99, 192.0, 0.0, 0.0, 0.0, 0.0, 0.0, 0.0, 0.0, 0.0, 0.0, 1.645922866395441E9, 0.0, 2022-02-27 11:47:46.395
6.0, -461.0494328796188, -2988.025902274359, -1995.1167100807083, -9245.910852660043, 270.41140442030485, 413.79784510109965, -4856.274110826745, -1447.3872122034088, -1417.7935025445822, -3958.0916116346853, -3664.568503447593, -2577.5808188415554, -3144.5998721837846, -1847.1928652754864, -7976.398822831968, -14449.352258366616, 0.016, -0.108, 0.99, 192.0, 0.0, 0.0, 0.0, 0.0, 0.0, 0.0, 0.0, 0.0, 0.0, 1.645922866403402E9, 0.0, 2022-02-27 11:47:46.403
8.0, -722.2295668398818, -3206.558907813896, -2247.1996840476613, -9512.723626223044, -2.548098867905005, 170.2085340271633, -5153.753477782426, -1838.9003680825674, -3852.390212105538, -4797.667836864929, -3649.9504625738223, -2723.962393279361, -3086.239467410978, -1894.5115082873713, -8331.568042226798, -15465.797837471706, 0.014, -0.106, 0.992, 192.0, 0.0, 56.0, 126.0, 88.0, 15.5, 0.0, 0.0, 0.0, 0.0, 1.645922866416884E9, 0.0, 2022-02-27 11:47:46.416
10.0, -830.3002512812915, -3268.6073504218284, -2260.5883789763902, -9548.776990029453, -65.26709380949663, 222.22104337466283, -4995.681940994495, -1606.531632725195, -1637.2652813512423, -4341.602842998844, -3891.461061413415, -2695.2404016542914, -3372.319444694453, -2055.7569927879563, -8122.266307147302, -14778.325233259826, 0.014, -0.106, 0.992, 192.0, 0.0, 0.0, 0.0, 0.0, 0.0, 0.0, 0.0, 0.0, 0.0, 1.645922866425109E9, 0.0, 2022-02-27 11:47:46.425
12.0, -339.9700331652204, -2904.788005922795, -1940.1537704651084, -9177.223941948885, 370.48016434671456, 425.82308361805485, -4906.5878875956405, -1531.2509573997208, -2619.155063528426, -4224.010315419473, -3539.756362409158, -2598.166775484893, -2996.273695978367, -1767.7100619924145, -8083.59778923962, -14821.397044825202, 0.014, -0.106, 0.992, 192.0, 0.0, 0.0, 0.0, 0.0, 0.0, 0.0, 0.0, 0.0, 0.0, 1.645922866432988E9, 0.0, 2022-02-27 11:47:46.432
14.0, -1015.1491779266809, -3423.39318077483, -2430.238119392171, -9743.304222023991, -260.5095816266038, 59.67915769566986, -5175.479373392985, -1858.5699032032376, -3274.687024913672, -4916.176785966967, -3896.043169026753, -2803.3110860957013, -3349.6994793056824, -2111.6587056706794, -8365.252121120944, -15468.63650901753, 0.014, -0.106, 0.992, 192.0, 0.0, 0.0, 0.0, 0.0, 0.0, 0.0, 0.0, 0.0, 0.0, 1.645922866440159E9, 0.0, 2022-02-27 11:47:46.440
16.0, -472.89585744093154, -3001.369893714177, -1999.1176723382084, -9253.622204497124, 264.3764334173719, 412.85907183397677, -4846.349936288588, -1415.2901071655879, -1399.1744994133114, -3955.1411813665845, -3664.9261313588777, -2582.5652578550885, -3142.43175297162, -1857.6758334250253, -7968.687470994887, -14436.18708088244, 0.014, -0.106, 0.992, 192.0, 0.0, 0.0, 0.0, 0.0, 0.0, 0.0, 0.0, 0.0, 0.0, 1.645922866447623E9, 0.0, 2022-02-27 11:47:46.447
18.0, -731.8184652112085, -3218.5394428419404, -2251.6476811942675, -9518.40096931469, -7.30902043688541, 160.03849029999856, -5118.39301805413, -1821.3542486851513, -3848.366898103583, -4806.675589880418, -3654.53257018716, -2729.572681137643, -3088.5864005787853, -1904.9944764369104, -8317.665257175597, -15449.279898319233, 0.016, -0.1, 0.992, 192.0, 0.0, 64.0, 126.0, 112.0, 15.5, 0.0, 0.0, 0.0, 0.0, 1.645922866455663E9, 0.0, 2022-02-27 11:47:46.455
20.0, -822.2983267662916, -3266.6627486542166, -2255.4921812405805, -9546.497112095012, -61.86962865228995, 220.5446625405148, -4983.254371077343, -1600.049626833156, -1636.37121157303, -4342.541616265967, -3894.612657381613, -2695.5980295655763, -3377.0356627745227, -2066.709347571057, -8113.683237276464, -14776.827666381321, 0.016, -0.1, 0.992, 192.0, 0.0, 0.0, 0.0, 0.0, 0.0, 0.0, 0.0, 0.0, 0.0, 1.645922866463512E9, 0.0, 2022-02-27 11:47:46.463
22.0, -339.3218325760165, -2903.2233838109237, -1940.4443431430273, -9176.933369270966, 378.5044406061698, 420.6151271599683, -4890.427576354454, -1518.510463060196, -2609.677923879376, -4213.437940292113, -3535.487179218195, -2592.2659149486917, -2996.787786100839, -1775.6225795295932, -8081.563780494187, -14823.83338497083, 0.016, -0.1, 0.992, 192.0, 0.0, 0.0, 0.0, 0.0, 0.0, 0.0, 0.0, 0.0, 0.0, 1.645922866469882E9, 0.0, 2022-02-27 11:47:46.469
24.0, -1015.7526750269742, -3420.53215748455, -2435.490779339168, -9738.431541732734, -261.0013200046206, 64.08245135336534, -5167.611559344717, -1846.9022925975673, -3295.161222834733, -4912.801672554216, -3896.2219829823953, -2796.516155781288, -3351.152342695277, -2109.6470486697017, -8367.621406033208, -15478.87360797806, 0.016, -0.1, 0.992, 192.0, 0.0, 0.0, 0.0, 0.0, 0.0, 0.0, 0.0, 0.0, 0.0, 1.645922866477233E9, 0.0, 2022-02-27 11:47:46.477
26.0, -471.3759388179706, -2996.988951800937, -2001.9786956284877, -9253.845721941678, 266.27633169607304, 415.0271910461415, -4847.57928223363, -1428.9470230277805, -1397.6322290458954, -3961.6231872586236, -3665.1943522923416, -2577.2678944191807, -3154.6134536997624, -1851.752621144369, -7970.207389617848, -14440.210394884396, 0.016, -0.1, 0.992, 192.0, 0.0, 0.0, 0.0, 0.0, 0.0, 0.0, 0.0, 0.0, 0.0, 1.645922866485242E9, 0.0, 2022-02-27 11:47:46.485
28.0, -709.8243486671864, -3203.004980445502, -2241.8576171228433, -9510.287286077415, -1.095235478310046, 166.14051653629738, -5150.7136405365045, -1828.6409173775814, -3835.626403764058, -4782.80392680215, -3637.76876184568, -2719.5367478772105, -3080.8079935083383, -1897.7972147223015, -8321.152129310623, -15445.636563973017, 0.014, -0.106, 0.99, 192.0, 0.0, 56.0, 126.0, 88.0, 15.0, 120.0, 0.0, 0.0, 0.0, 1.645922866492273E9, 0.0, 2022-02-27 11:47:46.492
30.0, -825.4499227344899, -3273.0776993128898, -2259.962530131642, -9554.499036610012, -68.30693105541839, 214.28617409302882, -4993.51382178233, -1605.0340658466896, -1661.1816479184208, -4352.421087315212, -3890.9693230353982, -2694.256924898258, -3377.616808130361, -2067.3575481602606, -8126.468435104899, -14787.6906141866, 0.014, -0.106, 0.99, 192.0, 0.0, 0.0, 0.0, 0.0, 0.0, 0.0, 0.0, 0.0, 0.0, 1.645922866500022E9, 0.0, 2022-02-27 11:47:46.500
32.0, -333.68919297327915, -2904.720950689429, -1937.0245262413653, -9168.90909301151, 376.69394930528995, 419.56459517056885, -4920.44596915793, -1523.0478671846233, -2587.482641635256, -4201.457405264068, -3537.9458711082784, -2591.260086448203, -2998.1288907681574, -1776.0696144186993, -8078.635701970542, -14806.443727784603, 0.014, -0.106, 0.99, 192.0, 0.0, 0.0, 0.0, 0.0, 0.0, 0.0, 0.0, 0.0, 0.0, 1.645922866507847E9, 0.0, 2022-02-27 11:47:46.507
34.0, -1016.9373174831054, -3428.2435093216313, -2439.1564654298386, -9732.798902129996, -262.7671078165898, 59.366233273295556, -5164.258797676421, -1849.2268740209192, -3334.924976220724, -4919.127216235068, -3892.265724213806, -2791.799937701218, -3346.2126071706543, -2107.8812608577327, -8372.89641772466, -15485.10974468109, 0.014, -0.106, 0.99, 192.0, 0.0, 0.0, 0.0, 0.0, 0.0, 0.0, 0.0, 0.0, 0.0, 1.645922866515947E9, 0.0, 2022-02-27 11:47:46.515
36.0, -475.1310318864622, -3001.794576858828, -2009.9806201434876, -9253.778666708311, 257.4697443806821, 419.25167074819456, -4855.268282326256, -1424.6107846034508, -1388.6691795193171, -3965.35592858266, -3674.246808796741, -2573.266932161681, -3165.9681398830585, -1862.7720311608352, -7973.381337330501, -14438.66812451698, 0.014, -0.106, 0.99, 192.0, 0.0, 0.0, 0.0, 0.0, 0.0, 0.0, 0.0, 0.0, 0.0, 1.645922866522605E9, 0.0, 2022-02-27 11:47:46.522
38.0, -715.2111190809154, -3205.240154891033, -2242.1705415452175, -9507.582724998323, 8.940697782122825, 180.7362056656129, -5134.709791506504, -1804.3222194102073, -3823.1541303579966, -4764.006109715237, -3635.1312559999537, -2709.612573339054, -3081.0985661862574, -1897.908973444578, -8314.200736785024, -15431.398502754988, 0.016, -0.108, 0.992, 192.0, 0.0, 64.0, 126.0, 80.0, 15.5, 0.0, 0.0, 0.0, 0.0, 1.645922866537392E9, 0.0, 2022-02-27 11:47:46.537
40.0, -852.249664336403, -3298.2234118251104, -2269.998463392075, -9561.56218785789, -74.23014333607476, 218.53300553953716, -4970.5138767378185, -1592.0253505737007, -1679.7559475607811, -4367.1508869112595, -3902.435767940971, -2709.031427983216, -3388.278590235542, -2090.9162868161543, -8129.731789795374, -14789.635215954211, 0.016, -0.108, 0.992, 192.0, 0.0, 0.0, 0.0, 0.0, 0.0, 0.0, 0.0, 0.0, 0.0, 1.645922866545684E9, 0.0, 2022-02-27 11:47:46.545
42.0, -364.2440276436839, -2940.6402040291077, -1944.1547327226083, -9178.43093614947, 367.64149280089055, 418.89404283690965, -4889.198230409412, -1516.4317508258523, -2589.069615491583, -4226.357248587281, -3552.0721736040323, -2608.292115723147, -3008.589507173241, -1797.884917007079, -8078.546294992721, -14801.302826559882, 0.016, -0.108, 0.992, 192.0, 0.0, 0.0, 0.0, 0.0, 0.0, 0.0, 0.0, 0.0, 0.0, 1.645922866552247E9, 0.0, 2022-02-27 11:47:46.552
44.0, -1057.4386784361218, -3468.2978353855415, -2446.2866719110816, -9750.769704672064, -259.3025874260172, 51.118439569287254, -5165.734012810471, -1846.3211472417292, -3359.4001363992857, -4949.592643927651, -3910.303581989239, -2816.5880223021536, -3358.5954735988944, -2128.288403545428, -8377.344414871266, -15487.166105170978, 0.016, -0.108, 0.992, 192.0, 0.0, 0.0, 0.0, 0.0, 0.0, 0.0, 0.0, 0.0, 0.0, 1.645922866560131E9, 0.0, 2022-02-27 11:47:46.560
46.0, -529.2222534683053, -3062.144286888157, -2014.741541712468, -9267.994376181887, 271.79721257653387, 411.4062084443818, -4854.9330061594255, -1431.7633428291492, -1412.674953064317, -3985.4724985924363, -3691.6364659829696, -2597.518574895689, -3165.9234363941478, -1866.0800893402206, -7970.565017529133, -14434.980086681855, 0.016, -0.108, 0.99, 192.0, 0.0, 64.0, 126.0, 80.0, 15.0, 112.0, 0.0, 0.0, 0.0, 1.645922866568213E9, 0.0, 2022-02-27 11:47:46.568
48.0, -783.1157187361382, -3283.717129673616, -2236.247329264561, -9505.325198808338, 40.85898886430131, 187.46408074666033, -5116.694285475527, -1791.0676349482103, -3855.4524010959153, -4794.985627530293, -3659.114677800498, -2746.381192968034, -3078.304598129344, -1907.4978718159048, -8310.60210592772, -15428.67158993144, 0.016, -0.108, 0.99, 192.0, 0.0, 0.0, 0.0, 0.0, 0.0, 0.0, 0.0, 0.0, 0.0, 1.645922866575299E9, 0.0, 2022-02-27 11:47:46.575
50.0, -954.7100609195305, -3407.501090467106, -2275.3628820613485, -9565.451391393113, -55.208808804608445, 231.0276306900538, -4976.571199485207, -1585.699806892849, -1742.0949628466324, -4415.073027023438, -3931.7612566663333, -2731.137303249515, -3385.2387529896205, -2082.489679156504, -8130.156472940025, -14797.257160813471, 0.016, -0.108, 0.99, 192.0, 0.0, 0.0, 0.0, 0.0, 0.0, 0.0, 0.0, 0.0, 0.0, 1.645922866582864E9, 0.0, 2022-02-27 11:47:46.582
52.0, -494.53234607366875, -3072.761365504428, -1942.8583315442006, -9174.765250058801, 400.3420949390048, 448.82302866256583, -4871.227427867345, -1508.049846655112, -2589.874278291974, -4236.1920161476155, -3577.486107049717, -2624.8324066200744, -2996.541916911831, -1775.5778760406824, -8066.878684387051, -14774.994823335985, 0.016, -0.108, 0.99, 192.0, 0.0, 0.0, 0.0, 0.0, 0.0, 0.0, 0.0, 0.0, 0.0, 1.64592286658975E9, 0.0, 2022-02-27 11:47:46.589
54.0, -1247.5402650285084, -3657.371241732984, -2455.2273696932043, -9749.853283149396, -243.7234215406682, 78.4769747825831, -5152.792352770848, -1828.0821237661987, -3428.86935816638, -4991.882144437092, -3949.3744312971157, -2853.669566353508, -3346.7490490375817, -2109.9823248365315, -8369.2754351229, -15475.409087587488, 0.016, -0.108, 0.99, 192.0, 0.0, 0.0, 0.0, 0.0, 0.0, 0.0, 0.0, 0.0, 0.0, 1.645922866597934E9, 0.0, 2022-02-27 11:47:46.597
56.0, -745.6318432845883, -3262.1253445297893, -2029.1584168861411, -9281.003091454875, 278.4803841686707, 423.00676381668615, -4820.086636553602, -1389.384435341887, -1476.4221282508527, -4044.414048721081, -3756.501228392271, -2653.643805222965, -3167.0857271058235, -1869.231685308419, -7960.998470902261, -14416.04815912821, 0.016, -0.107, 0.989, 192.0, 0.0, 64.0, 126.0, 88.0, 15.0, 112.0, 0.0, 0.0, 0.0, 1.645922866605139E9, 0.0, 2022-02-27 11:47:46.605
58.0, -978.8722966757175, -3468.968387719201, -2253.368765517326, -9515.875222191242, 42.53536969844934, 195.73422619512394, -5095.3036660317985, -1775.5108208073166, -3919.49014896037, -4844.517093243253, -3720.5819750525925, -2810.933030954961, -3079.5115923299304, -1901.8875839576226, -8299.806213355805, -15411.639560656497, 0.016, -0.107, 0.989, 192.0, 0.0, 0.0, 0.0, 0.0, 0.0, 0.0, 0.0, 0.0, 0.0, 1.645922866612289E9, 0.0, 2022-02-27 11:47:46.612
60.0, -1122.817530967895, -3560.8117056860574, -2302.542603319002, -9584.875057324774, -65.87059090978991, 224.54562479801476, -4968.949254625947, -1563.4151176709079, -1819.007315517344, -4473.232266096147, -3992.9156294960535, -2792.5151935237877, -3400.125014796855, -2092.6820746281237, -8127.340153138656, -14798.821782925343, 0.016, -0.107, 0.989, 192.0, 0.0, 0.0, 0.0, 0.0, 0.0, 0.0, 0.0, 0.0, 0.0, 1.645922866620489E9, 0.0, 2022-02-27 11:47:46.620
62.0, -602.0665886481511, -3154.9710816110473, -1966.9311603225663, -9190.43382292197, 390.35086516748254, 436.4178104898704, -4865.371270820055, -1462.3405292440093, -2652.7944389336635, -4277.967426534585, -3632.9631367877887, -2678.00720667925, -3022.7828649023613, -1793.7721960273025, -8069.516190232777, -14771.172675034128, 0.016, -0.107, 0.989, 192.0, 0.0, 0.0, 0.0, 0.0, 0.0, 0.0, 0.0, 0.0, 0.0, 1.645922866627603E9, 0.0, 2022-02-27 11:47:46.627
64.0, -1270.2719891395557, -3668.636520938459, -2463.8327913084977, -9759.799809432008, -252.66411932279104, 65.24474206504132, -5165.018756987901, -1824.5058446533496, -3476.7914982785583, -5011.7751970023155, -3969.781573984811, -2876.7142148869298, -3355.37682239733, -2132.6916972031236, -8374.349281114255, -15480.907616723493, 0.016, -0.107, 0.989, 192.0, 0.0, 0.0, 0.0, 0.0, 0.0, 0.0, 0.0, 0.0, 0.0, 1.645922866635215E9, 0.0, 2022-02-27 11:47:46.635
66.0, -714.965249891907, -3215.298439895921, -2035.908643711644, -9285.831068257221, 267.95271253022105, 417.88821433642084, -4842.81836066465, -1410.864461763437, -1465.9168083568584, -4036.3674207171707, -3753.461391146349, -2661.511619271233, -3174.5512097538963, -1887.8059849507792, -7965.66998549342, -14420.987894652832, 0.014, -0.1075, 0.9895, 192.0, 0.0, 48.0, 126.0, 80.0, 15.0, 120.0, 0.0, 0.0, 0.0, 1.645922866643091E9, 0.0, 2022-02-27 11:47:46.643
68.0, -891.5663828332881, -3396.8840118508356, -2241.2094165336393, -9507.40391104268, 49.50911396850515, 195.9353918952217, -5106.524241748362, -1781.2775708767858, -3880.9557415194204, -4828.289726768699, -3688.3284078035845, -2772.3315682806456, -3064.960606689526, -1895.3832263211284, -8299.225067999967, -15407.303322232166, 0.014, -0.1075, 0.9895, 192.0, 0.0, 0.0, 0.0, 0.0, 0.0, 0.0, 0.0, 0.0, 0.0, 1.645922866651171E9, 0.0, 2022-02-27 11:47:46.651
70.0, -1031.6894688236082, -3475.2939314000528, -2297.5805160499235, -9582.997510790528, -76.21944859259709, 210.1063978798864, -4985.221324589411, -1605.6152112025275, -1814.8722427931123, -4474.819239952474, -3965.4676873049366, -2765.223713543858, -3394.805299616492, -2097.8229758528446, -8139.007763744326, -14817.820765712353, 0.014, -0.1075, 0.9895, 192.0, 0.0, 0.0, 0.0, 0.0, 0.0, 0.0, 0.0, 0.0, 0.0, 1.645922866664715E9, 0.0, 2022-02-27 11:47:46.664
72.0, -492.25246813922746, -3063.038356666369, -1950.10029674772, -9170.831343034666, 386.99810349918647, 435.1661128003732, -4859.381003306032, -1484.2005353212996, -2578.6984060643204, -4239.053039437895, -3590.3383601115183, -2629.973307844795, -3010.3999984741213, -1783.557448811227, -8069.5608937216875, -14762.25432899646, 0.014, -0.1075, 0.9895, 192.0, 0.0, 0.0, 0.0, 0.0, 0.0, 0.0, 0.0, 0.0, 0.0, 1.645922866672807E9, 0.0, 2022-02-27 11:47:46.672
74.0, -1149.8631417588165, -3565.9302551663227, -2447.9854044896847, -9742.320745267958, -250.87597976636647, 61.95903563011118, -5186.387024687174, -1854.2560165233633, -3459.6924137702485, -4990.921019425514, -3922.038247828275, -2834.8493975221395, -3340.647022801283, -2111.3457812483052, -8379.89251373917, -15490.87649475056, 0.014, -0.1075, 0.9895, 192.0, 0.0, 0.0, 0.0, 0.0, 0.0, 0.0, 0.0, 0.0, 0.0, 1.645922866680783E9, 0.0, 2022-02-27 11:47:46.680
76.0, -618.8974522229972, -3149.226683286033, -2031.4159430761272, -9280.377242610126, 254.0946309679307, 404.3430571965048, -4844.762962432261, -1420.0063252456578, -1410.3727233854204, -4006.2372691914165, -3708.824957469101, -2617.8586623500187, -3159.687299691117, -1888.588296006715, -7975.080069909105, -14424.407711554493, 0.011, -0.10875, 0.99275, 192.0, 0.0, 32.0, 126.0, 72.0, 15.5, 16.0, 0.0, 0.0, 0.0, 1.645922866688935E9, 0.0, 2022-02-27 11:47:46.688
78.0, -802.8299573457191, -3312.059141642945, -2239.4883322105807, -9507.426262787136, 43.09416330983202, 176.0199875855431, -5081.177363536044, -1798.7566350408358, -3854.938310973443, -4807.56965965863, -3664.9708348477884, -2752.5279226932435, -3069.0956794137574, -1912.6611247850806, -8299.515640677886, -15408.62207515503, 0.011, -0.10875, 0.99275, 192.0, 0.0, 0.0, 0.0, 0.0, 0.0, 0.0, 0.0, 0.0, 0.0, 1.645922866695309E9, 0.0, 2022-02-27 11:47:46.695
80.0, -951.8713893737066, -3383.517668666562, -2296.2617631270605, -9597.526144686479, -78.74519571604678, 193.76727268305692, -4990.8763159366035, -1626.7823132017033, -1795.8956117505566, -4456.960196132683, -3937.662117202535, -2755.254835516791, -3389.4632326916735, -2086.289475713906, -8139.4100951445225, -14833.422283342157, 0.011, -0.10875, 0.99275, 192.0, 0.0, 0.0, 0.0, 0.0, 0.0, 0.0, 0.0, 0.0, 0.0, 1.645922866703348E9, 0.0, 2022-02-27 11:47:46.703
82.0, -416.97179281375327, -2996.206640745001, -1947.7980670688235, -9183.683596096469, 389.41209190035966, 421.8221213605549, -4874.177858135446, -1494.3035238150983, -2530.485693274223, -4209.235812334516, -3568.0089674006663, -2629.61567993351, -3004.052103048814, -1793.3475128826515, -8063.257701785291, -14765.517683686934, 0.011, -0.10875, 0.99275, 192.0, 0.0, 0.0, 0.0, 0.0, 0.0, 0.0, 0.0, 0.0, 0.0, 1.645922866710381E9, 0.0, 2022-02-27 11:47:46.710
84.0, -1088.2840857844456, -3506.5863736374827, -2455.4061836488468, -9754.569501229465, -258.2297036921625, 46.58103544485992, -5179.927370539591, -1842.4542954509611, -3459.7818207480695, -4985.534249011785, -3904.358017964127, -2838.4033248905334, -3333.6956302756826, -2132.311717547383, -8381.457135851042, -15506.276846680266, 0.011, -0.10875, 0.99275, 192.0, 0.0, 0.0, 0.0, 0.0, 0.0, 0.0, 0.0, 0.0, 0.0, 1.645922866717142E9, 0.0, 2022-02-27 11:47:46.717
86.0, -557.1395822929838, -3084.9654179770255, -2031.6171087762248, -9283.953521722975, 249.78074428805644, 392.4072256573708, -4838.817398407149, -1424.7895985590933, -1386.5010603071523, -4008.964182014964, -3703.1923178663637, -2618.9315460838734, -3173.3218638088542, -1887.202487850486, -7973.090764652582, -14426.464072044382, 0.0095, -0.107375, 0.992375, 192.0, 0.0, 32.0, 126.0, 88.0, 15.5, 0.0, 0.0, 0.0, 0.0, 1.645922866725025E9, 0.0, 2022-02-27 11:47:46.725
88.0, -714.1829388359713, -3223.7921027889374, -2215.1249307542957, -9478.25723627296, 55.3876227602509, 185.34066502340616, -5109.541727249829, -1795.4709286059058, -3803.797519659701, -4769.124659195502, -3629.699782097314, -2714.3064396746686, -3059.4173740646097, -1892.5669065197596, -8298.26394298839, -15395.300435459667, 0.0095, -0.107375, 0.992375, 192.0, 0.0, 0.0, 0.0, 0.0, 0.0, 0.0, 0.0, 0.0, 0.0, 1.645922866733134E9, 0.0, 2022-02-27 11:47:46.733
90.0, -897.4672433694892, -3338.3000896334756, -2284.92942868822, -9580.605874133811, -89.18346037667519, 202.1715285982524, -5002.812147475737, -1617.6404497194828, -1790.5088413368276, -4415.385951445813, -3908.716608132912, -2717.2345181983137, -3387.608037901883, -2096.191298507607, -8153.3799354290895, -14842.295925890914, 0.0095, -0.107375, 0.992375, 192.0, 0.0, 0.0, 0.0, 0.0, 0.0, 0.0, 0.0, 0.0, 0.0, 1.645922866739563E9, 0.0, 2022-02-27 11:47:46.739
92.0, -376.4927836051922, -2948.351555866189, -1931.7718662943682, -9170.227845934372, 387.0875104770077, 422.9397085833202, -4859.693927728406, -1501.3219715740647, -2488.5761724205227, -4202.574992486834, -3547.7806386686134, -2617.389275716457, -3004.2532687489115, -1785.5691058122047, -8063.816495396673, -14754.855901581754, 0.0095, -0.107375, 0.992375, 192.0, 0.0, 0.0, 0.0, 0.0, 0.0, 0.0, 0.0, 0.0, 0.0, 1.645922866747704E9, 0.0, 2022-02-27 11:47:46.747
94.0, -1056.3210912133566, -3463.246341138642, -2437.8377125069755, -9746.813445903474, -258.69909032572394, 39.048497563421435, -5178.206286216532, -1869.4104992640614, -3470.309492386519, -4981.443879776464, -3884.554372376725, -2815.157510657014, -3327.750066250571, -2110.8763946147437, -8382.194743418067, -15519.106747997612, 0.0095, -0.107375, 0.992375, 192.0, 0.0, 0.0, 0.0, 0.0, 0.0, 0.0, 0.0, 0.0, 0.0, 1.645922866755644E9, 0.0, 2022-02-27 11:47:46.755
96.0, -529.0881430015735, -3059.5514845313414, -2019.0107249034318, -9281.897161233088, 248.01495647608718, 389.5014988781809, -4851.736706702317, -1446.448438936286, -1367.9491124092476, -3998.4141586320593, -3689.5801054930816, -2600.290191208147, -3167.3092445503767, -1886.3978250500948, -7968.262787850236, -14438.824586728168, 0.01075, -0.10768749999999999, 0.9911875, 192.0, 0.0, 48.0, 126.0, 80.0, 15.0, 120.0, 0.0, 0.0, 0.0, 1.645922866762736E9, 0.0, 2022-02-27 11:47:46.762
98.0, -708.773816677787, -3214.694942795628, -2205.379570171782, -9470.6352914137, 61.534352485460346, 193.87903140533345, -5103.283238802343, -1782.4845650773723, -3794.4544904773825, -4754.551321810642, -3618.412151147384, -2708.316172160646, -3054.2541210954337, -1879.558191246771, -8293.97240805297, -15395.680415115407, 0.01075, -0.10768749999999999, 0.9911875, 192.0, 0.0, 0.0, 0.0, 0.0, 0.0, 0.0, 0.0, 0.0, 0.0, 1.645922866770311E9, 0.0, 2022-02-27 11:47:46.770
100.0, -908.2854876858578, -3352.6722613182383, -2284.6165042658454, -9581.544647400933, -93.31853310090699, 192.7614441825681, -4993.55852527124, -1632.0126214042452, -1807.4738153784056, -4439.97287034665, -3911.264707000817, -2719.447340899389, -3384.9481803117014, -2090.737472860512, -8151.345926683656, -14855.975193497563, 0.01075, -0.10768749999999999, 0.9911875, 192.0, 0.0, 0.0, 0.0, 0.0, 0.0, 0.0, 0.0, 0.0, 0.0, 1.64592286678536E9, 0.0, 2022-02-27 11:47:46.785
102.0, -419.16226377037333, -2984.7401958394285, -1927.6367935701364, -9161.175389429975, 390.03794074510824, 431.25455752069445, -4865.930064431437, -1496.3822360494419, -2466.4702971542238, -4193.299018537881, -3550.6863654478034, -2598.636162118454, -3003.40390245961, -1778.6400650310595, -8062.363632007079, -14749.044448023375, 0.01075, -0.10768749999999999, 0.9911875, 192.0, 0.0, 0.0, 0.0, 0.0, 0.0, 0.0, 0.0, 0.0, 0.0, 1.645922866792399E9, 0.0, 2022-02-27 11:47:46.792
104.0, -1145.2586824010232, -3549.926406136323, -2434.596709560956, -9741.82900688994, -253.2229129341737, 47.89978836772303, -5193.338417212774, -1886.777804705835, -3513.403655696351, -4988.618789746617, -3892.8692213140994, -2818.1749961584806, -3325.3360778493975, -2098.672342142146, -8394.823479035316, -15530.394378947543, 0.01075, -0.10768749999999999, 0.9911875, 192.0, 0.0, 0.0, 0.0, 0.0, 0.0, 0.0, 0.0, 0.0, 0.0, 1.645922866799875E9, 0.0, 2022-02-27 11:47:46.799
106.0, -706.5609939767115, -3213.622059061773, -2029.4936930529707, -9295.576428839735, 242.89640699582185, 385.61229534295745, -4858.464581783364, -1444.3026714685764, -1397.028731945602, -4026.7561706013885, -3724.649992543458, -2618.864490850507, -3174.305340564888, -1884.2297058379302, -7982.322035112624, -14447.608822299102, 0.011375, -0.10584375, 0.99159375, 192.0, 0.0, 48.0, 126.0, 96.0, 15.5, 0.0, 0.0, 0.0, 0.0, 1.645922866807926E9, 0.0, 2022-02-27 11:47:46.807
108.0, -917.0250197678829, -3403.902459609802, -2204.5525556269354, -9469.942387335586, 77.40409104872836, 197.58942098491443, -5078.137526290122, -1796.1191291951097, -3856.9946714633315, -4793.063377507136, -3672.72689017378, -2753.01966107126, -3061.786658976872, -1884.6990924714914, -8293.793594097328, -15392.774688336218, 0.011375, -0.10584375, 0.99159375, 192.0, 0.0, 0.0, 0.0, 0.0, 0.0, 0.0, 0.0, 0.0, 0.0, 1.645922866815838E9, 0.0, 2022-02-27 11:47:46.815
110.0, -1159.8543715303388, -3579.765984984158, -2311.9303359902306, -9603.404653478225, -99.0405796814656, 186.16767956825254, -4997.22421136191, -1649.536389057206, -1951.1284769926642, -4517.309906162012, -3982.298550879783, -2776.4666410048776, -3402.650761920305, -2097.6665136416573, -8160.532493654788, -14888.496981680035, 0.011375, -0.10584375, 0.99159375, 192.0, 0.0, 0.0, 0.0, 0.0, 0.0, 0.0, 0.0, 0.0, 0.0, 1.645922866822622E9, 0.0, 2022-02-27 11:47:46.822
112.0, -638.164655943472, -3196.3888640867312, -1947.7533635799127, -9178.185066960463, 391.5131558791585, 432.819179632566, -4852.4072590359765, -1464.3745379894422, -2528.2505188286923, -4246.6973360416105, -3628.1128082409873, -2658.00239539175, -3018.603088689219, -1789.7041785364365, -8052.707678402386, -14732.951192015553, 0.011375, -0.10584375, 0.99159375, 192.0, 0.0, 0.0, 0.0, 0.0, 0.0, 0.0, 0.0, 0.0, 0.0, 1.645922866830503E9, 0.0, 2022-02-27 11:47:46.830
114.0, -1312.3156204599882, -3707.059169657132, -2454.8920935263745, -9755.150646585304, -255.50279086861502, 47.497456967527505, -5184.107146752733, -1863.777859661324, -3603.637648062426, -5044.207578206966, -3961.3102628362494, -2875.6189794086195, -3338.4342001002074, -2107.188356779618, -8383.982882974493, -15520.894887554037, 0.011375, -0.10584375, 0.99159375, 192.0, 0.0, 0.0, 0.0, 0.0, 0.0, 0.0, 0.0, 0.0, 0.0, 1.64592286683751E9, 0.0, 2022-02-27 11:47:46.837
116.0, -780.9699512684288, -3284.9464756186576, -2043.7541060154565, -9296.22462942894, 236.48145633714873, 386.88634477690994, -4849.345070045599, -1450.7623256161603, -1453.5786454175288, -4051.0525168243075, -3774.27086523424, -2652.1462383444596, -3196.075939664357, -1893.3715693201507, -7977.002319932261, -14436.969391938377, 0.01, -0.10400000000000001, 0.992, 192.0, 0.0, 40.0, 126.0, 96.0, 15.5, 0.0, 0.0, 0.0, 0.0, 1.645922866844761E9, 0.0, 2022-02-27 11:47:46.844
118.0, -900.0600457263048, -3396.794604873014, -2207.05595100593, -9458.990032552485, 70.45269852312786, 206.23954608911828, -5096.331846276742, -1789.0559779472326, -3858.134610430552, -4778.870019778016, -3675.7443756752464, -2749.9798238253384, -3062.345452588255, -1885.4143482940613, -8292.720710363474, -15378.693089329374, 0.01, -0.10400000000000001, 0.992, 192.0, 0.0, 0.0, 0.0, 0.0, 0.0, 0.0, 0.0, 0.0, 0.0, 1.645922866852229E9, 0.0, 2022-02-27 11:47:46.852
120.0, -1099.236440567546, -3524.5795279240047, -2312.466777857158, -9596.743833630542, -108.76358851952416, 195.75657793957924, -5009.092987667678, -1650.8998454689797, -1942.8136280552899, -4513.532461349066, -3971.7932309857883, -2769.8505246461064, -3405.221212532665, -2106.0037143234867, -8169.339080970179, -14879.064545519896, 0.01, -0.10400000000000001, 0.992, 192.0, 0.0, 0.0, 0.0, 0.0, 0.0, 0.0, 0.0, 0.0, 0.0, 1.645922866860257E9, 0.0, 2022-02-27 11:47:46.860
122.0, -540.1522565069505, -3104.5455461198744, -1938.9691280089771, -9168.774982544779, 395.625876858935, 441.4469529923145, -4867.114706887568, -1489.8555266684923, -2478.6072943934555, -4211.627448991233, -3595.3227991250515, -2631.0238398341944, -3010.2882397518447, -1781.366977854607, -8059.122629061059, -14725.91039251213, 0.01, -0.10400000000000001, 0.992, 192.0, 0.0, 0.0, 0.0, 0.0, 0.0, 0.0, 0.0, 0.0, 0.0, 1.645922866868199E9, 0.0, 2022-02-27 11:47:46.868
124.0, -1207.3965319867768, -3612.4665871222724, -2451.047593480062, -9751.395553516812, -253.04409897853125, 56.48285823856095, -5184.509478152929, -1862.8614381386565, -3603.838813762524, -5014.815034248238, -3919.0878175601742, -2859.481019911888, -3321.6256882698167, -2098.2476589974954, -8387.693272554074, -15535.244707494345, 0.01, -0.10400000000000001, 0.992, 192.0, 0.0, 0.0, 0.0, 0.0, 0.0, 0.0, 0.0, 0.0, 0.0, 1.645922866874812E9, 0.0, 2022-02-27 11:47:46.874
126.0, -707.3656567771026, -3215.723123040572, -2053.6335770647024, -9301.11966146465, 220.9469939407103, 389.2109262002619, -4854.687136970418, -1442.447476678786, -1415.893604265881, -4038.9825748184417, -3751.762658567746, -2636.2094445478256, -3195.1148146527785, -1913.197566652008, -7979.2821978667025, -14439.405732084006, 0.012, -0.10400000000000001, 0.988, 192.0, 0.0, 48.0, 126.0, 96.0, 15.0, 112.0, 0.0, 0.0, 0.0, 1.645922866882917E9, 0.0, 2022-02-27 11:47:46.882
128.0, -798.5160706658448, -3300.1903653371774, -2196.3271136673825, -9450.67518361511, 80.39922480573951, 215.11318863787517, -5095.05779684279, -1784.7420912673583, -3815.4427785209155, -4763.022632959203, -3653.5267416866714, -2735.764114351763, -3057.852751952738, -1887.7836332063239, -8286.283407960345, -15370.624109581007, 0.012, -0.10400000000000001, 0.988, 192.0, 0.0, 0.0, 0.0, 0.0, 0.0, 0.0, 0.0, 0.0, 0.0, 1.64592286689081E9, 0.0, 2022-02-27 11:47:46.890
130.0, -1030.1024949672812, -3459.871227725891, -2317.473568615147, -9611.786557648964, -121.97346949261065, 181.7196824216464, -5011.216403390933, -1647.3012146116753, -1961.2761689753736, -4504.457653100211, -3950.1120388641407, -2754.3384139941236, -3403.924811354257, -2121.9405081201207, -8174.569389172721, -14911.251057535537, 0.012, -0.10400000000000001, 0.988, 192.0, 0.0, 0.0, 0.0, 0.0, 0.0, 0.0, 0.0, 0.0, 0.0, 1.64592286689778E9, 0.0, 2022-02-27 11:47:46.897
132.0, -461.89879916892045, -3028.214338805001, -1936.8010087968123, -9167.188008688452, 386.014626743153, 430.62870867594586, -4875.2507418693, -1496.7622157051821, -2419.7775029870872, -4198.439919762602, -3577.530810538627, -2621.4349414628678, -3017.150225299624, -1799.0919112076654, -8046.985631821827, -14717.752005785944, 0.012, -0.10400000000000001, 0.988, 192.0, 0.0, 0.0, 0.0, 0.0, 0.0, 0.0, 0.0, 0.0, 0.0, 1.645922866912537E9, 0.0, 2022-02-27 11:47:46.912
134.0, -1129.657164771219, -3542.1032955769656, -2448.141866700872, -9746.947556370205, -255.1004594684195, 46.33516625585154, -5189.091585766267, -1878.105327857176, -3580.8388687180127, -5011.574031302218, -3891.9080963025212, -2841.666679581008, -3319.7481417355707, -2111.055208570386, -8391.046034222369, -15538.642172651551, 0.012, -0.10400000000000001, 0.988, 192.0, 0.0, 0.0, 0.0, 0.0, 0.0, 0.0, 0.0, 0.0, 0.0, 1.645922866920365E9, 0.0, 2022-02-27 11:47:46.920
136.0, -628.9780889723407, -3142.364697738254, -2047.64330955068, -9303.89127777711, 220.76817998506786, 387.4674901327479, -4849.836808423616, -1441.2404824781995, -1376.934513680281, -4024.610403133679, -3731.623736813514, -2632.476703223789, -3190.8679832062703, -1900.4794240569383, -7974.945959442372, -14439.986877439844, 0.01, -0.108, 0.988, 192.0, 0.0, 40.0, 126.0, 80.0, 15.0, 112.0, 0.0, 0.0, 0.0, 1.645922866927621E9, 0.0, 2022-02-27 11:47:46.927
138.0, -731.3490785776471, -3235.0797337388676, -2191.0521019759303, -9453.24563422747, 82.79086146245736, 208.5417757680149, -5083.546648448307, -1781.299922621241, -3777.131888524519, -4735.082952390069, -3635.6453461224255, -2728.320983448146, -3052.1530571166345, -1880.8322406807233, -8285.657559115596, -15364.902063000449, 0.01, -0.108, 0.988, 192.0, 0.0, 0.0, 0.0, 0.0, 0.0, 0.0, 0.0, 0.0, 0.0, 1.645922866935232E9, 0.0, 2022-02-27 11:47:46.935
140.0, -964.2542558019467, -3387.5633344129724, -2309.2481266555938, -9602.152955788726, -120.09592295836485, 187.7099499356687, -5005.7849294882935, -1640.4168773194406, -1917.422046354061, -4486.978588936161, -3940.321974792716, -2742.6931551329085, -3401.95785784219, -2108.574164935847, -8170.143743770569, -14900.321054496892, 0.01, -0.108, 0.988, 192.0, 0.0, 0.0, 0.0, 0.0, 0.0, 0.0, 0.0, 0.0, 0.0, 1.645922866943012E9, 0.0, 2022-02-27 11:47:46.943
142.0, -397.8610513044657, -2963.5283903513423, -1929.424933126561, -9158.00144171732, 381.5889813410022, 438.3177087685715, -4854.7541922037835, -1477.1150323289673, -2395.7717294420877, -4162.0512797893625, -3564.3209295655406, -2603.6653046208985, -3016.658486921607, -1784.9879604563666, -8053.758210391786, -14715.673293551601, 0.01, -0.108, 0.988, 192.0, 0.0, 0.0, 0.0, 0.0, 0.0, 0.0, 0.0, 0.0, 0.0, 1.645922866951243E9, 0.0, 2022-02-27 11:47:46.951
144.0, -1060.6126261487755, -3478.0208442236003, -2435.423724105802, -9732.575384685444, -254.98870074614297, 57.55574197241569, -5190.253876477942, -1874.5066969998716, -3590.4277670893393, -4989.691673480472, -3873.6690728269905, -2819.024362447782, -3314.964868422135, -2106.0707695568526, -8391.046034222369, -15546.264117510811, 0.01, -0.108, 0.988, 192.0, 0.0, 0.0, 0.0, 0.0, 0.0, 0.0, 0.0, 0.0, 0.0, 1.645922866957806E9, 0.0, 2022-02-27 11:47:46.957
146.0, -578.3513877810702, -3093.7720052924165, -2042.1224286702193, -9304.092443477208, 212.16275836977465, 385.88051627642113, -4854.843599181605, -1457.579607675029, -1345.999699354136, -4001.521051111347, -3715.2846116166847, -2609.8567378350185, -3196.210050131089, -1897.1266623886422, -7981.092689167583, -14442.691438518936, 0.012, -0.108, 0.988, 192.0, 0.0, 48.0, 126.0, 80.0, 15.0, 112.0, 0.0, 0.0, 0.0, 1.645922866964687E9, 0.0, 2022-02-27 11:47:46.964
148.0, -674.2180197498823, -3191.337369839832, -2175.5176395794915, -9444.416695167625, 97.61006803632594, 224.25505212009577, -5070.962616319968, -1749.8733699170793, -3741.078524718109, -4715.480472502765, -3615.729941812747, -2715.826358297629, -3046.073382624791, -1866.460068995961, -8271.531256619843, -15349.836987237572, 0.012, -0.108, 0.988, 192.0, 0.0, 0.0, 0.0, 0.0, 0.0, 0.0, 0.0, 0.0, 0.0, 1.645922866972649E9, 0.0, 2022-02-27 11:47:46.972
150.0, -923.3952669376454, -3354.192179941199, -2305.8059580094764, -9615.295781528448, -107.82481525240127, 180.91501962125537, -5003.9073829540475, -1649.4469820793847, -1942.0313169993542, -4498.5120890750995, -3929.3696200096156, -2752.7290883933415, -3404.282439265542, -2110.22819402554, -8167.2380169913795, -14916.414310504713, 0.012, -0.108, 0.988, 192.0, 0.0, 0.0, 0.0, 0.0, 0.0, 0.0, 0.0, 0.0, 0.0, 1.645922866979994E9, 0.0, 2022-02-27 11:47:46.979
152.0, -351.0117949261421, -2920.7695032083398, -1922.071209200765, -9161.644776063535, 398.91158329386514, 431.9921650877196, -4844.114761843057, -1481.7865469201265, -2344.921510806264, -4141.644137101667, -3548.250025302175, -2594.9928277722393, -3015.1609200431017, -1784.0044837003331, -8036.703829372386, -14704.050386434841, 0.012, -0.108, 0.988, 192.0, 0.0, 0.0, 0.0, 0.0, 0.0, 0.0, 0.0, 0.0, 0.0, 1.645922866987344E9, 0.0, 2022-02-27 11:47:46.987
154.0, -1023.8440065197954, -3436.6701169812823, -2430.595747303456, -9732.30716375198, -252.99939548962064, 53.04068959244366, -5177.066347249312, -1869.7457754308912, -3585.9127147093673, -4977.822897174704, -3860.0345087092533, -2801.701760494919, -3311.075664886912, -2092.1009292722856, -8385.189877175078, -15549.795693134749, 0.012, -0.108, 0.988, 192.0, 0.0, 0.0, 0.0, 0.0, 0.0, 0.0, 0.0, 0.0, 0.0, 1.645922866995421E9, 0.0, 2022-02-27 11:47:46.995
156.0, -543.8402943420762, -3057.338661830266, -2036.1321611561968, -9302.594876598701, 209.32408682395064, 385.54524010959153, -4844.561796732163, -1435.5184358976408, -1329.0794288014686, -3994.4131963745594, -3703.594649266559, -2589.0472637471275, -3193.751358241005, -1884.654388982581, -7969.223912861814, -14440.679781517958, 0.014, -0.11, 0.99, 192.0, 0.0, 56.0, 126.0, 72.0, 15.0, 120.0, 0.0, 0.0, 0.0, 1.645922867003682E9, 0.0, 2022-02-27 11:47:47.003
158.0, -635.84007452012, -3147.7067646630726, -2165.19113364114, -9434.291354929372, 89.96577143261092, 222.04222941902037, -5079.992721079912, -1772.11335565011, -3718.123283162509, -4694.693350159329, -3595.9039444808895, -2697.2744103997243, -3035.992745875448, -1862.5485137162823, -8270.01133799688, -15350.261670382222, 0.014, -0.11, 0.99, 192.0, 0.0, 0.0, 0.0, 0.0, 0.0, 0.0, 0.0, 0.0, 0.0, 1.645922867010141E9, 0.0, 2022-02-27 11:47:47.010
160.0, -893.8462607677294, -3325.649002271772, -2299.927449217731, -9601.549458688434, -134.08811498738706, 178.18810679770792, -5033.724610057427, -1664.4226508644404, -1928.3744011371616, -4487.112699402893, -3913.499881446348, -2732.6125183835647, -3399.0744828074558, -2116.6207929397574, -8176.75986012934, -14927.81370017692, 0.014, -0.11, 0.99, 192.0, 0.0, 0.0, 0.0, 0.0, 0.0, 0.0, 0.0, 0.0, 0.0, 1.64592286701804E9, 0.0, 2022-02-27 11:47:47.018
162.0, -329.0623818710306, -2898.7530349198623, -1912.1470346626086, -9145.909147966999, 389.948533767287, 439.0776680800519, -4859.6268724950405, -1485.5192882441627, -2328.5153303760685, -4133.686916075578, -3533.989612339689, -2578.743109553231, -3009.528280440364, -1786.4184721015063, -8044.661050398476, -14707.62666554769, 0.014, -0.11, 0.99, 192.0, 0.0, 0.0, 0.0, 0.0, 0.0, 0.0, 0.0, 0.0, 0.0, 1.645922867033209E9, 0.0, 2022-02-27 11:47:47.033
164.0, -1004.1968231435804, -3421.4038755183074, -2425.9689362012073, -9719.96900081265, -249.13254369885252, 51.788991902946464, -5180.195591473054, -1893.0586448977763, -3597.0662351925657, -4969.798620915249, -3848.2104358923957, -2794.348036569123, -3300.03390312599, -2083.9201908016435, -8392.163621445134, -15556.255347282333, 0.014, -0.11, 0.99, 192.0, 0.0, 0.0, 0.0, 0.0, 0.0, 0.0, 0.0, 0.0, 0.0, 1.64592286703969E9, 0.0, 2022-02-27 11:47:47.039
166.0, -542.9238728194085, -3054.0082519064254, -2041.2060071475516, -9301.45493763148, 201.88095592033338, 383.15360345287365, -4865.10304988659, -1455.1432675294004, -1321.3010217310216, -3995.955466741975, -3713.8764517160002, -2595.4398626613456, -3198.6463902767173, -1899.3841885786283, -7980.310378111646, -14451.8109502567, 0.012, -0.10200000000000001, 0.994, 192.0, 0.0, 48.0, 126.0, 104.0, 15.5, 8.0, 0.0, 0.0, 0.0, 1.645922867047727E9, 0.0, 2022-02-27 11:47:47.047
168.0, -618.8527487340866, -3134.228662756522, -2160.1396393942405, -9423.137834446172, 106.30489662944039, 230.89352022332196, -5078.942189090513, -1764.8713904465903, -3696.2185735963076, -4677.571913906564, -3598.541450326616, -2692.1782126639146, -3034.249309807934, -1853.0937258116874, -8268.960806007482, -15337.029437664682, 0.012, -0.10200000000000001, 0.994, 192.0, 0.0, 0.0, 0.0, 0.0, 0.0, 0.0, 0.0, 0.0, 0.0, 1.645922867055702E9, 0.0, 2022-02-27 11:47:47.055
170.0, -903.0551794833159, -3331.7286767636156, -2308.9352022332196, -9614.602877450334, -133.79754230946807, 172.93544685071075, -5033.6128513351505, -1671.2622846677643, -1970.8427156022449, -4502.490699588144, -3929.1237508206073, -2739.16157950897, -3402.002561331101, -2107.188356779618, -8180.313787497734, -14945.784502718987, 0.012, -0.10200000000000001, 0.994, 192.0, 0.0, 0.0, 0.0, 0.0, 0.0, 0.0, 0.0, 0.0, 0.0, 1.645922867062937E9, 0.0, 2022-02-27 11:47:47.062
172.0, -332.6163092394244, -2899.7812151648063, -1917.489101587427, -9155.252177149318, 395.7152838367562, 441.4469529923145, -4853.658956725473, -1483.507631243185, -2302.0061614520746, -4128.836587528776, -3553.1674090823426, -2591.7294730817644, -3014.088036309247, -1779.8247074871908, -8034.915689815962, -14694.930874697075, 0.012, -0.10200000000000001, 0.994, 192.0, 0.0, 0.0, 0.0, 0.0, 0.0, 0.0, 0.0, 0.0, 0.0, 1.645922867070336E9, 0.0, 2022-02-27 11:47:47.070
174.0, -1001.5146138089435, -3416.0841603379445, -2429.5452153140563, -9729.557899183977, -251.59123558893629, 48.4362302346504, -5198.881649837691, -1893.975066420444, -3617.0710464800654, -4975.0289291177905, -3852.323156872172, -2804.741597740841, -3301.643228726772, -2081.1038710002745, -8391.448365622564, -15563.564367719218, 0.012, -0.10200000000000001, 0.994, 192.0, 0.0, 0.0, 0.0, 0.0, 0.0, 0.0, 0.0, 0.0, 0.0, 1.645922867078356E9, 0.0, 2022-02-27 11:47:47.078
176.0, -548.6459193999672, -3049.0685163818025, -2047.933882228599, -9312.876679048142, 199.0422843745094, 364.19932415477325, -4864.611311508574, -1476.4668317397634, -1313.321448960477, -3993.385016129615, -3713.697637760358, -2596.3786359284686, -3203.228497890055, -1903.362799091673, -7980.24332287828, -14460.550482338725, 0.014, -0.10200000000000001, 0.982, 192.0, 0.0, 56.0, 126.0, 104.0, 15.0, 88.0, 0.0, 0.0, 0.0, 1.645922867085476E9, 0.0, 2022-02-27 11:47:47.085
178.0, -607.1404346395058, -3116.526081147919, -2154.8199242138776, -9413.325418630293, 107.51189083002697, 225.14912189830804, -5074.360081477175, -1774.080309162177, -3684.7074252018247, -4668.519457402165, -3594.9204677248563, -2683.349273604068, -3036.082152853269, -1855.9994525908774, -8267.865570529171, -15343.198519134346, 0.014, -0.10200000000000001, 0.982, 192.0, 0.0, 0.0, 0.0, 0.0, 0.0, 0.0, 0.0, 0.0, 0.0, 1.645922867091913E9, 0.0, 2022-02-27 11:47:47.091
180.0, -890.6276095661652, -3313.064970143434, -2308.0411324550073, -9605.773938390486, -132.5458446199709, 178.1657550532526, -5035.870377525137, -1677.8784010265354, -1977.6823494055689, -4499.093234430938, -3916.360904736627, -2721.838977556107, -3397.9568955846903, -2104.863775356266, -8185.052357322259, -14958.592052291877, 0.014, -0.10200000000000001, 0.982, 192.0, 0.0, 0.0, 0.0, 0.0, 0.0, 0.0, 0.0, 0.0, 0.0, 1.645922867101508E9, 0.0, 2022-02-27 11:47:47.101
182.0, -321.8204166675111, -2884.3361597461894, -1910.9623922064773, -9142.489331065337, 395.44706290329253, 440.61993844746814, -4856.6317387380295, -1476.3997765063973, -2261.884780154798, -4106.730712262477, -3532.3802867389068, -2565.354414624502, -3004.432082704554, -1773.8344399731684, -8031.607631636576, -14684.894941436642, 0.014, -0.10200000000000001, 0.982, 192.0, 0.0, 0.0, 0.0, 0.0, 0.0, 0.0, 0.0, 0.0, 0.0, 1.645922867107972E9, 0.0, 2022-02-27 11:47:47.107
184.0, -999.5476602968765, -3409.713913168182, -2424.113741411417, -9721.667733391254, -253.4911338676374, 46.759849400502375, -5198.7922428598695, -1904.033351425332, -3626.9728692737663, -4968.345757525654, -3835.5817002751473, -2789.5647632556875, -3290.914391388225, -2077.12526048723, -8388.497935354464, -15569.353469533144, 0.015, -0.10200000000000001, 0.983, 192.0, 0.0, 64.0, 126.0, 104.0, 15.0, 96.0, 0.0, 0.0, 0.0, 1.64592286711516E9, 0.0, 2022-02-27 11:47:47.115
186.0, -554.166800280428, -3058.8585804532268, -2053.387707875694, -9309.970952268954, 198.0364558740206, 364.98163521070904, -4859.023375394747, -1448.0577645370681, -1306.8841465573487, -3995.3743213861376, -3707.9308876908885, -2594.32227543858, -3197.037064675935, -1901.3734938351506, -7969.939168684384, -14458.494121848837, 0.015, -0.10200000000000001, 0.983, 192.0, 0.0, 0.0, 0.0, 0.0, 0.0, 0.0, 0.0, 0.0, 0.0, 1.645922867122701E9, 0.0, 2022-02-27 11:47:47.122
188.0, -611.3425625971034, -3128.0595812868573, -2162.195999884129, -9410.151470917639, 108.24949839705211, 216.0743136494534, -5082.429061225541, -1772.4486318169395, -3676.7502041757352, -4673.2580272266905, -3594.1605084133757, -2696.5368028326993, -3035.3892487751546, -1864.493115483894, -8255.63916631212, -15330.055693394626, 0.015, -0.10200000000000001, 0.983, 192.0, 0.0, 0.0, 0.0, 0.0, 0.0, 0.0, 0.0, 0.0, 0.0, 1.645922867130648E9, 0.0, 2022-02-27 11:47:47.130
190.0, -912.7558365769193, -3340.2223396566324, -2326.6154320973674, -9615.340485017357, -142.93940579168867, 156.88689433180028, -5018.301906383265, -1673.117479457555, -1998.9612101270213, -4524.775388810085, -3933.3482305226603, -2751.1421145370145, -3406.2717445220646, -2116.933717362132, -8180.626711920108, -14963.554139560956, 0.015, -0.10200000000000001, 0.983, 192.0, 0.0, 0.0, 0.0, 0.0, 0.0, 0.0, 0.0, 0.0, 0.0, 1.645922867138621E9, 0.0, 2022-02-27 11:47:47.138
192.0, -333.33156506199424, -2899.445938997977, -1924.686363302036, -9151.89941548102, 383.77945229762224, 425.9124905958761, -4864.611311508574, -1486.122785344456, -2276.636931495301, -4127.786055539376, -3556.564874239549, -2593.651723104921, -3017.440797977543, -1788.6983500359477, -8030.154768246981, -14685.833714703766, 0.015, -0.10200000000000001, 0.983, 192.0, 0.0, 0.0, 0.0, 0.0, 0.0, 0.0, 0.0, 0.0, 0.0, 1.645922867145295E9, 0.0, 2022-02-27 11:47:47.145
194.0, -1001.8051864868626, -3424.9130993977906, -2434.484950838679, -9732.731846896631, -255.61454959089156, 28.185549758142205, -5200.088644038277, -1893.3492175756953, -3643.7813811041574, -4982.516763510319, -3842.466037567382, -2811.871804222084, -3288.7239204316047, -2083.4955076569927, -8391.358958644743, -15575.075516113702, 0.014499999999999999, -0.10200000000000001, 0.9864999999999999, 192.0, 0.0, 56.0, 126.0, 104.0, 15.0, 120.0, 0.0, 0.0, 0.0, 1.645922867160308E9, 0.0, 2022-02-27 11:47:47.160
196.0, -546.746021121266, -3056.913978685615, -2060.02617597892, -9316.944696539009, 190.99565637059885, 361.4053560978599, -4891.545163577219, -1469.962474103269, -1307.8229198244715, -4009.545327370802, -3715.7987017391565, -2609.23088899027, -3199.875736221759, -1910.582412550737, -7977.695224010376, -14461.891587006045, 0.014499999999999999, -0.10200000000000001, 0.9864999999999999, 192.0, 0.0, 0.0, 0.0, 0.0, 0.0, 0.0, 0.0, 0.0, 0.0, 1.645922867168294E9, 0.0, 2022-02-27 11:47:47.168
198.0, -598.2220886018382, -3117.040171270391, -2163.4700493180812, -9409.100938928239, 116.49729210106041, 221.05875266298685, -5061.329014459731, -1759.3728613105848, -3665.529628459171, -4667.424221923855, -3587.7455577547025, -2688.065491684138, -3026.850882393227, -1859.687490426003, -8262.232930926435, -15329.98863816126, 0.014499999999999999, -0.10200000000000001, 0.9864999999999999, 192.0, 0.0, 0.0, 0.0, 0.0, 0.0, 0.0, 0.0, 0.0, 0.0, 1.64592286717498E9, 0.0, 2022-02-27 11:47:47.174
200.0, -916.3097639453131, -3342.323403635431, -2338.7077258476884, -9628.215089823614, -152.95298730766623, 145.21928372613, -5030.304793155765, -1703.5158519167724, -2050.6607950521466, -4546.747153609652, -3934.0858380896857, -2747.7222976353523, -3408.2610497785868, -2129.7189151905677, -8192.473136481422, -14990.10801197386, 0.014499999999999999, -0.10200000000000001, 0.9864999999999999, 192.0, 0.0, 0.0, 0.0, 0.0, 0.0, 0.0, 0.0, 0.0, 0.0, 1.645922867182862E9, 0.0, 2022-02-27 11:47:47.182
202.0, -328.36947779291603, -2897.7025029304627, -1924.7981220243123, -9150.982993958354, 386.66282733235687, 439.92703436935363, -4854.4636195258645, -1470.0518810810902, -2217.829491833388, -4108.295334374348, -3549.0993915914764, -2583.235810188748, -3013.8421671202386, -1781.1881638989646, -8025.1256257445375, -14673.294386064337, 0.014499999999999999, -0.10200000000000001, 0.9864999999999999, 192.0, 0.0, 0.0, 0.0, 0.0, 0.0, 0.0, 0.0, 0.0, 0.0, 1.64592286719087E9, 0.0, 2022-02-27 11:47:47.190
204.0, -988.662360747142, -3406.3611514998856, -2428.986421702674, -9719.477262434633, -241.44354360622688, 53.19715180363081, -5203.419053962119, -1877.6359412236145, -3659.561712689604, -4981.443879776464, -3834.8887961970327, -2801.6123535170977, -3278.576228448895, -2056.4946003549817, -8387.737976042983, -15569.46522825542, 0.01325, -0.10200000000000001, 0.99025, 192.0, 0.0, 48.0, 126.0, 104.0, 15.5, 8.0, 0.0, 0.0, 0.0, 1.645922867198021E9, 0.0, 2022-02-27 11:47:47.198
206.0, -550.232893256294, -3054.142362373157, -2065.1447254591853, -9313.837804059722, 192.51557499355974, 368.02147245663076, -4861.951453918392, -1452.058726794568, -1293.8307277954493, -4005.1420337131067, -3714.949335449855, -2597.317409195591, -3199.3392943548315, -1915.231575397441, -7973.604854775054, -14460.461075360905, 0.01325, -0.10200000000000001, 0.99025, 192.0, 0.0, 0.0, 0.0, 0.0, 0.0, 0.0, 0.0, 0.0, 0.0, 1.645922867205527E9, 0.0, 2022-02-27 11:47:47.205
208.0, -594.4222920444361, -3108.501804888464, -2160.050232416419, -9394.125270143184, 126.2873561724849, 238.6272238048582, -5078.182229779033, -1751.1474193510319, -3632.203177476308, -4647.106486213981, -3577.3967000718953, -2679.124793902015, -3020.659449179107, -1855.5747694462264, -8251.81701801026, -15308.50861173971, 0.01325, -0.10200000000000001, 0.99025, 192.0, 0.0, 0.0, 0.0, 0.0, 0.0, 0.0, 0.0, 0.0, 0.0, 1.64592286721255E9, 0.0, 2022-02-27 11:47:47.212
210.0, -934.213511254014, -3359.7354125661154, -2351.6717376317665, -9627.94686889015, -156.6186733983366, 155.7246036201243, -5070.225008752944, -1691.043578510711, -2058.7968300338785, -4550.479894933688, -3938.489131747381, -2751.54444593721, -3415.5924219599274, -2128.646031456713, -8202.173793575024, -14989.996253251584, 0.01325, -0.10200000000000001, 0.99025, 192.0, 0.0, 0.0, 0.0, 0.0, 0.0, 0.0, 0.0, 0.0, 0.0, 1.645922867220555E9, 0.0, 2022-02-27 11:47:47.220
212.0, -351.90586470435437, -2918.891956674094, -1940.6008053542146, -9158.71669753989, 383.2206586862396, 443.7715344156664, -4859.045727139202, -1471.8176688930594, -2243.1540183012507, -4132.032886985885, -3570.2217901017416, -2608.4709296787896, -3026.180330059568, -1797.9296204959894, -8032.21112873687, -14670.790990685344, 0.01325, -0.10200000000000001, 0.99025, 192.0, 0.0, 0.0, 0.0, 0.0, 0.0, 0.0, 0.0, 0.0, 0.0, 1.645922867227299E9, 0.0, 2022-02-27 11:47:47.227
214.0, -1005.5379278108989, -3427.8635296658913, -2442.106895697939, -9730.161396284271, -244.3269186409615, 51.632529691759316, -5196.60177190325, -1880.4746127694384, -3700.8677364430114, -5002.298057353265, -3849.976223704365, -2829.79790327524, -3287.4722227421075, -2087.094138514297, -8386.151002186656, -15574.561425991229, 0.012625, -0.10400000000000001, 0.993125, 192.0, 0.0, 48.0, 126.0, 88.0, 15.5, 16.0, 0.0, 0.0, 0.0, 1.645922867235216E9, 0.0, 2022-02-27 11:47:47.235
216.0, -567.6449021869781, -3071.174391648101, -2076.991150020498, -9329.126397267151, 182.16671731075257, 366.1886294112956, -4882.135079161534, -1461.0664798100568, -1311.3768471928654, -4027.4267229350476, -3735.468236859827, -2617.7022001388314, -3214.203204417611, -1926.1168749471756, -7971.660253007442, -14465.221996929884, 0.012625, -0.10400000000000001, 0.993125, 192.0, 0.0, 0.0, 0.0, 0.0, 0.0, 0.0, 0.0, 0.0, 0.0, 1.64592286724316E9, 0.0, 2022-02-27 11:47:47.243
218.0, -579.8489546595758, -3099.6058105952516, -2152.160066623696, -9393.834697465265, 135.4292196547055, 245.69037505273522, -5069.152125019089, -1742.4525907579173, -3620.535566870638, -4641.049163466592, -3579.9671506842556, -2680.1976776358697, -3016.9043561106155, -1843.4154204625395, -8246.385544107621, -15302.495992481232, 0.012625, -0.10400000000000001, 0.993125, 192.0, 0.0, 0.0, 0.0, 0.0, 0.0, 0.0, 0.0, 0.0, 0.0, 1.645922867250158E9, 0.0, 2022-02-27 11:47:47.250
220.0, -921.7859413368633, -3347.5984153268832, -2343.8039235834985, -9636.485235272079, -163.77123162403484, 152.4836006741048, -5041.704182827972, -1683.5110406292727, -2078.4440134100932, -4557.319528737013, -3930.0625240877303, -2749.3986784695007, -3405.288267766031, -2122.7451709205116, -8197.636389450598, -15006.804765081975, 0.012625, -0.10400000000000001, 0.993125, 192.0, 0.0, 0.0, 0.0, 0.0, 0.0, 0.0, 0.0, 0.0, 0.0, 1.645922867257829E9, 0.0, 2022-02-27 11:47:47.257
222.0, -333.35391680644955, -2900.921154132027, -1927.1450551921196, -9156.772095772278, 385.32172266503846, 441.7822291591441, -4858.8669131835595, -1461.8264391215373, -2194.8742502777877, -4108.138872163162, -3553.8379614160017, -2592.735301582253, -3017.664315422096, -1787.916038980012, -8020.409407664467, -14662.09616209223, 0.012625, -0.10400000000000001, 0.993125, 192.0, 0.0, 0.0, 0.0, 0.0, 0.0, 0.0, 0.0, 0.0, 0.0, 1.645922867265777E9, 0.0, 2022-02-27 11:47:47.265
224.0, -983.8343839447957, -3398.068654306967, -2429.7910845030647, -9715.744521110597, -233.88865398033312, 50.6267011912705, -5194.701873624548, -1905.6426770261141, -3702.6558759994364, -4989.959894413936, -3826.819816448667, -2807.088530908648, -3267.936798088169, -2067.089327226797, -8384.049938207858, -15585.223208096411, 0.0113125, -0.10400000000000001, 0.9945625, 192.0, 0.0, 40.0, 126.0, 96.0, 15.5, 16.0, 0.0, 0.0, 0.0, 1.645922867279987E9, 0.0, 2022-02-27 11:47:47.279
226.0, -583.6040477280674, -3076.5388103173746, -2085.641275124702, -9327.919403066564, 161.31253973395107, 363.81934449903304, -4872.6579395124845, -1447.320156970043, -1305.2524692121112, -4020.162405987073, -3733.6800973034024, -2606.3475139555353, -3215.745474785027, -1911.0294474398434, -7978.835162977596, -14470.876988277078, 0.0113125, -0.10400000000000001, 0.9945625, 192.0, 0.0, 0.0, 0.0, 0.0, 0.0, 0.0, 0.0, 0.0, 0.0, 1.645922867287492E9, 0.0, 2022-02-27 11:47:47.287
228.0, -574.842163901587, -3088.340531389777, -2145.476895031559, -9374.075755366774, 132.14351321977534, 250.6748140662687, -5053.707069600471, -1723.2971457597191, -3606.0292847191436, -4618.228032377724, -3580.6824065068254, -2672.4639740543334, -3022.894623624638, -1843.0354408067992, -8242.831616739228, -15279.496047436722, 0.0113125, -0.10400000000000001, 0.9945625, 192.0, 0.0, 0.0, 0.0, 0.0, 0.0, 0.0, 0.0, 0.0, 0.0, 1.645922867295344E9, 0.0, 2022-02-27 11:47:47.295
230.0, -931.5760054082878, -3350.0124037280566, -2352.0293655430514, -9628.19273807916, -171.5272869500264, 150.51664716203777, -5051.9859852774125, -1684.3827586630296, -2115.9502406060983, -4554.078525790993, -3929.816654898722, -2743.54252142221, -3410.116244568377, -2117.7830836514336, -8205.884183154605, -15011.453927928678, 0.0113125, -0.10400000000000001, 0.9945625, 192.0, 0.0, 0.0, 0.0, 0.0, 0.0, 0.0, 0.0, 0.0, 0.0, 1.645922867303354E9, 0.0, 2022-02-27 11:47:47.303
232.0, -343.52396053361423, -2906.442035012488, -1939.4161628980833, -9148.792523001734, 373.4529463592704, 442.94451987082005, -4852.139038102512, -1458.8536571089815, -2180.546782081936, -4100.204002881527, -3562.868066175946, -2592.5564876266108, -3033.243481307445, -1788.072501191199, -8025.259736211269, -14644.751208394911, 0.0113125, -0.10400000000000001, 0.9945625, 192.0, 0.0, 0.0, 0.0, 0.0, 0.0, 0.0, 0.0, 0.0, 0.0, 1.645922867310107E9, 0.0, 2022-02-27 11:47:47.310
234.0, -996.5301747954101, -3414.2736690370643, -2440.3187561415143, -9717.532660667022, -246.8303140199559, 45.75402090001356, -5207.822347619814, -1898.9595054339775, -3724.3817716099948, -4990.473984536407, -3838.33096484315, -2810.8212722326844, -3282.9571703621355, -2070.93382727311, -8396.32104591382, -15580.998728394357, 0.010656249999999999, -0.10300000000000001, 0.99328125, 192.0, 0.0, 40.0, 126.0, 104.0, 15.5, 0.0, 0.0, 0.0, 0.0, 1.645922867318052E9, 0.0, 2022-02-27 11:47:47.318
236.0, -578.8878296479976, -3075.8906097281706, -2080.5003738999812, -9333.216766502472, 173.56129569545934, 356.73384150670074, -4881.196305894412, -1464.0839653115231, -1302.682018599751, -4021.5705658877573, -3737.4128386274388, -2611.9578018138172, -3221.646335321228, -1921.6688778005694, -7984.780727002708, -14468.999441742832, 0.010656249999999999, -0.10300000000000001, 0.99328125, 192.0, 0.0, 0.0, 0.0, 0.0, 0.0, 0.0, 0.0, 0.0, 0.0, 1.645922867326812E9, 0.0, 2022-02-27 11:47:47.326
238.0, -573.4116522564474, -3093.570839592319, -2139.128999606252, -9384.536371771857, 148.95202505016627, 253.44643037872677, -5063.251264482888, -1732.595471453127, -3603.0117992176774, -4629.694477283297, -3581.9788076852333, -2687.171421905926, -3018.3572195002102, -1841.8955018395784, -8242.161064405569, -15288.727317896763, 0.010656249999999999, -0.10300000000000001, 0.99328125, 192.0, 0.0, 0.0, 0.0, 0.0, 0.0, 0.0, 0.0, 0.0, 0.0, 1.645922867333019E9, 0.0, 2022-02-27 11:47:47.333
240.0, -921.9200518035951, -3340.7587815235597, -2340.5629206374792, -9634.451226526646, -155.21051349765224, 158.38446121030586, -5047.158008475067, -1683.242819695809, -2116.017295839464, -4562.751002639652, -3931.2918700327723, -2751.030355814738, -3405.24356427712, -2117.581917951336, -8201.838517408194, -15022.696855389699, 0.010656249999999999, -0.10300000000000001, 0.99328125, 192.0, 0.0, 0.0, 0.0, 0.0, 0.0, 0.0, 0.0, 0.0, 0.0, 1.645922867340565E9, 0.0, 2022-02-27 11:47:47.340
242.0, -323.7426666906675, -2887.219534780924, -1919.7242760329577, -9145.260947377796, 397.4363681598149, 455.86382816598757, -4854.4636195258645, -1453.0645552950568, -2156.47395330357, -4079.863915427198, -3544.5172839781385, -2578.1843159418486, -3016.8373008772496, -1776.3601870966181, -8014.553250617177, -14646.338182251238, 0.010656249999999999, -0.10300000000000001, 0.99328125, 192.0, 0.0, 0.0, 0.0, 0.0, 0.0, 0.0, 0.0, 0.0, 0.0, 1.645922867347613E9, 0.0, 2022-02-27 11:47:47.347
244.0, -981.889782177184, -3402.941334598224, -2426.013639690118, -9714.58223039892, -226.13259865434156, 48.12330581227611, -5201.832080105792, -1897.8642699556674, -3716.491605817271, -4973.106679094634, -3812.715865697368, -2796.672617992475, -3263.4664491971075, -2058.8638852672443, -8387.648569065163, -15585.55848426324, 0.011328125, -0.1015, 0.991640625, 192.0, 0.0, 48.0, 126.0, 112.0, 15.0, 120.0, 0.0, 0.0, 0.0, 1.64592286735508E9, 0.0, 2022-02-27 11:47:47.355
246.0, -580.7430244377881, -3077.4552318400424, -2082.489679156504, -9330.892185079121, 178.03164458652074, 359.5501613080694, -4883.587942551129, -1476.6232939509505, -1291.3049806719996, -4013.4345309060254, -3728.7403617787795, -2608.359170956513, -3216.617192818784, -1922.8535202567007, -7981.0479856786715, -14476.91195928001, 0.011328125, -0.1015, 0.991640625, 192.0, 0.0, 0.0, 0.0, 0.0, 0.0, 0.0, 0.0, 0.0, 0.0, 1.645922867363129E9, 0.0, 2022-02-27 11:47:47.363
248.0, -568.2260475428161, -3090.03926396838, -2137.0055838829976, -9371.259435565406, 161.64781590078067, 266.4551456517155, -5051.404839921575, -1721.2184335253758, -3580.414185573362, -4614.987029431704, -3575.51915353765, -2678.6554072684535, -3015.0044578319144, -1839.2579959938523, -8242.272823127845, -15279.4066404589, 0.011328125, -0.1015, 0.991640625, 192.0, 0.0, 0.0, 0.0, 0.0, 0.0, 0.0, 0.0, 0.0, 0.0, 1.645922867371053E9, 0.0, 2022-02-27 11:47:47.371
250.0, -927.8656158287068, -3344.4691711031405, -2347.0896300184286, -9631.05376136944, -147.4991616605713, 163.86063860185607, -5034.596328091184, -1674.145659702499, -2128.355458778794, -4569.054194576049, -3926.3074310192387, -2750.5386174367213, -3403.8577561208913, -2110.2952492589056, -8207.806433177762, -15026.898983347295, 0.011328125, -0.1015, 0.991640625, 192.0, 0.0, 0.0, 0.0, 0.0, 0.0, 0.0, 0.0, 0.0, 0.0, 1.645922867377695E9, 0.0, 2022-02-27 11:47:47.377
252.0, -328.16831209281827, -2890.795813893773, -1922.585299323237, -9138.175444385462, 415.0271910461415, 460.8259154350657, -4844.941776387904, -1456.7525931301825, -2137.094990860819, -4076.4888020144467, -3542.952661866267, -2578.5642955975886, -3015.2503270209227, -1772.5380387947607, -8014.374436661535, -14633.642391400623, 0.011328125, -0.1015, 0.991640625, 192.0, 0.0, 0.0, 0.0, 0.0, 0.0, 0.0, 0.0, 0.0, 0.0, 1.645922867385927E9, 0.0, 2022-02-27 11:47:47.385
