%OpenBCI Raw EEG Data
%Number of channels = 16
%Sample Rate = 125 Hz
%Board = OpenBCI_GUI$BoardCytonSerialDaisy
Sample Index, EXG Channel 0, EXG Channel 1, EXG Channel 2, EXG Channel 3, EXG Channel 4, EXG Channel 5, EXG Channel 6, EXG Channel 7, EXG Channel 8, EXG Channel 9, EXG Channel 10, EXG Channel 11, EXG Channel 12, EXG Channel 13, EXG Channel 14, EXG Channel 15, Accel Channel 0, Accel Channel 1, Accel Channel 2, Other, Other, Other, Other, Other, Other, Other, Analog Channel 0, Analog Channel 1, Analog Channel 2, Timestamp, Other, Timestamp (Formatted)
132.0, -1146.040993456959, -3485.799251294047, -1673.497459113295, -9411.157299418128, -79.81807944990152, 230.46883707867113, -4561.991043328171, -1362.2270658286889, -1516.2529368702099, -4323.766150923509, -3493.7117688312255, -2612.606002403021, -3070.9955776924585, -1784.4291668449841, -8171.015461804326, -14685.543142025846, 0.0, 0.0, 0.0, 192.0, 0.0, 0.0, 0.0, 0.0, 0.0, 0.0, 0.0, 0.0, 0.0, 1.645922598988295E9, 0.0, 2022-02-27 11:43:18.988
134.0, -633.3143273966704, -3092.0285692249026, -1335.3826207378652, -9021.141710417474, 373.6988155482788, 481.23305812276107, -4463.643367724821, -1242.1087911258687, -2434.9543374722407, -4168.957968826052, -3127.880767331215, -2494.007646323162, -2679.7953462356745, -1475.7292241727382, -8134.492711364354, -14688.404165316126, 0.0, 0.0, 0.0, 192.0, 0.0, 0.0, 0.0, 0.0, 0.0, 0.0, 0.0, 0.0, 0.0, 1.645922598988297E9, 0.0, 2022-02-27 11:43:18.988
0.0, -435.4566854782922, -1692.1164622445658, -923.4176186821006, -4629.292145883101, -54.739422171046996, 186.81588015745643, -2391.860174162409, -618.3386586116146, -1108.847690683328, -2361.6406156588337, -1810.915984024523, -1353.196961068745, -1590.5277836951952, -958.9345406215836, -4174.25533226196, -7545.412486244737, 0.007, -0.057, 0.492, 192.0, 0.0, 56.0, 126.0, 56.0, 15.0, 96.0, 0.0, 0.0, 0.0, 1.645922599082207E9, 0.0, 2022-02-27 11:43:19.082
2.0, -543.7508873642549, -3125.109151018757, -1631.7444004707816, -8996.778308961191, 181.96555161065479, 563.845105629576, -4740.4697228037985, -1148.7902580249618, -1919.4337033550387, -4025.6609351230786, -3296.8599554133366, -2429.366401358414, -2624.4077234754236, -1353.1522575798342, -8111.112786664104, -14514.507593453836, 0.007, -0.057, 0.492, 192.0, 0.0, 0.0, 0.0, 0.0, 0.0, 0.0, 0.0, 0.0, 0.0, 1.645922599089678E9, 0.0, 2022-02-27 11:43:19.089
4.0, -945.6129009262206, -3453.5903875339495, -1943.8865117891446, -9366.029127362863, -215.76138922707906, 262.7447560721345, -4977.12999309659, -1468.442555480308, -3321.6256882698167, -4698.426091483366, -3457.993681191645, -2594.8587173055075, -2738.938062064417, -1512.609602523995, -8411.47552865452, -15247.331887165534, 0.007, -0.057, 0.492, 192.0, 0.0, 0.0, 0.0, 0.0, 0.0, 0.0, 0.0, 0.0, 0.0, 1.645922599096396E9, 0.0, 2022-02-27 11:43:19.096
6.0, -731.2149681109153, -3268.2720742549986, -1756.042451386744, -9151.675898036468, 8.717180337569754, 463.686938725345, -4722.118940605991, -1181.714377607629, -1461.6252734214395, -4054.941720359531, -3416.218270804676, -2454.266244681626, -2769.448193245911, -1445.5543691580738, -8112.722112264885, -14478.00719475832, 0.007, -0.057, 0.492, 192.0, 0.0, 0.0, 0.0, 0.0, 0.0, 0.0, 0.0, 0.0, 0.0, 1.645922599104261E9, 0.0, 2022-02-27 11:43:19.104
8.0, -641.2491966783043, -3210.9845532160466, -1735.5682534656828, -9121.210470343885, 66.36232928780667, 444.39738326041504, -4836.872796639538, -1341.1717225517896, -3002.3086669813, -4371.241256146581, -3300.7268072041047, -2512.0902075875056, -2580.3747868984688, -1363.8587431739263, -8275.129887477147, -14952.802950477953, 0.01, -0.108, 0.986, 192.0, 0.0, 40.0, 126.0, 80.0, 15.0, 104.0, 0.0, 0.0, 0.0, 1.645922599112709E9, 0.0, 2022-02-27 11:43:19.112
10.0, -962.8460959012623, -3462.1064021714215, -1934.7893517958346, -9358.049554592319, -217.68363925023547, 300.0274658235867, -4865.415974308965, -1342.1551993078233, -2268.0315098800074, -4497.148632663326, -3544.7184496782365, -2571.881124005452, -2879.2399620103793, -1583.5540394251395, -8304.701245391518, -14931.881717667786, 0.01, -0.108, 0.986, 192.0, 0.0, 0.0, 0.0, 0.0, 0.0, 0.0, 0.0, 0.0, 0.0, 1.645922599120185E9, 0.0, 2022-02-27 11:43:19.120
12.0, -549.6293961560007, -3133.1334272782124, -1641.6909267533931, -9011.172832390408, 168.55450493747057, 561.6769864174112, -4736.17818786838, -1162.7377465650734, -1950.2120554699966, -4040.167217274573, -3303.230202583099, -2436.451904350746, -2627.8275403770854, -1359.7907256830604, -8124.926164737483, -14523.850622636155, 0.01, -0.108, 0.986, 192.0, 0.0, 0.0, 0.0, 0.0, 0.0, 0.0, 0.0, 0.0, 0.0, 1.645922599127906E9, 0.0, 2022-02-27 11:43:19.127
14.0, -949.2785870168909, -3455.9149689573014, -1945.3393751787396, -9371.460601265502, -213.74973222610143, 255.32397691297257, -4955.292338763755, -1465.3133112565652, -3343.4409908581965, -4708.21615555479, -3463.0004719496337, -2605.676961621876, -2741.642623143509, -1524.053695685112, -8417.175223490623, -15255.423218658356, 0.01, -0.108, 0.986, 192.0, 0.0, 0.0, 0.0, 0.0, 0.0, 0.0, 0.0, 0.0, 0.0, 1.6459225991342E9, 0.0, 2022-02-27 11:43:19.134
16.0, -743.2178548834152, -3276.3857574922754, -1758.8364194436574, -9158.068496950686, 9.611250115782036, 471.53240102915777, -4747.599929285041, -1174.584171126386, -1469.9848258477243, -4065.4917437424356, -3420.196881317721, -2467.5208291436234, -2768.5317717232433, -1455.925578585336, -8115.56078381071, -14482.231674460374, 0.012, -0.109, 0.988, 192.0, 0.0, 56.0, 126.0, 72.0, 15.0, 120.0, 0.0, 0.0, 0.0, 1.645922599149383E9, 0.0, 2022-02-27 11:43:19.149
18.0, -645.3842694025361, -3225.6696493231834, -1728.594509195627, -9119.936420909933, 80.75685271702442, 451.9299211418535, -4842.460732753365, -1316.0260100395692, -2994.4185011885766, -4373.610541058843, -3302.9843333940908, -2509.452701741779, -2573.9598362397955, -1366.6527112308397, -8271.330090919744, -14942.05176139495, 0.012, -0.109, 0.988, 192.0, 0.0, 0.0, 0.0, 0.0, 0.0, 0.0, 0.0, 0.0, 0.0, 1.64592259915738E9, 0.0, 2022-02-27 11:43:19.157
20.0, -962.3767092677009, -3460.7205940151925, -1926.4521511140051, -9350.293499266327, -196.2036128286854, 304.4754629701928, -4873.999044179803, -1339.674155673284, -2290.204440379672, -4497.260391385602, -3540.672783931826, -2572.529324594656, -2861.2021042349465, -1573.7863270981702, -8303.82952735776, -14938.900165426752, 0.012, -0.109, 0.988, 192.0, 0.0, 0.0, 0.0, 0.0, 0.0, 0.0, 0.0, 0.0, 0.0, 1.645922599164041E9, 0.0, 2022-02-27 11:43:19.164
22.0, -544.9131780759309, -3122.3151829618437, -1630.8056272036586, -9001.53923053017, 187.91111563576646, 553.4068409689476, -4704.394007252933, -1142.7776387664842, -1913.9128224745778, -4009.4335686485256, -3295.205926323644, -2426.035991434573, -2609.163833756904, -1339.0706585729909, -8112.543298309243, -14509.25493350684, 0.012, -0.109, 0.988, 192.0, 0.0, 0.0, 0.0, 0.0, 0.0, 0.0, 0.0, 0.0, 0.0, 1.645922599171871E9, 0.0, 2022-02-27 11:43:19.171
24.0, -940.7849241238742, -3452.897483455835, -1931.6154040831811, -9361.715240682988, -202.73032220963506, 252.68647106724634, -4966.155286569034, -1468.6213694359506, -3342.1669414242438, -4690.580629179553, -3447.868340953391, -2594.9481242833285, -2722.8671578010512, -1509.703875744805, -8412.66017111065, -15253.165692468368, 0.012, -0.109, 0.988, 192.0, 0.0, 0.0, 0.0, 0.0, 0.0, 0.0, 0.0, 0.0, 0.0, 1.645922599180156E9, 0.0, 2022-02-27 11:43:19.180
26.0, -749.4763433309012, -3287.427519253197, -1750.5439222507384, -9157.95673822841, 1.072883733854739, 448.107772839996, -4754.707784021829, -1191.012703301037, -1462.6758054108388, -4064.061232097296, -3416.0841603379445, -2464.9950820201734, -2767.3024257782017, -1457.445497208297, -8123.182728669969, -14494.793354844256, 0.013000000000000001, -0.1085, 0.988, 192.0, 0.0, 56.0, 126.0, 80.0, 15.0, 112.0, 0.0, 0.0, 0.0, 1.645922599187178E9, 0.0, 2022-02-27 11:43:19.187
28.0, -653.7661735732763, -3224.3285446558652, -1723.6771254154594, -9112.917973150967, 75.79476544794625, 443.7491826712111, -4826.680401167918, -1306.6829808572509, -2974.1007654787027, -4359.2830728629915, -3296.837603668881, -2503.1495098053824, -2578.4972403642228, -1367.0773943754905, -8271.955939764493, -14939.280145082492, 0.013000000000000001, -0.1085, 0.988, 192.0, 0.0, 0.0, 0.0, 0.0, 0.0, 0.0, 0.0, 0.0, 0.0, 1.645922599194592E9, 0.0, 2022-02-27 11:43:19.194
30.0, -970.4903925049773, -3464.9897772061563, -1928.0838284592426, -9353.42274349007, -205.63604898882497, 294.77480587658954, -4851.043802624203, -1341.775219652083, -2323.1285599623398, -4511.029065970071, -3543.869083388935, -2573.3116356505916, -2873.0038253073485, -1572.31111196412, -8306.958771581503, -14949.897223698763, 0.013000000000000001, -0.1085, 0.988, 192.0, 0.0, 0.0, 0.0, 0.0, 0.0, 0.0, 0.0, 0.0, 0.0, 1.645922599201942E9, 0.0, 2022-02-27 11:43:19.201
32.0, -548.8023816111543, -3130.630031899218, -1630.8950341814798, -9002.746224730758, 192.20265057118544, 560.9170271059307, -4712.641800956941, -1145.7951242679505, -1888.3200750732512, -4009.232402948428, -3295.161222834733, -2422.6385262773665, -2621.770217629697, -1338.4448097282423, -8111.850394231128, -14501.856506092134, 0.013000000000000001, -0.1085, 0.988, 192.0, 0.0, 0.0, 0.0, 0.0, 0.0, 0.0, 0.0, 0.0, 0.0, 1.645922599209552E9, 0.0, 2022-02-27 11:43:19.209
34.0, -935.4875606879665, -3451.2881578550528, -1930.4307616270498, -9360.888226138142, -190.861545903867, 262.85651479441105, -4952.699536406939, -1463.8604478669702, -3344.647985058783, -4684.255085498701, -3442.34746007293, -2590.5895341145438, -2716.832186798118, -1501.1655093628776, -8408.614505364241, -15253.21039595728, 0.013000000000000001, -0.1085, 0.988, 192.0, 0.0, 0.0, 0.0, 0.0, 0.0, 0.0, 0.0, 0.0, 0.0, 1.645922599216258E9, 0.0, 2022-02-27 11:43:19.216
36.0, -764.0943842046719, -3302.1126153603336, -1765.8995706915346, -9172.552427357725, -9.186566971131203, 441.8716361369653, -4750.192731641857, -1184.1283660088022, -1474.2093055497774, -4082.0767381282735, -3425.002506375612, -2467.587884376989, -2779.350016039612, -1462.1617152883668, -8124.300315892735, -14502.705872381435, 0.013500000000000002, -0.10925, 0.985, 192.0, 0.0, 56.0, 126.0, 72.0, 15.0, 88.0, 0.0, 0.0, 0.0, 1.645922599224289E9, 0.0, 2022-02-27 11:43:19.224
38.0, -637.8070280321871, -3208.2799921369547, -1713.3282677326522, -9108.067644604165, 84.13196612977579, 455.9085316548982, -4846.394639777499, -1315.8471960839267, -2943.478875574932, -4354.276282105003, -3294.8259466679033, -2506.725788918232, -2582.5429061106333, -1367.390318797865, -8270.748945563906, -14928.841880421864, 0.013500000000000002, -0.10925, 0.985, 192.0, 0.0, 0.0, 0.0, 0.0, 0.0, 0.0, 0.0, 0.0, 0.0, 1.645922599232134E9, 0.0, 2022-02-27 11:43:19.232
40.0, -982.5603345108432, -3476.0985942004436, -1930.9895552384326, -9363.70454593951, -211.58161301393665, 287.51048892861473, -4871.339186589621, -1351.967615123703, -2371.274217519071, -4515.879394516873, -3541.5445019655826, -2585.962723012295, -2871.28274098429, -1577.4296614443854, -8321.532108966365, -14980.541465346989, 0.013500000000000002, -0.10925, 0.985, 192.0, 0.0, 0.0, 0.0, 0.0, 0.0, 0.0, 0.0, 0.0, 0.0, 1.645922599239476E9, 0.0, 2022-02-27 11:43:19.239
42.0, -557.4078032264475, -3139.9954128259915, -1632.1690836154323, -9001.740396230269, 190.70508369267986, 564.0239195852184, -4691.161774535391, -1129.7242200045848, -1849.5397984432934, -4006.5054901248805, -3299.005722881046, -2434.3508403719475, -2624.1395025419597, -1345.1056295759238, -8108.095301162637, -14493.34049145466, 0.013500000000000002, -0.10925, 0.985, 192.0, 0.0, 0.0, 0.0, 0.0, 0.0, 0.0, 0.0, 0.0, 0.0, 1.645922599246884E9, 0.0, 2022-02-27 11:43:19.246
44.0, -933.699421131542, -3450.930529943768, -1925.7368952914353, -9349.913519610587, -172.98015033962136, 275.1052707559193, -4951.6713561619945, -1443.8779883239256, -3354.840380530403, -4679.7176813742735, -3441.8780734393686, -2584.7557288117087, -2715.2675646862467, -1489.0508638681013, -8403.697121584073, -15239.77699753964, 0.013500000000000002, -0.10925, 0.985, 192.0, 0.0, 0.0, 0.0, 0.0, 0.0, 0.0, 0.0, 0.0, 0.0, 1.64592259925484E9, 0.0, 2022-02-27 11:43:19.254
46.0, -770.1740586965154, -3315.32249633342, -1771.0181201717999, -9172.060688979709, 1.8551947897904861, 443.1903890598284, -4755.17717065539, -1189.4480811891654, -1484.379349276942, -4079.2157148379943, -3425.091913353433, -2461.977596518707, -2779.1041468506037, -1458.3619187309646, -8126.490786849355, -14507.377386972594, 0.012750000000000001, -0.106625, 0.9864999999999999, 192.0, 0.0, 48.0, 126.0, 96.0, 15.0, 112.0, 0.0, 0.0, 0.0, 1.645922599269094E9, 0.0, 2022-02-27 11:43:19.269
48.0, -652.581531117145, -3234.677402338672, -1719.4526457134064, -9111.08513010563, 91.01630342201035, 445.73848792773344, -4814.319886484133, -1330.8452166134377, -2923.1611398650575, -4347.0119651570285, -3294.267153056521, -2501.1602045488603, -2579.972455498273, -1369.4243275432977, -8262.076468715248, -14917.218973305104, 0.012750000000000001, -0.106625, 0.9864999999999999, 192.0, 0.0, 0.0, 0.0, 0.0, 0.0, 0.0, 0.0, 0.0, 0.0, 1.64592259927646E9, 0.0, 2022-02-27 11:43:19.276
50.0, -1004.4426923325888, -3501.736045090681, -1934.9011105181112, -9373.18168558856, -216.05196190499808, 278.7486051021344, -4839.353840274077, -1337.6401469278512, -2375.789269899043, -4540.220444228702, -3554.08383060501, -2595.0822347500607, -2883.0844620566922, -1601.4801384782957, -8315.854765874716, -14982.44136362569, 0.012750000000000001, -0.106625, 0.9864999999999999, 192.0, 0.0, 0.0, 0.0, 0.0, 0.0, 0.0, 0.0, 0.0, 0.0, 1.645922599284582E9, 0.0, 2022-02-27 11:43:19.284
52.0, -571.8246784001205, -3157.2286078010334, -1629.7997987031697, -9011.776329490702, 181.78673765501233, 559.4865154607911, -4697.6214286829745, -1109.6970569726298, -1880.876944169634, -4028.834882835732, -3310.159243364244, -2446.0184509776177, -2637.014107348217, -1358.382565782376, -8108.251763373824, -14499.800145602245, 0.012750000000000001, -0.106625, 0.9864999999999999, 192.0, 0.0, 0.0, 0.0, 0.0, 0.0, 0.0, 0.0, 0.0, 0.0, 1.645922599292563E9, 0.0, 2022-02-27 11:43:19.292
54.0, -933.2300344979805, -3447.6671752532934, -1922.5182440898711, -9353.109819067695, -177.83047888642298, 276.0887475119528, -4915.036846999747, -1433.2609097076547, -3363.289339934509, -4682.466945942277, -3437.8771111818687, -2596.13276673946, -2711.6912855733976, -1489.2743813126542, -8404.14415647318, -15239.978163239737, 0.012750000000000001, -0.106625, 0.9864999999999999, 192.0, 0.0, 0.0, 0.0, 0.0, 0.0, 0.0, 0.0, 0.0, 0.0, 1.645922599299063E9, 0.0, 2022-02-27 11:43:19.299
56.0, -783.3392361806913, -3316.998877167568, -1773.9238469509896, -9174.027642491776, -4.157424468687114, 452.35460428650435, -4734.099475634036, -1170.9631885246265, -1493.029474381146, -4089.072834142785, -3435.418419291785, -2476.841506581486, -2787.8883824215395, -1455.635005907417, -8119.919373979495, -14499.084889779675, 0.014375, -0.1063125, 0.98725, 192.0, 0.0, 64.0, 126.0, 88.0, 15.0, 112.0, 0.0, 0.0, 0.0, 1.645922599307053E9, 0.0, 2022-02-27 11:43:19.307
58.0, -639.9527954998965, -3216.7736550299715, -1710.8919275870237, -9098.769318910756, 102.75096926104656, 470.19129636183936, -4825.540462200697, -1282.9454282457148, -2916.76854095084, -4340.61936624281, -3298.648094969761, -2504.0212278391396, -2578.139612452938, -1357.644958215351, -8257.136733190624, -14900.075185307884, 0.014375, -0.1063125, 0.98725, 192.0, 0.0, 0.0, 0.0, 0.0, 0.0, 0.0, 0.0, 0.0, 0.0, 1.645922599315237E9, 0.0, 2022-02-27 11:43:19.315
60.0, -998.8994597076726, -3500.7972718235583, -1941.1148954766866, -9369.404240775615, -220.5446625405148, 290.8632505969108, -4876.435384325431, -1332.678059658773, -2401.4714242781906, -4544.914310564317, -3546.9089206348567, -2581.4476706323235, -2876.401290464555, -1582.0788242910892, -8329.332867781266, -14978.149828690272, 0.014375, -0.1063125, 0.98725, 192.0, 0.0, 0.0, 0.0, 0.0, 0.0, 0.0, 0.0, 0.0, 0.0, 1.645922599322348E9, 0.0, 2022-02-27 11:43:19.322
62.0, -584.1404895949947, -3163.0847648483236, -1642.9649761873457, -9019.890012727978, 172.15313579477498, 561.4534689728581, -4697.3308560050555, -1124.0021734240263, -1861.8556096381676, -4028.0525717797964, -3310.203946853155, -2437.8600642514307, -2646.6700609529094, -1359.7460221941499, -8115.449025088433, -14493.608712388124, 0.014375, -0.1063125, 0.98725, 192.0, 0.0, 0.0, 0.0, 0.0, 0.0, 0.0, 0.0, 0.0, 0.0, 1.645922599328742E9, 0.0, 2022-02-27 11:43:19.328
64.0, -950.083249817282, -3462.508733571617, -1929.939023249033, -9356.596691202723, -191.64385695980275, 276.0887475119528, -4932.918242563992, -1457.5572559305735, -3385.395215200808, -4683.986864565238, -3446.7731054750807, -2608.9626680568063, -2728.768018337252, -1510.9332216898467, -8413.263668210944, -15245.11906446446, 0.014375, -0.1063125, 0.98725, 192.0, 0.0, 0.0, 0.0, 0.0, 0.0, 0.0, 0.0, 0.0, 0.0, 1.645922599336653E9, 0.0, 2022-02-27 11:43:19.336
66.0, -794.1798322415152, -3331.639269785794, -1781.366977854607, -9179.123840227585, -19.311907209385303, 444.12916232695136, -4735.619394256997, -1194.6783893917072, -1505.7923204651263, -4116.00668621143, -3448.315375842497, -2483.7034921292657, -2804.5627837851985, -1485.2957707996097, -8129.061237461715, -14508.360863728627, 0.013187500000000001, -0.10415625, 0.987625, 192.0, 0.0, 48.0, 126.0, 104.0, 15.0, 112.0, 0.0, 0.0, 0.0, 1.645922599344876E9, 0.0, 2022-02-27 11:43:19.344
68.0, -646.3677461585696, -3223.3897713887422, -1720.2573085137974, -9095.505964220281, 92.49151855606063, 476.5838952760572, -4834.794084405195, -1282.9007247568043, -2906.4867385013986, -4351.459962303635, -3308.616972996828, -2501.7413499046984, -2596.780967328664, -1367.680891475784, -8264.535160605332, -14889.905141580719, 0.013187500000000001, -0.10415625, 0.987625, 192.0, 0.0, 0.0, 0.0, 0.0, 0.0, 0.0, 0.0, 0.0, 0.0, 1.645922599351496E9, 0.0, 2022-02-27 11:43:19.351
70.0, -1000.0617504193486, -3497.086882243977, -1942.6571658441028, -9373.00287163292, -218.06361890597572, 281.14024175885226, -4864.6783667419395, -1356.12503959239, -2422.392657088358, -4551.2845577340795, -3555.022603872133, -2590.5895341145438, -2880.245790510868, -1592.2935715071646, -8331.545690482342, -14981.703756058665, 0.013187500000000001, -0.10415625, 0.987625, 192.0, 0.0, 0.0, 0.0, 0.0, 0.0, 0.0, 0.0, 0.0, 0.0, 1.645922599359377E9, 0.0, 2022-02-27 11:43:19.359
72.0, -584.1404895949947, -3158.681471190628, -1643.65788026546, -9027.109626187043, 172.24254277259624, 548.0871257885844, -4690.4018152239105, -1121.8340542118615, -1849.4727432099276, -4027.3820194461373, -3313.780225966004, -2450.5111516131346, -2641.976194617295, -1369.0443478875575, -8108.207059884913, -14489.026604774786, 0.013187500000000001, -0.10415625, 0.987625, 192.0, 0.0, 0.0, 0.0, 0.0, 0.0, 0.0, 0.0, 0.0, 0.0, 1.645922599367429E9, 0.0, 2022-02-27 11:43:19.367
74.0, -932.6041856532319, -3450.9975851771337, -1918.8972614881113, -9347.365420742683, -172.68957766170237, 270.8360875649557, -4930.5936611406405, -1459.412450720364, -3389.6643983917716, -4705.556297964608, -3440.313451327497, -2613.544775670144, -2719.760265321763, -1508.832157711048, -8403.026569250414, -15244.694381319809, 0.013187500000000001, -0.10415625, 0.987625, 192.0, 0.0, 0.0, 0.0, 0.0, 0.0, 0.0, 0.0, 0.0, 0.0, 1.645922599374529E9, 0.0, 2022-02-27 11:43:19.374
76.0, -801.3323904672135, -3336.6684122882384, -1787.5137075798164, -9185.829363564178, -29.83957884783493, 436.6860314233341, -4747.041135673659, -1183.1001857638582, -1519.0692566715786, -4127.920166006108, -3445.387297318852, -2474.852201324964, -2806.9097169530055, -1482.1441748314114, -8131.1399496960585, -14525.772872659312, 0.01259375, -0.105078125, 0.9888125, 192.0, 0.0, 48.0, 126.0, 88.0, 15.0, 120.0, 0.0, 0.0, 0.0, 1.645922599381995E9, 0.0, 2022-02-27 11:43:19.381
78.0, -642.9255775124524, -3219.165291686689, -1713.5070816882946, -9088.867496117056, 97.05127442494327, 472.4711742962807, -4807.122624769524, -1276.6645880537735, -2872.1097555291362, -4334.115008606316, -3296.9493623911576, -2492.8677073559415, -2586.253295690214, -1362.1153071064125, -8248.173683664047, -14878.148123997227, 0.01259375, -0.105078125, 0.9888125, 192.0, 0.0, 0.0, 0.0, 0.0, 0.0, 0.0, 0.0, 0.0, 0.0, 1.64592259939697E9, 0.0, 2022-02-27 11:43:19.396
80.0, -1008.8906894791949, -3502.0489695130555, -1950.5473316368261, -9370.6112349762, -236.19088365922974, 282.8613260819109, -4871.473297056353, -1362.6964524622504, -2457.887227283386, -4569.121249809415, -3557.4142405288508, -2594.411682416401, -2884.023235323815, -1584.8504406035472, -8330.718675937494, -14995.24891319858, 0.01259375, -0.105078125, 0.9888125, 192.0, 0.0, 0.0, 0.0, 0.0, 0.0, 0.0, 0.0, 0.0, 0.0, 1.645922599404091E9, 0.0, 2022-02-27 11:43:19.404
82.0, -585.101614606573, -3163.263578803966, -1649.8046099906696, -9016.716065015324, 160.3737664668282, 556.2902160036822, -4719.995524882737, -1142.5317695774759, -1828.1268272551094, -4027.4043711905924, -3317.311801589942, -2441.972785231207, -2646.938281886373, -1358.6731384602951, -8112.073911675681, -14478.72245058089, 0.01259375, -0.105078125, 0.9888125, 192.0, 0.0, 0.0, 0.0, 0.0, 0.0, 0.0, 0.0, 0.0, 0.0, 1.645922599411677E9, 0.0, 2022-02-27 11:43:19.411
84.0, -938.4603427005223, -3452.5845590334607, -1934.8564070292007, -9351.209920788995, -189.2745720475402, 272.40070967682715, -4936.315707721199, -1458.4513257087858, -3396.749901384104, -4697.420262982877, -3440.9840036611563, -2607.107473267016, -2718.195643209892, -1494.2364685817324, -8411.699046099073, -15241.431026629332, 0.01259375, -0.105078125, 0.9888125, 192.0, 0.0, 0.0, 0.0, 0.0, 0.0, 0.0, 0.0, 0.0, 0.0, 1.645922599419558E9, 0.0, 2022-02-27 11:43:19.419
86.0, -801.8911840785962, -3329.024115684523, -1794.1521756830425, -9186.72343334239, -26.71033462409194, 440.23995879172793, -4745.029478672681, -1189.068101533425, -1513.123692646467, -4121.996953725452, -3449.1423903873433, -2483.658788640355, -2805.5462605412317, -1477.4726602402523, -8136.70553406543, -14522.464814479927, 0.012296875, -0.1045390625, 0.9904062499999999, 192.0, 0.0, 48.0, 126.0, 96.0, 15.5, 0.0, 0.0, 0.0, 0.0, 1.645922599428397E9, 0.0, 2022-02-27 11:43:19.428
88.0, -633.1355134410279, -3209.263468892988, -1710.24372699782, -9087.727557149836, 113.14453043276436, 482.0824244120627, -4799.143051998979, -1275.8152217644717, -2871.774479362307, -4334.092656861861, -3298.8939641587694, -2499.528527203623, -2582.4758508772675, -1361.645920472851, -8249.648898798097, -14879.332766453359, 0.012296875, -0.1045390625, 0.9904062499999999, 192.0, 0.0, 0.0, 0.0, 0.0, 0.0, 0.0, 0.0, 0.0, 0.0, 1.645922599434363E9, 0.0, 2022-02-27 11:43:19.434
90.0, -1000.2182126305357, -3498.048007255555, -1947.4627909019937, -9375.305101311815, -217.4824735501377, 286.0799772834751, -4864.879532442037, -1361.1988855837449, -2473.7569658466537, -4573.792764400574, -3552.183932326309, -2596.043359761639, -2870.90276132855, -1587.9349813383797, -8325.778940412873, -15008.25762847157, 0.012296875, -0.1045390625, 0.9904062499999999, 192.0, 0.0, 0.0, 0.0, 0.0, 0.0, 0.0, 0.0, 0.0, 0.0, 1.645922599442377E9, 0.0, 2022-02-27 11:43:19.442
92.0, -577.9937598697853, -3157.8991601346925, -1645.9154064554461, -9018.772425505213, 175.6847114187135, 557.4972102042688, -4708.529079977165, -1136.5191503189983, -1809.3737136571067, -4022.8446153217096, -3310.3827608087972, -2437.9718229737073, -2632.7002206683424, -1359.1872285827671, -8099.020492913783, -14483.192799471952, 0.012296875, -0.1045390625, 0.9904062499999999, 192.0, 0.0, 0.0, 0.0, 0.0, 0.0, 0.0, 0.0, 0.0, 0.0, 1.645922599449303E9, 0.0, 2022-02-27 11:43:19.449
94.0, -925.8316070832739, -3449.857646209913, -1927.614441825681, -9348.058324820797, -171.12495554983087, 270.76903233158976, -4934.0581815312125, -1456.3502617299869, -3397.152232784299, -4699.141347305936, -3430.29986981152, -2601.810109831108, -2699.889564500995, -1490.794299935615, -8399.673807582118, -15244.023828986148, 0.012296875, -0.1045390625, 0.9904062499999999, 192.0, 0.0, 0.0, 0.0, 0.0, 0.0, 0.0, 0.0, 0.0, 0.0, 1.645922599457481E9, 0.0, 2022-02-27 11:43:19.457
96.0, -813.8493673621855, -3346.5255315930285, -1800.947105997456, -9199.530982915281, -40.747230142024776, 419.63165040393477, -4759.222836401801, -1208.4470639761764, -1536.3024516466203, -4142.068820246318, -3452.383393333363, -2491.548954433078, -2808.966077442894, -1484.8710876549587, -8138.404266644034, -14540.145044344074, 0.006, -0.106, 0.988, 192.0, 0.0, 24.0, 126.0, 88.0, 15.0, 112.0, 0.0, 0.0, 0.0, 1.645922599463914E9, 0.0, 2022-02-27 11:43:19.463
98.0, -631.906167495986, -3220.1264166982673, -1704.0969972726105, -9089.918028106455, 105.90256522924486, 471.6888632403449, -4809.71542712634, -1284.353588146399, -2853.378993675589, -4332.393924283258, -3293.7307111895934, -2503.0153993386507, -2584.84513578953, -1366.451545530742, -8249.023049953348, -14875.667080362688, 0.006, -0.106, 0.988, 192.0, 0.0, 0.0, 0.0, 0.0, 0.0, 0.0, 0.0, 0.0, 0.0, 1.645922599471905E9, 0.0, 2022-02-27 11:43:19.471
100.0, -1023.3299163973232, -3521.763208122636, -1958.1245730071753, -9390.414880563603, -232.05581093499794, 262.83416304995575, -4876.211866880878, -1380.3319788374877, -2553.619748785466, -4611.455453807766, -3554.508513749661, -2610.7284558687757, -2873.115584029625, -1591.8688883625136, -8340.084056864269, -15037.583117196933, 0.006, -0.106, 0.988, 192.0, 0.0, 0.0, 0.0, 0.0, 0.0, 0.0, 0.0, 0.0, 0.0, 1.645922599480092E9, 0.0, 2022-02-27 11:43:19.480
102.0, -611.6778387639331, -3191.270314606466, -1662.276883396731, -9030.015352966233, 164.03945255749852, 547.5059804327465, -4704.706931675307, -1143.9175777337048, -1793.7051407939364, -4031.6288508926455, -3331.639269785794, -2454.042727237073, -2651.09570635506, -1375.4592985462307, -8100.361597581101, -14475.906130779522, 0.006, -0.106, 0.988, 192.0, 0.0, 0.0, 0.0, 0.0, 0.0, 0.0, 0.0, 0.0, 0.0, 1.645922599486562E9, 0.0, 2022-02-27 11:43:19.486
104.0, -960.6556249446422, -3488.950847262245, -1934.8787587736558, -9349.913519610587, -175.72941490762412, 274.4347184222601, -4933.991126297847, -1461.2229420212439, -3422.7002766967153, -4706.4280159983655, -3445.4543525522176, -2607.8227290895857, -2707.086826215604, -1488.96145689028, -8400.076138982313, -15234.837262015017, 0.006, -0.106, 0.988, 192.0, 0.0, 0.0, 0.0, 0.0, 0.0, 0.0, 0.0, 0.0, 0.0, 1.645922599494551E9, 0.0, 2022-02-27 11:43:19.494
106.0, -864.3419580867242, -3398.1357095403328, -1806.6468008335592, -9205.811823107222, -39.31671849688512, 422.09034229401857, -4758.284063134678, -1213.1856338007015, -1559.1235827354888, -4160.285491977393, -3466.73321327367, -2505.0494080840836, -2810.955382699416, -1480.9818841197355, -8137.487845121365, -14535.004143119353, 0.008, -0.106, 0.99, 192.0, 0.0, 32.0, 126.0, 88.0, 15.0, 120.0, 0.0, 0.0, 0.0, 1.645922599502606E9, 0.0, 2022-02-27 11:43:19.502
108.0, -727.1916541089599, -3296.681141457694, -1719.9667358358786, -9093.583714197126, 100.67225702670301, 472.7170434852891, -4808.664895136941, -1296.9599720191923, -2870.6121886506307, -4344.5756250114, -3314.5625370219395, -2524.361315293469, -2587.4379381463455, -1361.1541820948341, -8245.78204700733, -14868.201597714615, 0.008, -0.106, 0.99, 192.0, 0.0, 0.0, 0.0, 0.0, 0.0, 0.0, 0.0, 0.0, 0.0, 1.645922599516305E9, 0.0, 2022-02-27 11:43:19.516
110.0, -1167.1186884783135, -3644.6530991379145, -1975.2013057710299, -9399.71320625701, -245.46685760818215, 266.03046250706467, -4882.358596606087, -1384.2435341171663, -2599.1055487520157, -4637.562291331565, -3591.6571130343814, -2642.3114707841246, -2887.9571423479492, -1597.926211109902, -8342.140417354158, -15040.533547465033, 0.008, -0.106, 0.99, 192.0, 0.0, 0.0, 0.0, 0.0, 0.0, 0.0, 0.0, 0.0, 0.0, 1.64592259952434E9, 0.0, 2022-02-27 11:43:19.524
112.0, -811.6365446611101, -3378.6002848863945, -1677.8336975376246, -9043.091123472586, 151.16484775124167, 548.8023816111543, -4709.803129411117, -1153.908807505227, -1876.2054295784749, -4082.479069528469, -3375.247523218098, -2500.690817915299, -2667.0548518961496, -1378.6779497477949, -8102.753234237819, -14480.823514559688, 0.008, -0.106, 0.99, 192.0, 0.0, 0.0, 0.0, 0.0, 0.0, 0.0, 0.0, 0.0, 0.0, 1.645922599532344E9, 0.0, 2022-02-27 11:43:19.532
114.0, -1187.2576102325452, -3691.3905967939613, -1947.8874740466447, -9352.349859756216, -172.93544685071075, 282.3695877038941, -4937.88032983307, -1463.771040889149, -3513.403655696351, -4760.5415893246645, -3502.0042660241447, -2664.752622217253, -2723.4706549013445, -1502.0148756521794, -8399.874973282216, -15241.431026629332, 0.008, -0.106, 0.99, 192.0, 0.0, 0.0, 0.0, 0.0, 0.0, 0.0, 0.0, 0.0, 0.0, 1.645922599539449E9, 0.0, 2022-02-27 11:43:19.539
116.0, -1107.5736412493757, -3614.8135202900794, -1839.1238855271204, -9225.548413461258, -52.772468658979975, 427.6782784078453, -4752.651423531941, -1210.458720977154, -1671.4858021123175, -4227.564242787867, -3543.310289777552, -2564.9297314798514, -2834.402362633033, -1495.0411313821235, -8140.550034111743, -14545.509463013348, 0.01, -0.10200000000000001, 0.986, 192.0, 0.0, 40.0, 126.0, 104.0, 15.0, 104.0, 0.0, 0.0, 0.0, 1.645922599546907E9, 0.0, 2022-02-27 11:43:19.546
118.0, -905.022132995383, -3459.267730625598, -1730.337945263141, -9097.51762122126, 113.97154497761072, 503.2942299001491, -4805.736816613295, -1265.1757914037457, -2916.0085816393594, -4370.146020668271, -3372.1629824832658, -2579.03368223115, -2600.0666737635943, -1345.865588887404, -8237.86952947015, -14842.98882996903, 0.01, -0.10200000000000001, 0.986, 192.0, 0.0, 0.0, 0.0, 0.0, 0.0, 0.0, 0.0, 0.0, 0.0, 1.645922599554832E9, 0.0, 2022-02-27 11:43:19.554
120.0, -1294.0318934955471, -3766.8277343306227, -1995.1167100807083, -9408.542145316856, -248.79726753202291, 275.79817483403383, -4869.282826099733, -1383.8859062058814, -2720.609631611065, -4653.007346750182, -3630.1691687308753, -2696.223878410325, -2895.377921507111, -1594.1264145524997, -8350.030583146881, -15051.061219103483, 0.01, -0.10200000000000001, 0.986, 192.0, 0.0, 0.0, 0.0, 0.0, 0.0, 0.0, 0.0, 0.0, 0.0, 1.645922599561912E9, 0.0, 2022-02-27 11:43:19.561
122.0, -852.1155538696712, -3421.828558662958, -1687.623761609049, -9039.380733893006, 137.86555980033395, 557.2289892708051, -4696.637951926941, -1134.0828101733698, -1850.5009234548718, -4077.8522584262205, -3401.7566921420926, -2508.06689358555, -2685.226820138314, -1375.995740413158, -8102.306199348713, -14464.931424251965, 0.01, -0.10200000000000001, 0.986, 192.0, 0.0, 0.0, 0.0, 0.0, 0.0, 0.0, 0.0, 0.0, 0.0, 1.645922599568578E9, 0.0, 2022-02-27 11:43:19.568
124.0, -1135.5356735629648, -3649.6151864069925, -1934.2305581844519, -9334.423760703059, -176.71289166365764, 294.3054192430281, -4930.459550673909, -1449.8235523490373, -3499.702036345248, -4730.567900010097, -3488.123832717399, -2642.3338225285797, -2715.7593030642633, -1483.7087969432828, -8399.740862815484, -15225.293067132601, 0.01, -0.10200000000000001, 0.986, 192.0, 0.0, 0.0, 0.0, 0.0, 0.0, 0.0, 0.0, 0.0, 0.0, 1.645922599576672E9, 0.0, 2022-02-27 11:43:19.576
126.0, -1030.01308798946, -3546.238368301197, -1832.4630656794388, -9227.78358790679, -78.38756780476187, 412.14381601140695, -4761.234493402779, -1220.8969856377823, -1657.7171275278483, -4220.143463628705, -3520.7126761332365, -2545.0590306590834, -2837.866883023606, -1503.2218698527658, -8151.61414761712, -14565.491922556392, 0.012, -0.1, 0.988, 192.0, 0.0, 48.0, 126.0, 112.0, 15.0, 112.0, 0.0, 0.0, 0.0, 1.64592259958447E9, 0.0, 2022-02-27 11:43:19.584
128.0, -787.831936816208, -3363.646967845794, -1712.4118462099848, -9083.950112336888, 106.77428326300183, 494.50999432921344, -4791.208182717345, -1273.1106606853796, -2821.2371851488574, -4326.962450380618, -3329.314688362442, -2527.1776350948376, -2588.6672840913875, -1352.4593535017198, -8227.207747364968, -14827.208498383583, 0.012, -0.1, 0.988, 192.0, 0.0, 0.0, 0.0, 0.0, 0.0, 0.0, 0.0, 0.0, 0.0, 1.645922599591668E9, 0.0, 2022-02-27 11:43:19.591
130.0, -1156.9486447511488, -3646.2624247386966, -1968.29461673434, -9395.980464932974, -241.28708139503973, 280.6708551252908, -4878.447041326409, -1389.965580697725, -2632.879034623985, -4635.707096541774, -3583.051691419088, -2638.042287593161, -2875.127241030603, -1574.4345276873742, -8344.12972261068, -15045.361524267379, 0.012, -0.1, 0.988, 192.0, 0.0, 0.0, 0.0, 0.0, 0.0, 0.0, 0.0, 0.0, 0.0, 1.645922599599115E9, 0.0, 2022-02-27 11:43:19.599
132.0, -725.2023488524377, -3292.456661755641, -1667.7977642771918, -9032.69756230087, 147.92384480522213, 571.9364371223971, -4721.3366295500555, -1143.9622812226155, -1790.0618064477214, -4034.065191038274, -3350.0124037280566, -2468.459602410746, -2655.2084273348364, -1353.5992924689403, -8095.377158567568, -14461.176331183475, 0.012, -0.1, 0.988, 192.0, 0.0, 0.0, 0.0, 0.0, 0.0, 0.0, 0.0, 0.0, 0.0, 1.64592259960711E9, 0.0, 2022-02-27 11:43:19.607
134.0, -1022.3017361523791, -3534.6825164178035, -1922.227671411952, -9331.138054268129, -172.39900498378339, 302.44145422475987, -4927.956155294914, -1454.1374390289116, -3445.1637798742986, -4687.317274489078, -3447.9800996756676, -2616.539909427155, -2699.196660422881, -1459.3006919980876, -8395.47167962452, -15221.716788019752, 0.012, -0.1, 0.988, 192.0, 0.0, 0.0, 0.0, 0.0, 0.0, 0.0, 0.0, 0.0, 0.0, 1.645922599615223E9, 0.0, 2022-02-27 11:43:19.615
136.0, -921.5177204033996, -3448.0695066534886, -1819.9907922733776, -9211.712683643424, -74.45366078062783, 424.54903418410237, -4776.724252310307, -1225.389686273299, -1604.765844913226, -4173.338910739292, -3484.5028501156394, -2509.698570930788, -2826.154568929025, -1480.534849230629, -8149.1554557270365, -14560.328669587216, 0.008, -0.106, 0.99, 192.0, 0.0, 32.0, 126.0, 88.0, 15.0, 120.0, 0.0, 0.0, 0.0, 1.645922599621769E9, 0.0, 2022-02-27 11:43:19.621
138.0, -703.1635288195049, -3284.7006064296493, -1707.0027240518004, -9072.08133603112, 105.61199255132587, 501.14846243243966, -4804.641581134985, -1275.7481665311059, -2792.403434801511, -4295.13356627626, -3310.8968509312695, -2508.625687196933, -2594.679903349865, -1343.451600486231, -8238.853006226183, -14824.861565215775, 0.008, -0.106, 0.99, 192.0, 0.0, 0.0, 0.0, 0.0, 0.0, 0.0, 0.0, 0.0, 0.0, 1.645922599629769E9, 0.0, 2022-02-27 11:43:19.629
140.0, -1090.9662951190824, -3582.2023251297865, -1976.6541691606249, -9394.90758119912, -259.9507880152211, 269.47263115318196, -4893.422710111465, -1400.9402872252808, -2670.6981862423645, -4613.511814297654, -3569.305368579074, -2629.5039212112333, -2878.032967809793, -1593.6570279189382, -8358.032507661881, -15065.634556488343, 0.008, -0.106, 0.99, 192.0, 0.0, 0.0, 0.0, 0.0, 0.0, 0.0, 0.0, 0.0, 0.0, 1.645922599644851E9, 0.0, 2022-02-27 11:43:19.644
142.0, -664.7632318452874, -3239.684193096661, -1671.172877689943, -9037.078504214109, 138.9384435341887, 548.9364920778861, -4703.678751430363, -1128.785446737462, -1754.6789949749702, -4014.7309320844333, -3348.3136711494535, -2470.046576267073, -2676.6213985230206, -1365.5127722636191, -8098.84167895814, -14455.342525880638, 0.008, -0.106, 0.99, 192.0, 0.0, 0.0, 0.0, 0.0, 0.0, 0.0, 0.0, 0.0, 0.0, 1.645922599651451E9, 0.0, 2022-02-27 11:43:19.651
144.0, -950.4185259841116, -3475.919780244801, -1910.582412550737, -9321.683266363534, -160.1502490222751, 292.8972593423438, -4901.871669515571, -1443.1403807569004, -3421.1133028403883, -4676.990768550726, -3424.15314008631, -2608.0238947896833, -2689.786576007197, -1476.802107906593, -8383.781717274394, -15209.132755891414, 0.008, -0.106, 0.99, 192.0, 0.0, 0.0, 0.0, 0.0, 0.0, 0.0, 0.0, 0.0, 0.0, 1.645922599659405E9, 0.0, 2022-02-27 11:43:19.659
146.0, -866.3312633432464, -3392.5030699375952, -1813.8887660370788, -9207.354093474638, -68.39633803323962, 429.53347319763583, -4753.903121221438, -1206.6365726752965, -1590.9748185843014, -4171.260198504949, -3468.677815041282, -2498.7909196365977, -2820.633688048564, -1486.6368754669281, -8140.974717256394, -14552.21498634994, 0.008, -0.106, 0.988, 192.0, 0.0, 32.0, 126.0, 88.0, 15.0, 112.0, 0.0, 0.0, 0.0, 1.645922599667469E9, 0.0, 2022-02-27 11:43:19.667
148.0, -636.9129582539748, -3215.164329429189, -1689.4789563988397, -9055.74221083429, 121.25821367004082, 518.8286922965875, -4789.576505372108, -1265.3546053593882, -2746.78352436823, -4269.451411897113, -3290.4450047546634, -2482.6082566509554, -2576.753804296709, -1331.1804927802675, -8222.044494395792, -14805.080271372828, 0.008, -0.106, 0.988, 192.0, 0.0, 0.0, 0.0, 0.0, 0.0, 0.0, 0.0, 0.0, 0.0, 1.645922599674529E9, 0.0, 2022-02-27 11:43:19.674
150.0, -1050.6437481217085, -3547.2665485461416, -1964.6959858770356, -9387.486802039957, -257.06741298048655, 272.44541316573776, -4878.91642795997, -1389.0715109195128, -2646.3124330416244, -4603.364122314945, -3558.6212347294377, -2614.4611971928116, -2866.18654324848, -1579.731891123282, -8349.091809879757, -15059.800751185508, 0.008, -0.106, 0.988, 192.0, 0.0, 0.0, 0.0, 0.0, 0.0, 0.0, 0.0, 0.0, 0.0, 1.645922599682234E9, 0.0, 2022-02-27 11:43:19.682
152.0, -631.4814843513351, -3210.6492770492173, -1664.7802787757253, -9032.004658222755, 128.61193759583685, 549.8082101116431, -4707.277382287667, -1138.7096212756182, -1744.9336343924565, -4014.216841961961, -3335.6625837877496, -2453.685099325788, -2665.579636762099, -1363.5234670070968, -8098.3275888356675, -14455.543691580737, 0.008, -0.106, 0.988, 192.0, 0.0, 0.0, 0.0, 0.0, 0.0, 0.0, 0.0, 0.0, 0.0, 1.645922599690003E9, 0.0, 2022-02-27 11:43:19.690
154.0, -915.9744877784834, -3450.215274121198, -1910.582412550737, -9322.353818697193, -168.84507761538956, 289.07511104048626, -4934.5275681647745, -1451.9022645833809, -3418.29698303902, -4669.324120202556, -3415.7265324266596, -2604.7605400992084, -2687.7302155173084, -1473.2928840271097, -8396.924543014115, -15221.023883941638, 0.008, -0.106, 0.988, 192.0, 0.0, 0.0, 0.0, 0.0, 0.0, 0.0, 0.0, 0.0, 0.0, 1.645922599697208E9, 0.0, 2022-02-27 11:43:19.697
156.0, -847.6228532341544, -3376.588627885417, -1819.0520190062546, -9219.580497691692, -75.21362009210827, 409.1933857433064, -4778.780612800195, -1226.976660129626, -1583.2858184916759, -4171.729585138511, -3469.415422608307, -2505.585849951011, -2824.5899468171533, -1496.8739744274587, -8158.677298864997, -14571.616300537145, 0.014, -0.106, 0.984, 192.0, 0.0, 56.0, 126.0, 88.0, 15.0, 96.0, 0.0, 0.0, 0.0, 1.645922599703799E9, 0.0, 2022-02-27 11:43:19.703
158.0, -616.3270016106369, -3201.9544484561025, -1687.757872075781, -9060.36902193654, 116.36318163432857, 502.9142502444089, -4798.718368854328, -1270.2496373951003, -2726.4881404028106, -4266.389222906736, -3287.8969058867583, -2493.046521311584, -2574.6080368289995, -1353.6216442133957, -8231.879261956128, -14816.054977900385, 0.014, -0.106, 0.984, 192.0, 0.0, 0.0, 0.0, 0.0, 0.0, 0.0, 0.0, 0.0, 0.0, 1.645922599711948E9, 0.0, 2022-02-27 11:43:19.711
160.0, -1022.3017361523791, -3514.40948419684, -1965.0089102994098, -9389.14083112965, -266.32103518498366, 265.27050319558424, -4899.524736347764, -1408.2940111510768, -2670.809944964641, -4618.160977144358, -3545.70192643427, -2608.1133017675047, -2862.7443746023628, -1584.761033625726, -8366.883798466182, -15079.559693284, 0.014, -0.106, 0.984, 192.0, 0.0, 0.0, 0.0, 0.0, 0.0, 0.0, 0.0, 0.0, 0.0, 1.645922599719726E9, 0.0, 2022-02-27 11:43:19.719
162.0, -607.3416003396035, -3183.5366110249297, -1663.7520985307813, -9030.060056455142, 121.01234448103244, 548.8247333556096, -4724.6223359849855, -1169.845601301861, -1711.4730729428618, -3994.1673271855507, -3319.904603946758, -2438.687078796277, -2663.769145461219, -1362.31647280651, -8105.658961017009, -14457.912976492998, 0.014, -0.106, 0.984, 192.0, 0.0, 0.0, 0.0, 0.0, 0.0, 0.0, 0.0, 0.0, 0.0, 1.645922599726793E9, 0.0, 2022-02-27 11:43:19.726
164.0, -885.1737839190703, -3418.162872572288, -1899.0936159007092, -9311.759091825377, -163.6818246462136, 303.04495132505315, -4947.938614837959, -1448.3259854705318, -3409.3115817679864, -4650.571006604553, -3398.9850758296343, -2592.6682463488874, -2675.5932182780766, -1462.0052530771798, -8402.601886105764, -15223.460224087266, 0.013000000000000001, -0.106, 0.984, 192.0, 0.0, 48.0, 126.0, 88.0, 15.0, 96.0, 0.0, 0.0, 0.0, 1.645922599734708E9, 0.0, 2022-02-27 11:43:19.734
166.0, -845.0076991328835, -3370.799526071492, -1824.237623719886, -9228.655305940545, -90.47986155508299, 414.8930805794097, -4765.481324849287, -1220.8969856377823, -1601.9942286007679, -4173.070689805829, -3468.2307801521756, -2509.1621290638604, -2825.8192927621953, -1496.6951604718163, -8169.204970503447, -14588.871847256643, 0.013000000000000001, -0.106, 0.984, 192.0, 0.0, 0.0, 0.0, 0.0, 0.0, 0.0, 0.0, 0.0, 0.0, 1.64592259974237E9, 0.0, 2022-02-27 11:43:19.742
168.0, -600.6360770030113, -3180.563829012374, -1677.7889940487141, -9057.284481201707, 128.7460480625687, 513.3078114161267, -4787.631903604496, -1257.3973843332988, -2687.3949393504786, -4257.537932102434, -3280.9902168500685, -2488.687931142799, -2573.93748449534, -1329.1911875237452, -8219.988133905905, -14798.374748036236, 0.013000000000000001, -0.106, 0.984, 192.0, 0.0, 0.0, 0.0, 0.0, 0.0, 0.0, 0.0, 0.0, 0.0, 1.645922599750423E9, 0.0, 2022-02-27 11:43:19.750
170.0, -1015.082122693315, -3511.056722528544, -1959.7562503524127, -9383.977578160475, -257.9391310142435, 267.59508461893614, -4902.810442782694, -1415.6924385657835, -2693.8322417536074, -4618.138625399903, -3534.8166268845353, -2607.3756942004793, -2851.032060507782, -1571.1488212524441, -8364.335699598278, -15088.902722466317, 0.013000000000000001, -0.106, 0.984, 192.0, 0.0, 0.0, 0.0, 0.0, 0.0, 0.0, 0.0, 0.0, 0.0, 1.645922599764025E9, 0.0, 2022-02-27 11:43:19.764
172.0, -607.8556904620756, -3183.8271837028487, -1664.6014648200828, -9026.908460486944, 121.05704796994306, 555.552608436657, -4696.772062393673, -1134.105161917825, -1689.948343032401, -3998.0118272318637, -3324.710229004649, -2433.859101993931, -2669.2453228527693, -1358.2708070600995, -8100.182783625458, -14450.268679889285, 0.013000000000000001, -0.106, 0.984, 192.0, 0.0, 0.0, 0.0, 0.0, 0.0, 0.0, 0.0, 0.0, 0.0, 1.645922599771909E9, 0.0, 2022-02-27 11:43:19.771
174.0, -884.3914728631346, -3414.2289655481536, -1897.685456000025, -9303.60070509919, -163.6818246462136, 305.12366355939673, -4916.534413878252, -1458.1607530308668, -3401.644933419816, -4635.3941721194, -3396.056997305989, -2581.291208421136, -2677.8954479569734, -1454.472715195741, -8392.208324934045, -15209.848011713984, 0.013500000000000002, -0.10400000000000001, 0.983, 192.0, 0.0, 56.0, 126.0, 104.0, 15.0, 88.0, 0.0, 0.0, 0.0, 1.64592259977992E9, 0.0, 2022-02-27 11:43:19.779
176.0, -841.4314200200344, -3366.7538603250814, -1824.461141164439, -9220.049884325254, -87.73059698708022, 410.1545107548846, -4760.630996302485, -1236.945538156693, -1594.662856419427, -4179.9550270980635, -3466.5991028069384, -2492.845355611486, -2825.3275543841787, -1488.8944016569142, -8165.941615812972, -14585.273216399339, 0.013500000000000002, -0.10400000000000001, 0.983, 192.0, 0.0, 0.0, 0.0, 0.0, 0.0, 0.0, 0.0, 0.0, 0.0, 1.645922599786547E9, 0.0, 2022-02-27 11:43:19.786
178.0, -606.4922340503018, -3192.4773088070524, -1694.3739884345518, -9058.871455058033, 111.3787426207951, 501.75195953273294, -4769.549342340153, -1250.6918609967067, -2687.573753306121, -4248.820751764864, -3291.160260577233, -2486.5421636750893, -2586.812089301597, -1338.8247893839825, -8228.928831688027, -14794.35143403428, 0.013500000000000002, -0.10400000000000001, 0.983, 192.0, 0.0, 0.0, 0.0, 0.0, 0.0, 0.0, 0.0, 0.0, 0.0, 1.645922599794633E9, 0.0, 2022-02-27 11:43:19.794
180.0, -1037.7020880820858, -3537.767057152636, -1981.3703872406945, -9402.082491169274, -270.567866631492, 253.66994782327984, -4894.652056056507, -1409.7915780295823, -2720.699038588886, -4634.030715707626, -3554.061478860555, -2625.5029589537335, -2867.6170548936198, -1580.022463801201, -8371.175333401601, -15095.205914402713, 0.013500000000000002, -0.10400000000000001, 0.983, 192.0, 0.0, 0.0, 0.0, 0.0, 0.0, 0.0, 0.0, 0.0, 0.0, 1.645922599802556E9, 0.0, 2022-02-27 11:43:19.802
182.0, -624.7536092702877, -3208.503509581508, -1681.7229010728481, -9045.8850915295, 110.17174842020852, 539.4146489399253, -4705.444539242332, -1153.8194005274058, -1704.6334391395378, -4022.8222635772545, -3342.3010518909755, -2459.5412563730783, -2676.8896194564845, -1367.8820571758815, -8105.390740083545, -14455.320174136183, 0.013500000000000002, -0.10400000000000001, 0.983, 192.0, 0.0, 0.0, 0.0, 0.0, 0.0, 0.0, 0.0, 0.0, 0.0, 1.645922599809141E9, 0.0, 2022-02-27 11:43:19.809
184.0, -898.5401271033439, -3437.027744892567, -1905.5756217927483, -9310.015655757863, -156.50691467606006, 306.3977129933492, -4907.236088184844, -1442.9392150568028, -3423.795512175025, -4659.422297408855, -3409.9150788682796, -2597.675037106876, -2682.254038125758, -1452.3716512169424, -8392.94593250107, -15208.864534957951, 0.012750000000000001, -0.10500000000000001, 0.9824999999999999, 192.0, 0.0, 48.0, 126.0, 88.0, 15.0, 88.0, 0.0, 0.0, 0.0, 1.645922599816283E9, 0.0, 2022-02-27 11:43:19.816
186.0, -855.6247777491543, -3384.411738444774, -1836.6875453814919, -9228.320029773717, -98.34767560335108, 404.16424324086233, -4768.901141750949, -1232.1846165877125, -1623.6083654890497, -4198.194050573594, -3479.83133552448, -2508.625687196933, -2831.407228876022, -1499.4891285287297, -8165.673394879508, -14591.822277524743, 0.012750000000000001, -0.10500000000000001, 0.9824999999999999, 192.0, 0.0, 0.0, 0.0, 0.0, 0.0, 0.0, 0.0, 0.0, 0.0, 1.645922599824193E9, 0.0, 2022-02-27 11:43:19.824
188.0, -603.519452037746, -3191.6055907732953, -1692.8093663226805, -9052.992946266288, 117.97250723511068, 507.4293026243809, -4767.604740572541, -1252.8823319533267, -2675.1461833889707, -4244.931548229641, -3290.623818710306, -2481.043634539084, -2586.879144534963, -1343.6527661863288, -8222.312715329255, -14788.428221753626, 0.012750000000000001, -0.10500000000000001, 0.9824999999999999, 192.0, 0.0, 0.0, 0.0, 0.0, 0.0, 0.0, 0.0, 0.0, 0.0, 1.645922599833589E9, 0.0, 2022-02-27 11:43:19.833
190.0, -1023.9557652420718, -3521.159711022343, -1984.387872742161, -9399.601447534735, -272.11013699890816, 255.92747401326588, -4907.392550396032, -1411.3785518859092, -2747.029393557238, -4637.875215753939, -3547.0653828460436, -2615.3999704599346, -2867.885275827083, -1583.7105016363266, -8373.812839247328, -15105.08538545196, 0.012750000000000001, -0.10500000000000001, 0.9824999999999999, 192.0, 0.0, 0.0, 0.0, 0.0, 0.0, 0.0, 0.0, 0.0, 0.0, 1.64592259983973E9, 0.0, 2022-02-27 11:43:19.839
192.0, -625.714734281866, -3202.8038147454045, -1689.0989767430995, -9047.025030496721, 108.78594026397947, 532.6867738588779, -4716.240431814245, -1148.5443888359534, -1693.4575669118842, -3996.894240009098, -3332.6674500307386, -2443.269186409615, -2676.5990467785655, -1367.4350222867754, -8104.586077283154, -14453.889662491043, 0.012750000000000001, -0.10500000000000001, 0.9824999999999999, 192.0, 0.0, 0.0, 0.0, 0.0, 0.0, 0.0, 0.0, 0.0, 0.0, 1.645922599846968E9, 0.0, 2022-02-27 11:43:19.846
194.0, -908.7101708305087, -3448.0024514201227, -1919.7019242885024, -9319.828071573744, -156.57396990942598, 283.3307127154723, -4893.10978568909, -1479.3278550300427, -3434.7031634692153, -4663.803239322096, -3416.5088434825952, -2604.1793947433707, -2692.8264132531185, -1475.1927823058109, -8390.420185377621, -15211.591447781499, 0.013375000000000001, -0.10450000000000001, 0.98225, 192.0, 0.0, 56.0, 126.0, 96.0, 15.0, 88.0, 0.0, 0.0, 0.0, 1.645922599854864E9, 0.0, 2022-02-27 11:43:19.854
196.0, -870.9357227010397, -3405.3776747438524, -1851.9537868444668, -9251.431733540503, -98.39237909226169, 388.2945046775943, -4761.078031191591, -1254.7598784875727, -1647.435325078407, -4223.898556697197, -3496.1928124657647, -2529.1222368624494, -2849.892121540561, -1523.696067773827, -8169.942578070471, -14614.486946402425, 0.013375000000000001, -0.10450000000000001, 0.98225, 192.0, 0.0, 0.0, 0.0, 0.0, 0.0, 0.0, 0.0, 0.0, 0.0, 1.645922599861835E9, 0.0, 2022-02-27 11:43:19.861
198.0, -611.45432131938, -3206.0671694358794, -1696.720921602359, -9064.168818493941, 128.88015852930053, 509.8656427700094, -4756.3171096226115, -1247.652023750785, -2661.444564037867, -4256.17447569066, -3304.0795688724006, -2508.424521496835, -2597.317409195591, -1353.196961068745, -8216.613020493152, -14782.884989128708, 0.013375000000000001, -0.10450000000000001, 0.98225, 192.0, 0.0, 0.0, 0.0, 0.0, 0.0, 0.0, 0.0, 0.0, 0.0, 1.645922599869482E9, 0.0, 2022-02-27 11:43:19.869
200.0, -1028.8060937888736, -3531.4862169606945, -1987.58417219927, -9406.217563893506, -264.91287528429933, 259.2802356815619, -4884.325550118155, -1400.1803279138003, -2785.9437806539277, -4657.20947470778, -3554.5308654941164, -2629.3698107445016, -2870.0310432947927, -1584.0010743142457, -8381.680653295596, -15117.691769324752, 0.013375000000000001, -0.10450000000000001, 0.98225, 192.0, 0.0, 0.0, 0.0, 0.0, 0.0, 0.0, 0.0, 0.0, 0.0, 1.645922599877565E9, 0.0, 2022-02-27 11:43:19.877
202.0, -629.5145308392681, -3212.526823583463, -1688.7189970873592, -9056.993908523787, 109.07651294189847, 524.7519045772439, -4690.267704757179, -1151.6736330596964, -1675.307950414175, -4008.9194785260534, -3345.229130414621, -2456.076735982506, -2689.2054306513587, -1382.1201183939122, -8103.803766227218, -14456.460113103405, 0.013375000000000001, -0.10450000000000001, 0.98225, 192.0, 0.0, 0.0, 0.0, 0.0, 0.0, 0.0, 0.0, 0.0, 0.0, 1.645922599891519E9, 0.0, 2022-02-27 11:43:19.891
204.0, -880.278751883358, -3426.768294187581, -1902.0440461688097, -9304.114795221663, -139.541940634482, 294.9089163433214, -4900.955247992903, -1463.9051513558807, -3413.066674836478, -4648.11231471447, -3403.8577561208913, -2597.22800221777, -2680.0859189135936, -1464.7545176451824, -8390.576647588807, -15211.05500591457, 0.0116875, -0.10625000000000001, 0.983125, 192.0, 0.0, 40.0, 126.0, 80.0, 15.0, 96.0, 0.0, 0.0, 0.0, 1.645922599899113E9, 0.0, 2022-02-27 11:43:19.899
206.0, -876.9930454484279, -3410.4962242241177, -1858.3240340142293, -9255.276233586817, -108.94240247516662, 374.59288532649106, -4777.70772906634, -1253.7540499870838, -1679.8453545386024, -4233.6662690241665, -3503.8147573250244, -2532.8996816753966, -2852.730793086385, -1520.052733427612, -8182.593665432176, -14634.178833267551, 0.0116875, -0.10625000000000001, 0.983125, 192.0, 0.0, 0.0, 0.0, 0.0, 0.0, 0.0, 0.0, 0.0, 0.0, 1.645922599907198E9, 0.0, 2022-02-27 11:43:19.907
208.0, -603.5418037822013, -3198.3111141098875, -1693.4799186563396, -9053.663498599946, 131.51766437502675, 505.30588690112677, -4762.374432369999, -1242.779343459528, -2626.195863031848, -4245.266824396471, -3301.5761734934063, -2497.7627393916537, -2594.9257725388734, -1354.1133825914126, -8214.400197792078, -14771.887930856697, 0.0116875, -0.10625000000000001, 0.983125, 192.0, 0.0, 0.0, 0.0, 0.0, 0.0, 0.0, 0.0, 0.0, 0.0, 1.64592259991503E9, 0.0, 2022-02-27 11:43:19.915
210.0, -1019.2171954175468, -3522.8807953454016, -1979.3140267508063, -9403.647113281146, -250.87597976636647, 252.48530536714858, -4886.15839316349, -1429.8857962949035, -2794.1021673801147, -4647.642928080908, -3545.1654845673424, -2625.1900345313593, -2858.475191411399, -1583.0175975582122, -8375.04218519237, -15121.670379837798, 0.0116875, -0.10625000000000001, 0.983125, 192.0, 0.0, 0.0, 0.0, 0.0, 0.0, 0.0, 0.0, 0.0, 0.0, 1.645922599921633E9, 0.0, 2022-02-27 11:43:19.921
212.0, -632.9566994853855, -3215.2090329180996, -1685.2768284412418, -9059.02791726922, 121.70524855914695, 523.6119656100233, -4684.523306432165, -1148.589092324864, -1664.3332438866191, -4009.0759407372407, -3336.6013570548726, -2461.0611749960394, -2676.6884537563865, -1382.5000980496525, -8090.437423042945, -14452.347392123627, 0.0116875, -0.10625000000000001, 0.983125, 192.0, 0.0, 0.0, 0.0, 0.0, 0.0, 0.0, 0.0, 0.0, 0.0, 1.64592259992986E9, 0.0, 2022-02-27 11:43:19.929
214.0, -882.2904088843356, -3426.835349420947, -1901.0158659238657, -9308.205164456984, -135.51862663252672, 297.7028844002348, -4898.831832269649, -1446.2025697472775, -3412.8878608808354, -4644.82660827954, -3400.8626223638803, -2601.161909241904, -2669.9829304197947, -1473.6952154273054, -8379.646644550163, -15202.874267443929, 0.01184375, -0.106125, 0.9845625, 192.0, 0.0, 48.0, 126.0, 88.0, 15.0, 104.0, 0.0, 0.0, 0.0, 1.645922599937755E9, 0.0, 2022-02-27 11:43:19.937
216.0, -875.0037401919055, -3407.2999247670086, -1856.8711706246343, -9256.080896387208, -102.28158262748512, 385.1876121983066, -4758.239359645768, -1239.4712852801426, -1673.497459113295, -4247.211426164082, -3497.288047944075, -2534.9560421652845, -2848.8862930400724, -1524.7242480187713, -8173.563560672232, -14625.618115141167, 0.01184375, -0.106125, 0.9845625, 192.0, 0.0, 0.0, 0.0, 0.0, 0.0, 0.0, 0.0, 0.0, 0.0, 1.645922599943792E9, 0.0, 2022-02-27 11:43:19.943
218.0, -602.3348095816148, -3199.808680988393, -1700.274848970753, -9057.306832946162, 125.68385907219161, 504.0765409560849, -4762.03915620317, -1251.8541517083827, -2617.9257175833845, -4254.274577411959, -3298.066949613923, -2498.1427190473937, -2593.8528888050187, -1355.163914580812, -8207.515860499843, -14768.132837788206, 0.01184375, -0.106125, 0.9845625, 192.0, 0.0, 0.0, 0.0, 0.0, 0.0, 0.0, 0.0, 0.0, 0.0, 1.645922599951399E9, 0.0, 2022-02-27 11:43:19.951
220.0, -1039.0431927494042, -3545.0090223561556, -1996.7930909148565, -9415.940572731564, -278.30157021302824, 239.18601741624087, -4922.59173662564, -1441.128723755923, -2821.952440971427, -4677.817783095573, -3555.5366939946052, -2636.656479436932, -2866.0971362706587, -1592.6511994184496, -8386.910961498137, -15137.271897467603, 0.01184375, -0.106125, 0.9845625, 192.0, 0.0, 0.0, 0.0, 0.0, 0.0, 0.0, 0.0, 0.0, 0.0, 1.645922599959627E9, 0.0, 2022-02-27 11:43:19.959
222.0, -648.5135136262791, -3233.1574837157114, -1699.8948693150128, -9069.644995885492, 111.49050134307163, 515.9006137729423, -4687.183164022346, -1154.2440836720566, -1661.0251857072337, -4026.9796880459417, -3354.9744909971346, -2468.4148989218356, -2691.351198119068, -1395.7770342561048, -8100.719225492386, -14457.845921259634, 0.01184375, -0.106125, 0.9845625, 192.0, 0.0, 0.0, 0.0, 0.0, 0.0, 0.0, 0.0, 0.0, 0.0, 1.645922599967466E9, 0.0, 2022-02-27 11:43:19.967
224.0, -871.7850889903414, -3423.214366819187, -1896.3443513327065, -9300.31499866426, -114.2174141666191, 304.6542769258353, -4883.900866973504, -1437.217168476244, -3409.1774713012546, -4655.309576429078, -3401.220250275165, -2611.980153558273, -2662.6962617273643, -1467.4143752353639, -8372.449382835553, -15197.219276096735, 0.009921875, -0.1050625, 0.98428125, 192.0, 0.0, 32.0, 126.0, 96.0, 15.0, 96.0, 0.0, 0.0, 0.0, 1.645922599973917E9, 0.0, 2022-02-27 11:43:19.973
226.0, -879.9658274609837, -3416.620602204872, -1862.168534060542, -9261.869998201133, -100.06875992640973, 372.62593181442406, -4761.525066080698, -1247.1155818838577, -1694.8657268125687, -4259.102554214305, -3501.736045090681, -2543.36029808048, -2842.18076970348, -1529.1498934209221, -8176.066956051226, -14641.42079847107, 0.009921875, -0.1050625, 0.98428125, 192.0, 0.0, 0.0, 0.0, 0.0, 0.0, 0.0, 0.0, 0.0, 0.0, 1.645922599982145E9, 0.0, 2022-02-27 11:43:19.982
228.0, -594.1764228554276, -3194.198393130111, -1692.1388139890212, -9057.686812601902, 147.99090003858805, 499.6061920650235, -4755.221874144301, -1233.4139625327543, -2571.2776269051587, -4226.4466555651015, -3294.5353739899847, -2507.396341251891, -2582.721720066276, -1361.0871268614683, -8196.787023161296, -14753.000706791963, 0.009921875, -0.1050625, 0.98428125, 192.0, 0.0, 0.0, 0.0, 0.0, 0.0, 0.0, 0.0, 0.0, 0.0, 1.645922599990066E9, 0.0, 2022-02-27 11:43:19.990
230.0, -1038.0820677378258, -3547.378307268418, -1997.9553816265325, -9420.075645455796, -260.1966572042295, 232.3016801240063, -4895.970808979369, -1429.863444550448, -2846.405249405533, -4659.310538686578, -3553.70385094927, -2649.9557673878394, -2857.4023076775443, -1599.9825715997902, -8376.226827648501, -15145.85496733844, 0.009921875, -0.1050625, 0.98428125, 192.0, 0.0, 0.0, 0.0, 0.0, 0.0, 0.0, 0.0, 0.0, 0.0, 1.645922599997007E9, 0.0, 2022-02-27 11:43:19.997
232.0, -639.3940018885138, -3225.714352812094, -1700.0289797817445, -9070.628472641525, 119.02303922451011, 515.0512474836406, -4697.979056594259, -1153.1264964492914, -1634.247795849776, -4034.7804468608438, -3350.1465141947883, -2463.877494797408, -2685.6962067718755, -1399.6885895357836, -8086.794088696729, -14455.186063669451, 0.009921875, -0.1050625, 0.98428125, 192.0, 0.0, 0.0, 0.0, 0.0, 0.0, 0.0, 0.0, 0.0, 0.0, 1.645922600011895E9, 0.0, 2022-02-27 11:43:20.011
234.0, -860.6986237405091, -3415.346552770919, -1894.0868251427205, -9299.443280630503, -109.85882399783421, 308.67759092779056, -4893.8473932561155, -1437.574796387529, -3391.0055030590897, -4643.798428034595, -3388.2115350021763, -2596.2445254617364, -2653.4426395228675, -1462.6534536663835, -8365.967376943514, -15191.564284749544, 0.006, -0.106, 0.978, 192.0, 0.0, 24.0, 126.0, 88.0, 15.0, 72.0, 0.0, 0.0, 0.0, 1.645922600019767E9, 0.0, 2022-02-27 11:43:20.019
236.0, -871.0027779344056, -3403.7236456541596, -1867.555304474271, -9260.30537608926, -110.93170773168895, 378.5491440950804, -4772.790345286173, -1240.9912039031035, -1679.465374882862, -4254.945129745618, -3495.432853154284, -2532.519702019656, -2842.6501563370416, -1523.830178240559, -8176.581046173698, -14637.911574591588, 0.006, -0.106, 0.978, 192.0, 0.0, 0.0, 0.0, 0.0, 0.0, 0.0, 0.0, 0.0, 0.0, 1.645922600026881E9, 0.0, 2022-02-27 11:43:20.026
238.0, -582.6429227164892, -3187.8728494492593, -1693.2340494673313, -9046.64505084098, 134.66926034322506, 510.1338637034731, -4766.576560327597, -1237.2137590901566, -2560.83936224453, -4220.076408395339, -3291.4508332551522, -2491.2583817551595, -2588.622580602477, -1355.678004703284, -8206.241811065891, -14748.48565441199, 0.006, -0.106, 0.978, 192.0, 0.0, 0.0, 0.0, 0.0, 0.0, 0.0, 0.0, 0.0, 0.0, 1.645922600034302E9, 0.0, 2022-02-27 11:43:20.034
240.0, -1024.335744897812, -3528.7816558816025, -1999.2517828049401, -9410.129119173183, -274.59118063344727, 230.80411324550073, -4913.651038843517, -1445.7778866026267, -2866.7676886043178, -4679.762384863185, -3544.539635722594, -2638.7575434157307, -2851.4567436524326, -1593.634676174483, -8392.387138889688, -15155.980307576694, 0.006, -0.106, 0.978, 192.0, 0.0, 0.0, 0.0, 0.0, 0.0, 0.0, 0.0, 0.0, 0.0, 1.645922600042428E9, 0.0, 2022-02-27 11:43:20.042
242.0, -638.7010978103993, -3212.5491753279184, -1703.8511280836021, -9064.928777805422, 100.40403609323933, 517.6440498404563, -4707.590306710042, -1150.1313626922802, -1610.6890571938823, -4001.4986993668917, -3352.3369851514085, -2458.848352294964, -2696.96148597735, -1397.3640081124317, -8102.3732545820785, -14451.073342689675, 0.006, -0.106, 0.978, 192.0, 0.0, 0.0, 0.0, 0.0, 0.0, 0.0, 0.0, 0.0, 0.0, 1.645922600049521E9, 0.0, 2022-02-27 11:43:20.049
244.0, -839.8891496526181, -3389.485584436129, -1881.8157174367568, -9279.036137942809, -106.70722802963591, 318.53471023258095, -4903.749216049817, -1439.675860366328, -3378.6002848863945, -4602.045369392082, -3377.5944563859057, -2586.566220112589, -2652.034479622183, -1455.2326745072216, -8373.678728780595, -15184.299967801568, 0.008, -0.106, 0.982, 192.0, 0.0, 32.0, 126.0, 88.0, 15.0, 88.0, 0.0, 0.0, 0.0, 1.645922600057038E9, 0.0, 2022-02-27 11:43:20.057
246.0, -878.7811850048524, -3407.6799044227487, -1871.7127289429582, -9267.010899425853, -123.33692590438437, 372.69298704779, -4785.128508225502, -1247.8308377064275, -1708.4555874413954, -4249.513655842979, -3493.175326964298, -2526.618841483455, -2847.344022672656, -1538.2247016697768, -8186.169944545025, -14657.491702734436, 0.008, -0.106, 0.982, 192.0, 0.0, 0.0, 0.0, 0.0, 0.0, 0.0, 0.0, 0.0, 0.0, 1.645922600064231E9, 0.0, 2022-02-27 11:43:20.064
248.0, -574.7974604126764, -3173.5453812534074, -1681.8346597951247, -9040.453617626861, 144.16875173673054, 524.8636632995205, -4755.735964266773, -1220.1593780707572, -2518.460454757268, -4205.0783878658285, -3285.2817517854874, -2483.2117537512486, -2586.230943945759, -1349.5536267225298, -8190.863810880639, -14729.82194779181, 0.008, -0.106, 0.982, 192.0, 0.0, 0.0, 0.0, 0.0, 0.0, 0.0, 0.0, 0.0, 0.0, 1.645922600071978E9, 0.0, 2022-02-27 11:43:20.071
250.0, -1020.2006721735803, -3528.1334552923986, -1991.4063205011275, -9410.084415684274, -265.69518634023507, 243.20933141819614, -4896.328436890654, -1424.4319706478084, -2875.8872003420834, -4679.315349974078, -3532.60380418346, -2629.4145142334123, -2842.873673781595, -1586.0350830596785, -8380.831287006295, -15155.041534309572, 0.008, -0.106, 0.982, 192.0, 0.0, 0.0, 0.0, 0.0, 0.0, 0.0, 0.0, 0.0, 0.0, 1.645922600079006E9, 0.0, 2022-02-27 11:43:20.079
252.0, -628.2851848942262, -3206.916535725181, -1700.855994326591, -9064.54879814968, 103.53328031698231, 523.6790208433891, -4699.007236839204, -1148.2538161580344, -1602.8435948900694, -3996.4025016310816, -3339.194159411688, -2451.5393318580786, -2689.3395411180904, -1399.3980168578646, -8092.9855219108495, -14449.195796155429, 0.008, -0.106, 0.982, 192.0, 0.0, 0.0, 0.0, 0.0, 0.0, 0.0, 0.0, 0.0, 0.0, 1.645922600087623E9, 0.0, 2022-02-27 11:43:20.087
254.0, -840.4255915195456, -3387.4739274351514, -1888.7671099623574, -9280.377242610126, -110.4623210981275, 323.4073905238379, -4902.475166615864, -1439.9440812997916, -3379.829630831436, -4605.5769450160205, -3380.47783142064, -2586.588571857044, -2653.8449709230626, -1452.5504651725848, -8371.890589224171, -15179.449639254766, 0.008, -0.108, 0.986, 192.0, 0.0, 32.0, 126.0, 80.0, 15.0, 104.0, 0.0, 0.0, 0.0, 1.645922600094575E9, 0.0, 2022-02-27 11:43:20.094
0.0, -884.6820455410535, -3404.6624189212826, -1872.0480051097877, -9267.88261745961, -122.73342880409108, 370.5919230689911, -4779.384109900488, -1247.6296720063297, -1719.9443840914232, -4253.045231466917, -3500.5514026345495, -2524.584832738022, -2853.378993675589, -1535.2742714016763, -8189.81327889124, -14659.570414968779, 0.008, -0.108, 0.986, 192.0, 0.0, 0.0, 0.0, 0.0, 0.0, 0.0, 0.0, 0.0, 0.0, 1.645922600102628E9, 0.0, 2022-02-27 11:43:20.102
2.0, -573.3222452786262, -3166.0575468608795, -1686.9979127643005, -9033.457521612349, 149.80139133946793, 520.9297562753864, -4752.137333409469, -1221.522834482531, -2512.492538987701, -4194.215440060549, -3289.0815483428896, -2481.647131639377, -2586.3427026680356, -1363.5905222404626, -8194.641255693587, -14727.922049513109, 0.008, -0.108, 0.986, 192.0, 0.0, 0.0, 0.0, 0.0, 0.0, 0.0, 0.0, 0.0, 0.0, 1.645922600109211E9, 0.0, 2022-02-27 11:43:20.109
4.0, -1011.5728988138318, -3514.767112108125, -1992.8368321462672, -9403.647113281146, -268.533857886059, 243.58931107393636, -4903.749216049817, -1432.6797643518169, -2896.339046518689, -4659.869332297961, -3534.928385606812, -2621.2784792516804, -2842.851322037139, -1591.377149984497, -8388.095603954269, -15158.148426788859, 0.008, -0.108, 0.986, 192.0, 0.0, 0.0, 0.0, 0.0, 0.0, 0.0, 0.0, 0.0, 0.0, 1.645922600117238E9, 0.0, 2022-02-27 11:43:20.117
6.0, -638.8799117660418, -3209.486986337541, -1719.0279625687556, -9065.331109205617, 92.11153890032041, 519.2086719523278, -4706.472719487277, -1155.7863540394728, -1592.0924058070668, -3987.0594724487632, -3346.2126071706543, -2454.9367970152853, -2696.1791749214144, -1408.6292873179063, -8097.545277779732, -14445.395999598028, 0.008, -0.108, 0.986, 192.0, 0.0, 0.0, 0.0, 0.0, 0.0, 0.0, 0.0, 0.0, 0.0, 1.645922600125247E9, 0.0, 2022-02-27 11:43:20.125
8.0, -825.2040535454814, -3375.2028197291875, -1879.2452668243966, -9269.916626205042, -106.81898675191245, 327.05072487005293, -4913.87455628807, -1437.1724649873336, -3356.8743892758357, -4602.402997303367, -3373.772308084048, -2583.7946038001305, -2648.4358487648788, -1452.2822442391212, -8373.030528191392, -15168.34082226048, 0.014, -0.112, 0.988, 192.0, 0.0, 56.0, 126.0, 64.0, 15.0, 112.0, 0.0, 0.0, 0.0, 1.645922600138879E9, 0.0, 2022-02-27 11:43:20.138
10.0, -890.6276095661652, -3408.462215478685, -1873.4785167549273, -9273.917588462542, -131.3835539082949, 359.2148851412398, -4801.065302022136, -1273.9600269746813, -1745.2912623037414, -4261.516542615479, -3501.7136933462257, -2538.2864520891253, -2868.5558281607423, -1556.3519664230307, -8197.345816772679, -14680.692813479045, 0.014, -0.112, 0.988, 192.0, 0.0, 0.0, 0.0, 0.0, 0.0, 0.0, 0.0, 0.0, 0.0, 1.645922600146821E9, 0.0, 2022-02-27 11:43:20.146
12.0, -565.4991347192687, -3157.34036652331, -1675.2632469252644, -9029.747132032768, 150.13666750629753, 522.7625993207216, -4777.193638943868, -1231.6705264652403, -2462.625797107911, -4183.35249225527, -3284.1418128182668, -2479.9036955718634, -2592.2659149486917, -1374.0511386455464, -8188.561581201742, -14710.174764415595, 0.014, -0.112, 0.988, 192.0, 0.0, 0.0, 0.0, 0.0, 0.0, 0.0, 0.0, 0.0, 0.0, 1.645922600154995E9, 0.0, 2022-02-27 11:43:20.154
14.0, -1008.1530819121698, -3506.0722835150104, -1987.6288756881806, -9403.91533421461, -266.5445526295367, 238.6495755493135, -4899.68119855895, -1444.123857512934, -2909.7724449363286, -4674.956759805294, -3520.444455199773, -2620.4961681957448, -2841.1749412029912, -1597.3227140096087, -8389.257894665945, -15161.076505312503, 0.014, -0.112, 0.988, 192.0, 0.0, 0.0, 0.0, 0.0, 0.0, 0.0, 0.0, 0.0, 0.0, 1.645922600162202E9, 0.0, 2022-02-27 11:43:20.162
16.0, -628.3298883831368, -3202.781463000949, -1700.1183867595657, -9065.778144094724, 94.43612032367234, 512.6819625713781, -4697.196745538324, -1168.3703861678107, -1569.3830334404747, -3995.843708019699, -3337.6965925331824, -2442.1515991868496, -2696.939134232895, -1404.7847872715936, -8090.526830020765, -14439.67395301747, 0.014, -0.112, 0.988, 192.0, 0.0, 0.0, 0.0, 0.0, 0.0, 0.0, 0.0, 0.0, 0.0, 1.645922600169544E9, 0.0, 2022-02-27 11:43:20.169
18.0, -818.4314749755234, -3368.743165581604, -1867.398842263084, -9266.586216281203, -112.45162635464983, 324.1673498353183, -4918.6801813459615, -1432.6797643518169, -3343.1057146913668, -4580.095956336971, -3353.5663310964505, -2562.783964012142, -2645.418363263412, -1453.1316105284227, -8366.3250048548, -15164.630432680899, 0.014, -0.112, 0.988, 192.0, 0.0, 56.0, 126.0, 64.0, 15.0, 112.0, 0.0, 0.0, 0.0, 1.645922600177435E9, 0.0, 2022-02-27 11:43:20.177
20.0, -885.3302461302575, -3405.4223782327626, -1871.5115632428603, -9281.02544319933, -144.07934475890931, 350.0506699145639, -4793.264543207234, -1302.4808528996532, -1739.7703814232805, -4272.491249143034, -3497.9138967888234, -2537.079457888539, -2868.6452351385637, -1553.2003704548324, -8205.973590132427, -14689.47704904998, 0.014, -0.112, 0.988, 192.0, 0.0, 0.0, 0.0, 0.0, 0.0, 0.0, 0.0, 0.0, 0.0, 1.645922600184663E9, 0.0, 2022-02-27 11:43:20.184
22.0, -577.1443935804837, -3172.9642358975693, -1680.0688719831553, -9038.352553648061, 128.63428934029216, 509.97740149228594, -4763.089688192569, -1226.1049420958689, -2465.6656343538325, -4153.311747707337, -3283.6053709513394, -2481.267151983637, -2603.195917987337, -1384.2435341171663, -8197.681092939507, -14728.14556695766, 0.014, -0.112, 0.988, 192.0, 0.0, 0.0, 0.0, 0.0, 0.0, 0.0, 0.0, 0.0, 0.0, 1.645922600191196E9, 0.0, 2022-02-27 11:43:20.191
24.0, -1019.1501401841808, -3523.059609301044, -1992.1886315570632, -9410.374988362193, -289.9468290742432, 231.98875570163202, -4937.612108899607, -1440.3687644444424, -2939.9696516954486, -4703.365827007989, -3528.245214014675, -2626.933470598873, -2860.866828068117, -1604.408217001941, -8411.85550831026, -15178.108534587449, 0.014, -0.112, 0.988, 192.0, 0.0, 0.0, 0.0, 0.0, 0.0, 0.0, 0.0, 0.0, 0.0, 1.645922600199239E9, 0.0, 2022-02-27 11:43:20.199
26.0, -639.1034292105949, -3207.0506461919126, -1701.2136222378758, -9067.968615051344, 86.3894923197618, 508.8821660139759, -4724.912908662905, -1160.1672959527132, -1550.764030309204, -4003.2421354344056, -3340.8258367569256, -2443.0680207095174, -2711.668933828942, -1420.6545258348615, -8105.614257528098, -14441.23857512934, 0.014, -0.112, 0.988, 192.0, 0.0, 0.0, 0.0, 0.0, 0.0, 0.0, 0.0, 0.0, 0.0, 1.645922600207119E9, 0.0, 2022-02-27 11:43:20.207
28.0, -812.1953382724928, -3359.288377677009, -1860.8944846265895, -9255.20917835345, -97.4759575695941, 334.98559415168694, -4902.698684060417, -1422.934403769303, -3336.579005310417, -4569.545932954065, -3351.3088049064645, -2556.525475564656, -2645.775991174697, -1446.5825494030178, -8374.595150303263, -15157.366115732922, 0.014, -0.11, 0.99, 192.0, 0.0, 56.0, 126.0, 72.0, 15.0, 120.0, 0.0, 0.0, 0.0, 1.645922600214201E9, 0.0, 2022-02-27 11:43:20.214
30.0, -898.8530515257182, -3414.8324626484473, -1873.299702799285, -9279.349062365183, -156.17163850923043, 351.6376437708907, -4801.937020055892, -1295.1718324627677, -1757.271797331786, -4281.253132969515, -3498.0703590000107, -2534.799579954097, -2873.9425985744715, -1561.0234810141899, -8216.031875137314, -14698.23893287646, 0.014, -0.11, 0.99, 192.0, 0.0, 0.0, 0.0, 0.0, 0.0, 0.0, 0.0, 0.0, 0.0, 1.645922600221835E9, 0.0, 2022-02-27 11:43:20.221
32.0, -584.9898558842964, -3178.3733580557537, -1663.9756159753342, -9029.545966332671, 143.52055114752665, 521.4661981423138, -4745.8117897286165, -1219.4217705037322, -2424.5831280449784, -4174.858829362253, -3277.168068548211, -2475.813326336542, -2604.5146709102, -1367.0103391421246, -8195.758842916352, -14706.106746924728, 0.014, -0.11, 0.99, 192.0, 0.0, 0.0, 0.0, 0.0, 0.0, 0.0, 0.0, 0.0, 0.0, 1.645922600229793E9, 0.0, 2022-02-27 11:43:20.229
34.0, -1043.4911898960102, -3544.5172839781385, -1987.807689643823, -9412.274886640893, -278.94977080223214, 230.55824405649236, -4904.084492216646, -1445.5990726469843, -2983.2649807053785, -4706.897402631927, -3523.059609301044, -2633.840159635563, -2842.89602552605, -1597.0097895872343, -8406.222868707522, -15191.05019462707, 0.014, -0.11, 0.99, 192.0, 0.0, 0.0, 0.0, 0.0, 0.0, 0.0, 0.0, 0.0, 0.0, 1.645922600237807E9, 0.0, 2022-02-27 11:43:20.237
36.0, -720.1061511166276, -3287.427519253197, -1710.7131136313812, -9078.339824478606, 85.56247777491544, 516.5264626176909, -4695.7438821487285, -1145.0351649564702, -1562.4986961482402, -4018.195452475006, -3366.128011480333, -2462.849314552464, -2721.704867089375, -1418.6875723227945, -8101.188612125947, -14440.880947218055, 0.014, -0.11, 0.99, 192.0, 0.0, 0.0, 0.0, 0.0, 0.0, 0.0, 0.0, 0.0, 0.0, 1.645922600244368E9, 0.0, 2022-02-27 11:43:20.244
38.0, -910.1406824756483, -3460.631187037371, -1863.4425834944946, -9256.662041743046, -76.01828289249931, 343.85923670044383, -4909.135986463545, -1423.9849357587022, -3362.7976015564923, -4597.999703645672, -3380.164906998266, -2589.159022469404, -2645.172494074404, -1442.2463109786881, -8361.60878677473, -15144.75973186013, 0.01, -0.108, 0.996, 192.0, 0.0, 40.0, 126.0, 80.0, 15.5, 16.0, 0.0, 0.0, 0.0, 1.645922600259272E9, 0.0, 2022-02-27 11:43:20.259
40.0, -1081.913838614683, -3589.243124633208, -1885.32494131624, -9288.781498525323, -128.88015852930053, 364.2216758992286, -4769.214066173323, -1279.615018321874, -1817.5321003832937, -4331.745723694054, -3538.0129263416443, -2565.980263469251, -2866.611226393131, -1556.441373400852, -8210.689808212497, -14699.691796266055, 0.01, -0.108, 0.996, 192.0, 0.0, 0.0, 0.0, 0.0, 0.0, 0.0, 0.0, 0.0, 0.0, 1.645922600266318E9, 0.0, 2022-02-27 11:43:20.266
42.0, -823.4159139890569, -3406.6964276667154, -1680.6500173389934, -9033.613983823536, 167.1016415478756, 551.618701412523, -4713.938202135349, -1186.6764648767073, -2485.1563555188604, -4225.373771831247, -3344.871502503336, -2525.4118472828686, -2605.520499410689, -1361.1988855837449, -8178.480944452399, -14680.066964634296, 0.01, -0.108, 0.996, 192.0, 0.0, 0.0, 0.0, 0.0, 0.0, 0.0, 0.0, 0.0, 0.0, 1.645922600274043E9, 0.0, 2022-02-27 11:43:20.274
44.0, -1317.0765420289686, -3812.1570720859854, -2005.5326229968814, -9419.33803788877, -246.31622389748384, 265.4940206401373, -4886.8065937526935, -1419.4251798898197, -3090.665112813129, -4763.357909126033, -3599.212002660275, -2688.490174828789, -2840.0350022357707, -1581.341216724064, -8398.153888959157, -15179.293177043579, 0.01, -0.108, 0.996, 192.0, 0.0, 0.0, 0.0, 0.0, 0.0, 0.0, 0.0, 0.0, 0.0, 1.645922600282138E9, 0.0, 2022-02-27 11:43:20.282
46.0, -979.2969798203684, -3543.667917688837, -1735.6129569545935, -9096.020054342755, 101.34280936036222, 540.7110501183331, -4681.617579652975, -1117.1178361317916, -1651.4139355914517, -4090.3021800878264, -3446.34842233043, -2530.7762659521422, -2718.77678856573, -1410.7750547856158, -8091.465603287888, -14427.693417989423, 0.01, -0.10600000000000001, 0.995, 192.0, 0.0, 40.0, 126.0, 96.0, 15.5, 8.0, 0.0, 0.0, 0.0, 1.645922600290001E9, 0.0, 2022-02-27 11:43:20.290
48.0, -1144.2528539005345, -3691.9717421497994, -1883.4473947819943, -9265.938015691998, -63.83658216435697, 368.51321083464757, -4878.91642795997, -1378.2309148586887, -3438.6147187488937, -4659.131724730936, -3452.8527799669246, -2652.414459277923, -2652.8391424225742, -1441.5087034116632, -8355.529112282886, -15127.504185140633, 0.01, -0.10600000000000001, 0.995, 192.0, 0.0, 0.0, 0.0, 0.0, 0.0, 0.0, 0.0, 0.0, 0.0, 1.645922600296613E9, 0.0, 2022-02-27 11:43:20.296
50.0, -1236.3196893119443, -3745.1912456978853, -1908.3025346162958, -9301.857269031676, -124.00747823804359, 380.1137662069519, -4751.578539798086, -1246.266215594556, -1914.5163195748712, -4397.2586866925585, -3606.431616119339, -2622.194900774348, -2881.899819600561, -1555.9496350228353, -8212.500299513376, -14694.595598530246, 0.01, -0.10600000000000001, 0.995, 192.0, 0.0, 0.0, 0.0, 0.0, 0.0, 0.0, 0.0, 0.0, 0.0, 1.645922600304814E9, 0.0, 2022-02-27 11:43:20.304
52.0, -886.0678536972825, -3465.928550473279, -1688.6742935984487, -9037.145559447476, 184.1783743117302, 568.069585331629, -4692.167603035879, -1186.5423544099754, -2503.261268527659, -4239.924757471652, -3379.181430242232, -2546.26602485967, -2609.968496557295, -1353.1299058353788, -8171.127220526603, -14665.650089460623, 0.01, -0.10600000000000001, 0.995, 192.0, 0.0, 0.0, 0.0, 0.0, 0.0, 0.0, 0.0, 0.0, 0.0, 1.645922600311763E9, 0.0, 2022-02-27 11:43:20.311
54.0, -1328.45357995672, -3821.433046034938, -2012.3275533112949, -9428.211680437527, -243.3657936293833, 281.3637592034053, -4861.236198095822, -1389.9208772088143, -3125.2209097410337, -4783.608589602541, -3615.528776112649, -2706.6621430709533, -2842.4936941258543, -1572.959312553324, -8390.978978989004, -15171.3806595064, 0.01, -0.10600000000000001, 0.995, 192.0, 0.0, 0.0, 0.0, 0.0, 0.0, 0.0, 0.0, 0.0, 0.0, 1.645922600319803E9, 0.0, 2022-02-27 11:43:20.319
56.0, -935.5769676657877, -3490.314303674019, -1736.0823435881548, -9094.053100830686, 102.34863786085104, 548.2435879997716, -4670.642873125419, -1110.6358302397527, -1650.5422175576948, -4078.299293315327, -3448.382431075863, -2526.0600478720726, -2729.1032945040815, -1403.2648686486327, -8087.397585797023, -14415.176441094452, 0.011, -0.10700000000000001, 0.9924999999999999, 192.0, 0.0, 48.0, 126.0, 80.0, 15.0, 120.0, 0.0, 0.0, 0.0, 1.645922600326414E9, 0.0, 2022-02-27 11:43:20.326
58.0, -1048.2297597205354, -3593.109976423976, -1866.2812550403185, -9252.236396340895, -44.36821274378452, 383.2430104306949, -4877.731785503839, -1376.2639613466217, -3415.7935876600254, -4610.382570073912, -3434.8149221914914, -2629.7944938891524, -2646.2453778082586, -1441.1063720114676, -8347.50483602343, -15117.714121069208, 0.011, -0.10700000000000001, 0.9924999999999999, 192.0, 0.0, 0.0, 0.0, 0.0, 0.0, 0.0, 0.0, 0.0, 0.0, 1.64592260033447E9, 0.0, 2022-02-27 11:43:20.334
60.0, -1125.3656298358, -3629.856244308501, -1900.300610101296, -9297.565734096257, -127.80727479544578, 381.9019057633765, -4773.058566219636, -1255.3857273323213, -1908.1460724051087, -4370.838924746386, -3577.486107049717, -2593.092929493538, -2875.3284067307004, -1545.9360535068577, -8217.015351893348, -14710.532392326879, 0.011, -0.10700000000000001, 0.9924999999999999, 192.0, 0.0, 0.0, 0.0, 0.0, 0.0, 0.0, 0.0, 0.0, 0.0, 1.645922600342233E9, 0.0, 2022-02-27 11:43:20.342
62.0, -762.1721341815155, -3347.9783949826237, -1675.889095770013, -9032.116416945031, 184.33483652291736, 564.649768429967, -4697.464966471787, -1178.0263397725034, -2433.4120671048245, -4194.662474949655, -3340.512912334551, -2506.524623218134, -2611.2425459912474, -1331.4263619692758, -8167.886217580583, -14658.028144601363, 0.011, -0.10700000000000001, 0.9924999999999999, 192.0, 0.0, 0.0, 0.0, 0.0, 0.0, 0.0, 0.0, 0.0, 0.0, 1.645922600349571E9, 0.0, 2022-02-27 11:43:20.349
64.0, -1198.679351649207, -3702.8123382106232, -1998.7376926824682, -9420.366218133715, -245.93624424174362, 256.57567460246975, -4874.513134302275, -1420.8780432794147, -3106.557203120852, -4738.435714058365, -3573.529848281127, -2668.3065495856467, -2833.08360971017, -1585.4315859593853, -8390.554295844353, -15188.09976435897, 0.011, -0.10700000000000001, 0.9924999999999999, 192.0, 0.0, 0.0, 0.0, 0.0, 0.0, 0.0, 0.0, 0.0, 0.0, 1.645922600357013E9, 0.0, 2022-02-27 11:43:20.357
66.0, -824.2429285339033, -3401.3990642308077, -1727.2981080172192, -9094.097804319597, 95.08432091287625, 535.681907615889, -4673.503896415698, -1119.911804188705, -1593.2546965187428, -4071.0126246228965, -3413.021971347567, -2504.110634816961, -2727.203396225381, -1424.2308049477108, -8084.245989828824, -14427.604011011603, 0.0125, -0.10750000000000001, 0.99125, 192.0, 0.0, 56.0, 126.0, 80.0, 15.0, 120.0, 0.0, 0.0, 0.0, 1.645922600365043E9, 0.0, 2022-02-27 11:43:20.365
68.0, -937.6556799001313, -3497.757434577636, -1857.5417229582933, -9241.216986324429, -43.29532900992978, 385.32172266503846, -4840.136151330013, -1363.5905222404626, -3366.709156836171, -4600.950133913771, -3399.5662211854724, -2601.3630749420017, -2644.1219620850043, -1430.9810317732135, -8339.949946397537, -15101.598513316932, 0.0125, -0.10750000000000001, 0.99125, 192.0, 0.0, 0.0, 0.0, 0.0, 0.0, 0.0, 0.0, 0.0, 0.0, 1.645922600372981E9, 0.0, 2022-02-27 11:43:20.372
70.0, -1039.2890619384125, -3562.6221969869375, -1902.1781566355417, -9302.7960422988, -139.98897552358812, 365.33926312199395, -4777.037176732681, -1267.4780210826423, -1906.2685258708627, -4372.157677669248, -3558.9118074073563, -2577.133783952449, -2882.346854489667, -1556.6872425898605, -8216.165985604046, -14718.981351730985, 0.0125, -0.10750000000000001, 0.99125, 192.0, 0.0, 0.0, 0.0, 0.0, 0.0, 0.0, 0.0, 0.0, 0.0, 1.645922600386638E9, 0.0, 2022-02-27 11:43:20.386
72.0, -673.4133569494912, -3265.83573410937, -1668.3789096330297, -9030.954126233355, 175.3270835074286, 564.1356783074949, -4682.779870364651, -1171.656092602741, -2371.2295140301603, -4173.674186906122, -3319.0552376574565, -2500.3555417484695, -2605.0287610326723, -1355.2309698141778, -8163.192351244968, -14642.158406038096, 0.0125, -0.10750000000000001, 0.99125, 192.0, 0.0, 0.0, 0.0, 0.0, 0.0, 0.0, 0.0, 0.0, 0.0, 1.6459226003945E9, 0.0, 2022-02-27 11:43:20.394
74.0, -1110.9934581510377, -3622.3907616604283, -1989.4393669890603, -9415.806462264833, -252.5523606005145, 255.4133838907938, -4889.220582153867, -1447.0072325476685, -3091.045092468869, -4714.854623658017, -3551.669842203837, -2664.484401283789, -2828.836778263662, -1575.5521149101396, -8394.152926701658, -15194.693528973286, 0.0125, -0.10750000000000001, 0.99125, 192.0, 0.0, 0.0, 0.0, 0.0, 0.0, 0.0, 0.0, 0.0, 0.0, 1.645922600402625E9, 0.0, 2022-02-27 11:43:20.402
76.0, -752.8514567436525, -3330.4099238407525, -1721.1960817809204, -9092.600237441093, 86.76947197550201, 524.7966080661545, -4677.013120295182, -1111.3734378067777, -1559.4365071578632, -4018.9777635309415, -3394.1123955383773, -2475.008663536151, -2724.029448512727, -1421.2803746796103, -8089.36453930909, -14428.252211600806, 0.013250000000000001, -0.10775000000000001, 0.989625, 192.0, 0.0, 56.0, 126.0, 80.0, 15.0, 112.0, 0.0, 0.0, 0.0, 1.645922600409266E9, 0.0, 2022-02-27 11:43:20.409
78.0, -850.1038968686935, -3419.839253406436, -1837.3804494596066, -9229.63878269658, -39.42847721916166, 380.4043388848709, -4825.093427311591, -1363.456411773731, -3330.8122552409477, -4587.226162818213, -3375.6945581072046, -2579.972455498273, -2632.454351479334, -1436.1889882313, -8334.719638194996, -15104.168963929293, 0.013250000000000001, -0.10775000000000001, 0.989625, 192.0, 0.0, 0.0, 0.0, 0.0, 0.0, 0.0, 0.0, 0.0, 0.0, 1.64592260041729E9, 0.0, 2022-02-27 11:43:20.417
80.0, -978.8499449312621, -3512.0401992845777, -1894.913839687567, -9303.980684754932, -144.638138370292, 355.7727164951225, -4768.319996395111, -1258.5373233005196, -1897.551345533293, -4381.791279529486, -3541.0974670764767, -2570.7411850382314, -2873.540267174276, -1558.2742164461872, -8216.858889682162, -14739.366142674226, 0.013250000000000001, -0.10775000000000001, 0.989625, 192.0, 0.0, 0.0, 0.0, 0.0, 0.0, 0.0, 0.0, 0.0, 0.0, 1.645922600425199E9, 0.0, 2022-02-27 11:43:20.425
82.0, -609.6214782740449, -3220.461692865097, -1657.9629967168567, -9018.280687127195, 177.40579574177215, 567.264922531238, -4698.291981016634, -1167.6327786007857, -2323.2179669401607, -4162.610073400745, -3298.402225780753, -2480.618951394433, -2598.032665018161, -1354.0910308469572, -8155.23513021888, -14637.263374002383, 0.013250000000000001, -0.10775000000000001, 0.989625, 192.0, 0.0, 0.0, 0.0, 0.0, 0.0, 0.0, 0.0, 0.0, 0.0, 1.645922600431912E9, 0.0, 2022-02-27 11:43:20.431
84.0, -1052.3201289558565, -3556.5872259840044, -1979.2693232618958, -9409.302104628337, -246.8526657644112, 268.0421195080423, -4886.5160210747745, -1425.5272061261185, -3085.5689150773187, -4714.206423068813, -3520.9808970667004, -2635.4047817474348, -2810.5306995547653, -1566.9466932948462, -8394.309388912843, -15196.571075507532, 0.013250000000000001, -0.10775000000000001, 0.989625, 192.0, 0.0, 0.0, 0.0, 0.0, 0.0, 0.0, 0.0, 0.0, 0.0, 1.645922600438985E9, 0.0, 2022-02-27 11:43:20.438
86.0, -713.9817731358735, -3295.6306094682946, -1714.4235032109623, -9092.197906040896, 86.05421615293218, 529.0434395126629, -4678.711852873785, -1129.5007025600319, -1532.4579516003075, -4002.0574929782742, -3377.3485871968974, -2477.534410659601, -2715.5581373641658, -1404.1812901713004, -8084.938893906939, -14423.84891794311, 0.014625, -0.106875, 0.9878125, 192.0, 0.0, 64.0, 126.0, 88.0, 15.0, 104.0, 0.0, 0.0, 0.0, 1.645922600446849E9, 0.0, 2022-02-27 11:43:20.446
88.0, -801.5335561673113, -3382.444784932707, -1820.9072137960452, -9218.753483146846, -26.732686368547245, 398.62101061594615, -4845.500569999286, -1374.9228566793033, -3294.4012635232525, -4556.760735125629, -3354.438049130207, -2556.0560889310946, -2614.975287315284, -1420.475711879219, -8333.087960849758, -15092.031966690061, 0.014625, -0.106875, 0.9878125, 192.0, 0.0, 0.0, 0.0, 0.0, 0.0, 0.0, 0.0, 0.0, 0.0, 1.645922600454833E9, 0.0, 2022-02-27 11:43:20.454
90.0, -951.3349475067791, -3479.9654459912117, -1885.5037552718825, -9305.500603377892, -139.65369935675852, 374.4364231153039, -4776.724252310307, -1265.645178037307, -1901.4852525574272, -4364.803953743452, -3529.4522082152616, -2560.548789566611, -2857.894046055561, -1554.2732541886871, -8215.942468159494, -14741.713075842034, 0.014625, -0.106875, 0.9878125, 192.0, 0.0, 0.0, 0.0, 0.0, 0.0, 0.0, 0.0, 0.0, 0.0, 1.645922600461749E9, 0.0, 2022-02-27 11:43:20.461
92.0, -577.6361319585004, -3191.91851519567, -1646.0048134332674, -9018.683018527392, 182.72551092213524, 573.6575214454558, -4705.3104287756005, -1171.8349065583834, -2293.825422981432, -4144.303994691849, -3288.74627217606, -2483.7705473626315, -2590.0530922476164, -1341.7975713965384, -8147.65788884853, -14626.646295386112, 0.014625, -0.106875, 0.9878125, 192.0, 0.0, 0.0, 0.0, 0.0, 0.0, 0.0, 0.0, 0.0, 0.0, 1.645922600469494E9, 0.0, 2022-02-27 11:43:20.469
94.0, -1022.1005704522813, -3547.1100863349543, -1969.2780934903735, -9402.171898147095, -245.51156109709277, 268.1315264858635, -4894.517945589775, -1430.37753467292, -3091.2239064245114, -4711.188937567346, -3508.9780102942004, -2623.133674041471, -2802.3276093396676, -1560.9117222919135, -8394.80112729086, -15197.554552263566, 0.014625, -0.106875, 0.9878125, 192.0, 0.0, 0.0, 0.0, 0.0, 0.0, 0.0, 0.0, 0.0, 0.0, 1.645922600477505E9, 0.0, 2022-02-27 11:43:20.477
96.0, -676.743766873332, -3257.520885171996, -1704.3652182060741, -9087.638150172013, 86.18832661966404, 523.3437446765596, -4689.172469278868, -1143.4258393556881, -1513.861300213492, -4016.4073129185813, -3361.970587011646, -2448.566549845523, -2713.322962918635, -1409.3668948849315, -8087.263475330291, -14429.392150568028, 0.0143125, -0.10643749999999999, 0.98690625, 192.0, 0.0, 56.0, 126.0, 88.0, 15.0, 104.0, 0.0, 0.0, 0.0, 1.645922600484693E9, 0.0, 2022-02-27 11:43:20.484
98.0, -774.5773523542109, -3344.5362263365064, -1816.7944928162688, -9215.400721478549, -31.11362828178743, 391.8260803015328, -4860.029203895236, -1386.0540254180462, -3264.807553864426, -4512.638391570854, -3332.7568570085596, -2545.595472526011, -2608.13565351196, -1411.5573658415517, -8332.350353282733, -15092.747222512631, 0.0143125, -0.10643749999999999, 0.98690625, 192.0, 0.0, 0.0, 0.0, 0.0, 0.0, 0.0, 0.0, 0.0, 0.0, 1.645922600492243E9, 0.0, 2022-02-27 11:43:20.492
100.0, -923.3282117042794, -3453.5903875339495, -1882.396862792595, -9293.631827072124, -144.70519360365793, 358.45492582975936, -4796.326732197611, -1287.5051841145973, -1891.359912319173, -4342.273395332503, -3514.5212429191165, -2540.07459164555, -2859.5257234007986, -1546.5395506071509, -8227.498320042887, -14752.01723003593, 0.0143125, -0.10643749999999999, 0.98690625, 192.0, 0.0, 0.0, 0.0, 0.0, 0.0, 0.0, 0.0, 0.0, 0.0, 1.645922600507179E9, 0.0, 2022-02-27 11:43:20.507
102.0, -569.455393487858, -3177.0322533884355, -1647.2565111227646, -9008.40121607795, 175.84117362990065, 566.6837771754, -4721.403684783421, -1186.6094096433415, -2289.7350537461107, -4123.002782225941, -3277.1457168037555, -2449.013584734629, -2590.880106792463, -1338.7800858950718, -8161.80654308874, -14634.827033856754, 0.0143125, -0.10643749999999999, 0.98690625, 192.0, 0.0, 0.0, 0.0, 0.0, 0.0, 0.0, 0.0, 0.0, 0.0, 1.64592260051386E9, 0.0, 2022-02-27 11:43:20.513
104.0, -1019.1277884397256, -3542.058592088055, -1970.8650673467002, -9399.869668468198, -247.81379077598942, 261.7389275716457, -4902.296352660222, -1449.2424069931994, -3113.9109270466483, -4712.284173045656, -3503.0771497579995, -2620.295002495647, -2801.7464639838295, -1549.73585006426, -8405.66407509614, -15207.657540757364, 0.0143125, -0.10643749999999999, 0.98690625, 192.0, 0.0, 0.0, 0.0, 0.0, 0.0, 0.0, 0.0, 0.0, 0.0, 1.645922600521829E9, 0.0, 2022-02-27 11:43:20.521
106.0, -695.094549071139, -3271.64718766775, -1717.0386573122332, -9097.003531098788, 68.70926245561391, 525.7577330777327, -4698.113167060991, -1151.9642057376154, -1511.5590705345953, -4018.642487364112, -3370.5089533935734, -2453.975672003707, -2721.5931083670985, -1422.576775858018, -8095.310103334201, -14434.264830859285, 0.01615625, -0.10721875, 0.9884531249999999, 192.0, 0.0, 72.0, 126.0, 80.0, 15.0, 120.0, 0.0, 0.0, 0.0, 1.645922600529786E9, 0.0, 2022-02-27 11:43:20.529
108.0, -773.9962069983729, -3348.4030781272745, -1819.7225713399139, -9212.58440167718, -33.28174749395222, 404.3430571965048, -4864.365442319566, -1384.2211823727112, -3262.393565463253, -4517.108740461915, -3337.785999511004, -2549.127048149949, -2615.221156504292, -1409.545708840574, -8335.725466695485, -15074.016460659082, 0.01615625, -0.10721875, 0.9884531249999999, 192.0, 0.0, 0.0, 0.0, 0.0, 0.0, 0.0, 0.0, 0.0, 0.0, 1.645922600536938E9, 0.0, 2022-02-27 11:43:20.536
110.0, -931.888929830662, -3459.223027136687, -1894.1091768871759, -9305.813527800266, -162.43012695671644, 359.6395682858906, -4797.287857209189, -1289.583896348941, -1912.9293457185443, -4360.601825785855, -3517.0469900425664, -2550.334042350536, -2868.4664211829213, -1549.8699605309916, -8237.377791092133, -14754.922956815119, 0.01615625, -0.10721875, 0.9884531249999999, 192.0, 0.0, 0.0, 0.0, 0.0, 0.0, 0.0, 0.0, 0.0, 0.0, 1.645922600544416E9, 0.0, 2022-02-27 11:43:20.544
112.0, -558.6147974270341, -3167.555113739385, -1647.8376564786026, -9012.111605657532, 168.53215319301526, 562.9286841069083, -4723.974135395782, -1192.5773254129083, -2256.788582418988, -4114.643229799656, -3277.1457168037555, -2457.7084133277435, -2601.810109831108, -1345.3291470204767, -8162.454743677944, -14622.645333128612, 0.01615625, -0.10721875, 0.9884531249999999, 192.0, 0.0, 0.0, 0.0, 0.0, 0.0, 0.0, 0.0, 0.0, 0.0, 1.645922600552913E9, 0.0, 2022-02-27 11:43:20.552
114.0, -1005.5826312998095, -3531.1732925383203, -1970.3956807131387, -9402.775395247389, -258.5873316034474, 251.81475303348938, -4914.880384788559, -1459.6359681649171, -3122.181072495112, -4707.903231132416, -3494.2705624426085, -2617.61279316101, -2800.3383040831454, -1561.6940333478492, -8410.514403642941, -15217.067625173047, 0.01615625, -0.10721875, 0.9884531249999999, 192.0, 0.0, 0.0, 0.0, 0.0, 0.0, 0.0, 0.0, 0.0, 0.0, 1.6459226005595E9, 0.0, 2022-02-27 11:43:20.559
116.0, -686.2432582668374, -3264.7404986310603, -1722.62659342606, -9102.479708490338, 58.382756517262045, 509.5527183476351, -4704.058731086103, -1160.2119994416237, -1499.3997215509085, -3999.5988010881906, -3366.6868050917155, -2444.3867736323805, -2727.896300303495, -1426.0859997375012, -8100.69687374793, -14440.031580928753, 0.012, -0.106, 0.99, 192.0, 0.0, 48.0, 126.0, 88.0, 15.0, 120.0, 0.0, 0.0, 0.0, 1.645922600566706E9, 0.0, 2022-02-27 11:43:20.566
118.0, -758.8193725132195, -3334.679107031716, -1816.7721410718134, -9211.980904576887, -29.549006169915938, 395.335304181016, -4865.393622564509, -1388.3115516080322, -3251.26239672451, -4505.754054278619, -3334.902624476269, -2544.3214230920585, -2615.6681913933985, -1414.7760170431159, -8337.446551018542, -15080.02907991756, 0.012, -0.106, 0.99, 192.0, 0.0, 0.0, 0.0, 0.0, 0.0, 0.0, 0.0, 0.0, 0.0, 1.645922600573988E9, 0.0, 2022-02-27 11:43:20.573
120.0, -925.473979171989, -3459.8488759814354, -1897.3725315776505, -9316.452958160991, -161.89368508978905, 356.8456002289773, -4799.6347903769965, -1294.6353905958404, -1939.5279216203598, -4361.093564163872, -3522.2772982451083, -2551.9210162068625, -2875.507220686343, -1562.252826959232, -8243.055134183782, -14772.267910512437, 0.012, -0.106, 0.99, 192.0, 0.0, 0.0, 0.0, 0.0, 0.0, 0.0, 0.0, 0.0, 0.0, 1.64592260058209E9, 0.0, 2022-02-27 11:43:20.582
122.0, -551.6857566458889, -3168.0245003729465, -1649.1340576570103, -9014.950277203356, 179.8197841429453, 572.584637711601, -4713.960553879804, -1180.9991217850593, -2246.1938555471725, -4111.424578598092, -3276.8551441258364, -2456.233198193693, -2598.9267347963732, -1348.7936674110495, -8158.319670953712, -14617.727949348444, 0.012, -0.106, 0.99, 192.0, 0.0, 0.0, 0.0, 0.0, 0.0, 0.0, 0.0, 0.0, 0.0, 1.645922600590071E9, 0.0, 2022-02-27 11:43:20.590
124.0, -1008.7342272680078, -3534.123722806421, -1978.6211226726919, -9405.390549348658, -257.42504089177146, 258.38616590334965, -4915.193309210934, -1456.126744285434, -3146.2091977845666, -4709.758425922207, -3496.438681654773, -2618.104531539027, -2802.3946645730334, -1553.7591640662151, -8410.402644920665, -15214.541878049598, 0.012, -0.106, 0.99, 192.0, 0.0, 0.0, 0.0, 0.0, 0.0, 0.0, 0.0, 0.0, 0.0, 1.645922600596655E9, 0.0, 2022-02-27 11:43:20.596
126.0, -693.2170025368932, -3271.4683737121077, -1727.72279116187, -9110.66044696098, 52.370137258784446, 505.0153142232078, -4712.0606556011035, -1166.559894866931, -1506.4852245432407, -4010.327638426738, -3375.7839650850256, -2454.400355148358, -2740.2121114983693, -1424.2755084366213, -8102.730882493363, -14436.678819260458, 0.012, -0.10200000000000001, 0.99, 192.0, 0.0, 48.0, 126.0, 104.0, 15.0, 120.0, 0.0, 0.0, 0.0, 1.645922600604699E9, 0.0, 2022-02-27 11:43:20.604
128.0, -752.8961602325631, -3327.7277145061153, -1812.1006264806542, -9208.15875627503, -30.912462581689667, 386.30519942107196, -4872.948512190404, -1394.5700400555183, -3243.372230931787, -4502.4459960992335, -3332.645098286283, -2545.461362059279, -2618.037476305661, -1413.8148920315377, -8337.625364974185, -15072.384783313846, 0.012, -0.10200000000000001, 0.99, 192.0, 0.0, 0.0, 0.0, 0.0, 0.0, 0.0, 0.0, 0.0, 0.0, 1.645922600612777E9, 0.0, 2022-02-27 11:43:20.612
130.0, -940.8743311016955, -3468.186076663265, -1906.648505526603, -9322.644391375112, -174.70123466268, 332.5045505171479, -4816.152729529468, -1309.5887076364409, -1962.974901553977, -4379.019663217028, -3529.5863186819934, -2556.7713447536644, -2878.971741076916, -1578.7931178561591, -8257.047326212803, -14788.808201409365, 0.012, -0.10200000000000001, 0.99, 192.0, 0.0, 0.0, 0.0, 0.0, 0.0, 0.0, 0.0, 0.0, 0.0, 1.645922600620425E9, 0.0, 2022-02-27 11:43:20.620
132.0, -558.2348177712939, -3168.3821282842314, -1653.7832205037143, -9019.085349927587, 165.62642641382533, 544.6002536535566, -4735.999373912737, -1199.0816830494027, -2239.398925232759, -4116.610183311723, -3292.9260483892026, -2464.883323297897, -2614.617659403999, -1363.478763518186, -8171.261330993335, -14619.784309838333, 0.012, -0.10200000000000001, 0.99, 192.0, 0.0, 0.0, 0.0, 0.0, 0.0, 0.0, 0.0, 0.0, 0.0, 1.645922600634278E9, 0.0, 2022-02-27 11:43:20.634
134.0, -997.8042242293626, -3522.769036623125, -1971.1779917690747, -9403.870630725698, -257.536799614048, 247.36675588688325, -4936.360411210109, -1468.3531485024869, -3151.8641891317593, -4714.899327146927, -3489.3978821513515, -2617.2998687386357, -2801.701760494919, -1554.4967716332403, -8426.76412186195, -15228.019979956149, 0.012, -0.10200000000000001, 0.99, 192.0, 0.0, 0.0, 0.0, 0.0, 0.0, 0.0, 0.0, 0.0, 0.0, 1.645922600642539E9, 0.0, 2022-02-27 11:43:20.642
136.0, -696.6144676941, -3270.060213811423, -1725.7334859053476, -9114.572002240659, 46.98336684505544, 496.02991295217436, -4713.580574224064, -1169.9350082796823, -1488.2014975787995, -4024.9903827894195, -3375.359281940375, -2455.562645860034, -2745.2636057452687, -1430.064610250546, -8109.905792463517, -14440.992705940333, 0.01, -0.10200000000000001, 0.994, 192.0, 0.0, 40.0, 126.0, 104.0, 15.5, 8.0, 0.0, 0.0, 0.0, 1.645922600648926E9, 0.0, 2022-02-27 11:43:20.648
138.0, -736.9370146914739, -3313.8696329438253, -1797.9519722404448, -9197.027587536286, -10.482968149539012, 407.0476182755969, -4911.415864397987, -1406.774092528116, -3212.5715270723736, -4482.754109234108, -3328.4653220731407, -2538.4652660447678, -2614.237679748259, -1402.348447125965, -8333.847920161239, -15058.951384896207, 0.01, -0.10200000000000001, 0.994, 192.0, 0.0, 0.0, 0.0, 0.0, 0.0, 0.0, 0.0, 0.0, 0.0, 1.645922600656959E9, 0.0, 2022-02-27 11:43:20.656
140.0, -927.7762088508856, -3453.053945667022, -1894.779729220835, -9321.772673341355, -166.11816479184208, 338.919501175821, -4830.234328536311, -1338.9141963618038, -1959.6221398856808, -4363.820476987419, -3518.7233708767144, -2540.5439782791113, -2865.672453126008, -1558.3859751684638, -8255.594462823208, -14793.50206774498, 0.01, -0.10200000000000001, 0.994, 192.0, 0.0, 0.0, 0.0, 0.0, 0.0, 0.0, 0.0, 0.0, 0.0, 1.645922600665019E9, 0.0, 2022-02-27 11:43:20.665
142.0, -559.844143372076, -3168.6056457287846, -1649.022298934734, -9022.080483684598, 169.314464248951, 543.6614803864337, -4712.798263168128, -1205.876613363816, -2198.9199160241983, -4107.133043662673, -3285.46056574113, -2453.5509888590564, -2611.1754907578816, -1360.863609416915, -8156.889159308573, -14600.070071228753, 0.01, -0.10200000000000001, 0.994, 192.0, 0.0, 0.0, 0.0, 0.0, 0.0, 0.0, 0.0, 0.0, 0.0, 1.645922600672114E9, 0.0, 2022-02-27 11:43:20.672
144.0, -1005.0461894328821, -3525.831225613502, -1975.648340660136, -9411.738444773966, -263.0576804945088, 242.65053780681347, -4928.78316983976, -1457.2890349971099, -3173.2548085754884, -4716.55335623662, -3496.7516060771477, -2619.512691439711, -2798.0807778931594, -1568.019577028701, -8415.297676956377, -15226.58946831101, 0.01, -0.10200000000000001, 0.994, 192.0, 0.0, 0.0, 0.0, 0.0, 0.0, 0.0, 0.0, 0.0, 0.0, 1.645922600679921E9, 0.0, 2022-02-27 11:43:20.679
146.0, -708.7291131888763, -3279.224429038099, -1733.8471691426241, -9125.94904016841, 28.45377069160589, 482.3729970899817, -4686.669073899874, -1149.7290312920848, -1493.6776749703497, -4029.9301183140424, -3387.317465223964, -2468.973692533218, -2755.4560012168886, -1448.1695232593445, -8101.635647015053, -14431.38145582455, 0.012, -0.1, 0.986, 192.0, 0.0, 48.0, 126.0, 112.0, 15.0, 104.0, 0.0, 0.0, 0.0, 1.645922600686703E9, 0.0, 2022-02-27 11:43:20.686
148.0, -733.6513082565438, -3304.884231672792, -1795.202707672442, -9195.284151468773, -18.79781708691324, 400.5209088946473, -4878.804669237694, -1390.8820022203927, -3202.2450211340215, -4487.671493014275, -3325.649002271772, -2542.846207958008, -2618.3280489835797, -1413.256098420155, -8326.784768913361, -15046.948498123706, 0.012, -0.1, 0.986, 192.0, 0.0, 0.0, 0.0, 0.0, 0.0, 0.0, 0.0, 0.0, 0.0, 1.645922600694596E9, 0.0, 2022-02-27 11:43:20.694
150.0, -941.5895869242653, -3460.295910870542, -1904.9274212035443, -9329.41696994507, -178.85865913136712, 336.9301959192987, -4787.18486871539, -1297.384655163843, -1985.2148872870073, -4389.547334855478, -3520.1985860107648, -2553.5750452965553, -2877.8094503652396, -1563.079841504078, -8257.427305868543, -14794.418489267648, 0.012, -0.1, 0.986, 192.0, 0.0, 0.0, 0.0, 0.0, 0.0, 0.0, 0.0, 0.0, 0.0, 1.645922600701803E9, 0.0, 2022-02-27 11:43:20.701
152.0, -558.4136317269364, -3154.456991488575, -1651.6821565249154, -9019.487681327782, 171.95197009467722, 554.2785590027046, -4703.969324108282, -1171.7007960916515, -2181.6420175602457, -4099.220526125494, -3291.204964066144, -2460.6811953402994, -2614.260031492714, -1353.8898651468594, -8144.1710167135025, -14582.233379153417, 0.012, -0.1, 0.986, 192.0, 0.0, 0.0, 0.0, 0.0, 0.0, 0.0, 0.0, 0.0, 0.0, 1.645922600709403E9, 0.0, 2022-02-27 11:43:20.709
154.0, -1005.0685411773374, -3518.835129598991, -1975.8271546157785, -9406.99987494944, -253.46878212318208, 247.5232180980704, -4918.858995301604, -1469.962474103269, -3191.292666350921, -4708.573783466075, -3496.1704607213096, -2612.3824849584685, -2790.2353155893466, -1570.9476555523463, -8409.307409442355, -15221.180346152825, 0.012, -0.1, 0.986, 192.0, 0.0, 0.0, 0.0, 0.0, 0.0, 0.0, 0.0, 0.0, 0.0, 1.645922600717202E9, 0.0, 2022-02-27 11:43:20.717
156.0, -705.7786829207759, -3268.517943444007, -1734.6741836874705, -9127.178386113452, 42.51301795399403, 487.3797878479705, -4709.601963711019, -1180.9544182961486, -1483.5523347320957, -4016.384961174126, -3388.591514657917, -2451.8299045359977, -2744.570701667154, -1433.3950201743867, -8099.713396991897, -14439.986877439844, 0.012, -0.1, 0.992, 192.0, 0.0, 48.0, 126.0, 112.0, 15.5, 0.0, 0.0, 0.0, 0.0, 1.645922600725302E9, 0.0, 2022-02-27 11:43:20.725
158.0, -730.8796919440856, -3301.8443944268697, -1797.884917007079, -9193.00427353433, -7.711351837080937, 398.1292722379294, -4843.399506020487, -1370.7207287217057, -3182.776651713449, -4478.015539409583, -3325.8501679718697, -2531.4021147968906, -2605.3416854550464, -1406.4388163612864, -8316.212393786001, -15040.555899209488, 0.012, -0.1, 0.992, 192.0, 0.0, 0.0, 0.0, 0.0, 0.0, 0.0, 0.0, 0.0, 0.0, 1.645922600731883E9, 0.0, 2022-02-27 11:43:20.731
160.0, -940.1367235346704, -3461.25703588212, -1911.9682207069661, -9330.75807461239, -183.70898767816874, 322.1109893454301, -4800.61826713303, -1313.9920012941363, -2008.706570709535, -4403.3607129288575, -3527.9769930812113, -2549.618786527966, -2877.407118965044, -1571.5288009081842, -8253.985137222426, -14806.711948718066, 0.012, -0.1, 0.992, 192.0, 0.0, 0.0, 0.0, 0.0, 0.0, 0.0, 0.0, 0.0, 0.0, 1.645922600739764E9, 0.0, 2022-02-27 11:43:20.739
162.0, -553.8538758580537, -3154.166418810656, -1653.1350199145104, -9020.158233661441, 167.52632469252643, 552.3786607240035, -4707.210327054301, -1186.8776305768051, -2147.510903776992, -4082.032034639363, -3284.812365151926, -2442.3751166314028, -2611.622525646988, -1351.3641180234097, -8148.440199904467, -14579.797039007788, 0.012, -0.1, 0.992, 192.0, 0.0, 0.0, 0.0, 0.0, 0.0, 0.0, 0.0, 0.0, 0.0, 1.64592260075407E9, 0.0, 2022-02-27 11:43:20.754
164.0, -1001.2463928754798, -3513.358952207441, -1979.6716546620912, -9410.57615406229, -253.44643037872677, 246.8526657644112, -4929.230204728867, -1471.3929857484086, -3207.900012481214, -4719.07910336007, -3485.352216404941, -2612.360133214013, -2790.9282196674612, -1549.1100012195113, -8419.075121769325, -15225.695398532796, 0.012, -0.1, 0.992, 192.0, 0.0, 0.0, 0.0, 0.0, 0.0, 0.0, 0.0, 0.0, 0.0, 1.645922600761642E9, 0.0, 2022-02-27 11:43:20.761
166.0, -718.8097499382199, -3278.129193559789, -1747.884064660557, -9133.503929794304, 30.35366897030699, 483.3564738460152, -4711.077178845069, -1178.5851333838862, -1492.2918668141208, -4039.675478896556, -3392.905401337791, -2456.8366952939864, -2761.468620475366, -1439.47469466623, -8110.50928956381, -14441.707961762902, 0.006, -0.106, 0.992, 192.0, 0.0, 24.0, 126.0, 88.0, 15.5, 0.0, 0.0, 0.0, 0.0, 1.645922600769485E9, 0.0, 2022-02-27 11:43:20.769
168.0, -716.6639824705104, -3287.4945744865627, -1788.787757013769, -9182.633064107069, -2.9951337570111463, 404.54422289660255, -4866.622968509551, -1370.0725281325017, -3174.8417824318153, -4469.521876516566, -3322.8550342148587, -2527.2223385837483, -2609.968496557295, -1397.319304623521, -8321.330943266266, -15028.016570570062, 0.006, -0.106, 0.992, 192.0, 0.0, 0.0, 0.0, 0.0, 0.0, 0.0, 0.0, 0.0, 0.0, 1.645922600777557E9, 0.0, 2022-02-27 11:43:20.777
170.0, -933.5206071758995, -3444.001489162623, -1913.6669532855694, -9336.636583404133, -191.64385695980275, 313.5502712190475, -4817.2479650077785, -1332.387486980854, -2055.354661387761, -4414.603640389877, -3521.852615100457, -2550.0211179281614, -2873.406156707544, -1563.9962630267457, -8273.431154898542, -14832.192937397116, 0.006, -0.106, 0.992, 192.0, 0.0, 0.0, 0.0, 0.0, 0.0, 0.0, 0.0, 0.0, 0.0, 1.645922600784249E9, 0.0, 2022-02-27 11:43:20.784
172.0, -551.6410531569783, -3145.1586657951675, -1650.6092727910607, -9016.872527226511, 162.6759961457248, 552.4680677018247, -4707.344437521033, -1174.4947641485649, -2099.9016880871877, -4068.7550984329105, -3279.3361877603757, -2439.022354963107, -2614.260031492714, -1342.7586964081165, -8143.187539957469, -14562.07210565473, 0.006, -0.106, 0.992, 192.0, 0.0, 0.0, 0.0, 0.0, 0.0, 0.0, 0.0, 0.0, 0.0, 1.645922600792117E9, 0.0, 2022-02-27 11:43:20.792
174.0, -983.4767560335108, -3498.5620973780274, -1968.361671967706, -9401.635456280168, -257.1568199583078, 242.76229652909, -4933.521739664286, -1478.0538055960901, -3211.8562712498037, -4706.562126465097, -3483.742890804159, -2608.359170956513, -2786.12259460957, -1536.3248033910756, -8418.449272924576, -15221.24740138619, 0.006, -0.106, 0.992, 192.0, 0.0, 0.0, 0.0, 0.0, 0.0, 0.0, 0.0, 0.0, 0.0, 1.645922600800151E9, 0.0, 2022-02-27 11:43:20.800
176.0, -693.2840577702592, -3255.2857107264654, -1735.5459017212274, -9127.42425530246, 26.33035496835172, 481.47892731176944, -4716.776873681173, -1175.880572304794, -1462.9887298332133, -4016.5414233853135, -3374.5322673955284, -2442.620985820411, -2745.9118063344727, -1415.7147903102386, -8111.448062830933, -14437.751702994312, 0.008, -0.108, 0.984, 192.0, 0.0, 32.0, 126.0, 80.0, 15.0, 96.0, 0.0, 0.0, 0.0, 1.645922600807454E9, 0.0, 2022-02-27 11:43:20.807
178.0, -706.6951044434434, -3279.8279261383923, -1782.6186755441042, -9179.727337327879, -5.453825647094924, 397.95045828228695, -4851.066154368657, -1365.0433856300576, -3152.579444954329, -4456.937844388228, -3309.801615452959, -2524.2048530822817, -2606.9957145447393, -1386.7022260072501, -8318.916954865093, -15023.076835045438, 0.008, -0.108, 0.984, 192.0, 0.0, 0.0, 0.0, 0.0, 0.0, 0.0, 0.0, 0.0, 0.0, 1.645922600813865E9, 0.0, 2022-02-27 11:43:20.813
180.0, -935.8228368547962, -3447.644823508838, -1913.130511418642, -9338.178853771551, -201.9927146426099, 313.37145726340503, -4849.345070045599, -1327.5595101785077, -2068.9668737610427, -4416.5705939019435, -3522.433760456295, -2553.9550249522954, -2882.838592867684, -1566.5220101501955, -8274.593445610219, -14833.310524619881, 0.008, -0.108, 0.984, 192.0, 0.0, 0.0, 0.0, 0.0, 0.0, 0.0, 0.0, 0.0, 0.0, 1.645922600821778E9, 0.0, 2022-02-27 11:43:20.821
182.0, -536.2183494828164, -3130.272403987933, -1644.1272668990216, -9014.413835336427, 167.92865609272195, 553.0268613132073, -4720.956649894315, -1181.2896944629783, -2086.311827458361, -4059.032089594852, -3273.8823621132806, -2438.396506118358, -2612.628354147477, -1335.1367515488569, -8147.9261097819945, -14561.02157366533, 0.008, -0.108, 0.984, 192.0, 0.0, 0.0, 0.0, 0.0, 0.0, 0.0, 0.0, 0.0, 0.0, 1.645922600829756E9, 0.0, 2022-02-27 11:43:20.829
184.0, -976.6147704857315, -3484.9051815158346, -1972.4296894585718, -9401.367235346703, -250.6748140662687, 239.38718311633863, -4900.955247992903, -1474.3881195054198, -3222.205128932611, -4682.221076753268, -3470.309492386519, -2602.0336272756613, -2776.8466206606176, -1532.9049864894137, -8412.526060643919, -15227.058854944571, 0.006, -0.108, 0.987, 192.0, 0.0, 16.0, 126.0, 80.0, 15.0, 120.0, 0.0, 0.0, 0.0, 1.645922600837136E9, 0.0, 2022-02-27 11:43:20.837
186.0, -707.6562294550216, -3268.160315532722, -1748.465210016395, -9136.588470529136, 14.014543773477529, 468.6043225055126, -4715.212251569302, -1185.782395098495, -1474.2093055497774, -4037.261490495383, -3384.9258285672463, -2447.4042591338466, -2761.446268730911, -1436.2783952091213, -8107.625914529075, -14446.200662398418, 0.006, -0.108, 0.987, 192.0, 0.0, 0.0, 0.0, 0.0, 0.0, 0.0, 0.0, 0.0, 0.0, 1.645922600844472E9, 0.0, 2022-02-27 11:43:20.844
188.0, -695.4074734935133, -3269.724937644594, -1781.6351987880707, -9176.642796593047, -11.242927461019452, 403.0019525291863, -4857.950491660892, -1379.2814468480883, -3133.7369243785056, -4449.248844295603, -3309.84631894187, -2517.7228471902426, -2609.8343860905634, -1386.031673673591, -8313.619591429186, -15014.896096574796, 0.006, -0.108, 0.987, 192.0, 0.0, 0.0, 0.0, 0.0, 0.0, 0.0, 0.0, 0.0, 0.0, 1.645922600852414E9, 0.0, 2022-02-27 11:43:20.852
190.0, -929.7655141074079, -3446.571939774983, -1914.0916364302202, -9339.095275294218, -208.4970722791043, 311.7397799181676, -4833.028296593225, -1338.8247893839825, -2071.023234250931, -4420.012762548061, -3521.6290976559044, -2551.295167362114, -2887.443052225477, -1557.3577949235196, -8275.331053177244, -14838.853757244797, 0.006, -0.108, 0.987, 192.0, 0.0, 0.0, 0.0, 0.0, 0.0, 0.0, 0.0, 0.0, 0.0, 1.645922600860537E9, 0.0, 2022-02-27 11:43:20.860
192.0, -529.2893087016712, -3122.292831217388, -1640.0145459192452, -9010.524631801205, 163.70417639066892, 547.0812972880957, -4715.860452158506, -1187.8611073328386, -2077.616998865247, -4048.3032522563044, -3270.6413591672613, -2435.7366485281764, -2615.8023018601302, -1342.937510363759, -8140.259461433824, -14561.468608554436, 0.006, -0.108, 0.987, 192.0, 0.0, 0.0, 0.0, 0.0, 0.0, 0.0, 0.0, 0.0, 0.0, 1.645922600867141E9, 0.0, 2022-02-27 11:43:20.867
194.0, -960.3650522667233, -3472.2317424096755, -1963.5113434209043, -9394.214677121005, -257.35798565840554, 238.35900287139452, -4929.967812295891, -1482.2112300647773, -3228.5530243579183, -4694.849812370517, -3459.938282959257, -2597.22800221777, -2770.901056635506, -1531.6085853110058, -8411.162604232146, -15234.390227125912, 0.008, -0.107, 0.9884999999999999, 192.0, 0.0, 40.0, 126.0, 88.0, 15.0, 120.0, 0.0, 0.0, 0.0, 1.645922600882085E9, 0.0, 2022-02-27 11:43:20.882
196.0, -695.5639357047005, -3249.608367634817, -1746.4759047598727, -9136.588470529136, 13.679267606647922, 467.2408660937388, -4724.59998424053, -1194.3207614804223, -1461.4241077213417, -4020.296516453805, -3378.488526164118, -2450.7123173132322, -2759.1440390520143, -1428.2317672052106, -8104.630780772064, -14448.81581649969, 0.008, -0.107, 0.9884999999999999, 192.0, 0.0, 0.0, 0.0, 0.0, 0.0, 0.0, 0.0, 0.0, 0.0, 1.645922600889141E9, 0.0, 2022-02-27 11:43:20.889
198.0, -681.2811709977593, -3250.0554025239235, -1780.137631909565, -9164.014060975798, 0.5140901224720624, 412.38968520041533, -4862.264378340767, -1369.156106609834, -3112.5698223793297, -4418.358733458368, -3299.519813003518, -2508.5586319635668, -2605.2075749883147, -1381.2036968712446, -8310.780919883362, -15007.452965671178, 0.008, -0.107, 0.9884999999999999, 192.0, 0.0, 0.0, 0.0, 0.0, 0.0, 0.0, 0.0, 0.0, 0.0, 1.645922600896524E9, 0.0, 2022-02-27 11:43:20.896
200.0, -924.6246128826873, -3436.3124890699974, -1917.489101587427, -9332.747379868912, -198.4387872742161, 312.6562014408352, -4825.115779056046, -1347.7431354216499, -2087.340007703305, -4425.153663772781, -3517.874004587413, -2546.3330800930357, -2884.157345790547, -1554.988510011257, -8277.409765411589, -14845.983963726041, 0.008, -0.107, 0.9884999999999999, 192.0, 0.0, 0.0, 0.0, 0.0, 0.0, 0.0, 0.0, 0.0, 0.0, 1.645922600904678E9, 0.0, 2022-02-27 11:43:20.904
202.0, -524.7742563216992, -3118.336572448799, -1640.2827668527088, -9003.506184042239, 169.76149913805713, 547.9306635773974, -4726.611641241508, -1195.9524388256598, -2056.8522282662666, -4059.546179717324, -3265.165181775711, -2429.0981804249504, -2610.057903535116, -1333.5274259480748, -8134.693877064452, -14555.791265462789, 0.008, -0.107, 0.9884999999999999, 192.0, 0.0, 0.0, 0.0, 0.0, 0.0, 0.0, 0.0, 0.0, 0.0, 1.645922600913015E9, 0.0, 2022-02-27 11:43:20.913
204.0, -947.4680957160111, -3459.960634703712, -1957.3199102067842, -9379.395470547137, -244.39397387432743, 244.23751166314028, -4977.241751818866, -1484.669921954861, -3226.1837394456556, -4698.180222294357, -3447.0413264085446, -2586.812089301597, -2761.6474344310086, -1516.409399081397, -8415.878822312216, -15232.602087569487, 0.01, -0.10550000000000001, 0.99025, 192.0, 0.0, 48.0, 126.0, 96.0, 15.5, 0.0, 0.0, 0.0, 0.0, 1.645922600919344E9, 0.0, 2022-02-27 11:43:20.919
206.0, -693.5746304481781, -3245.629757121773, -1744.9559861369119, -9128.273621591761, 26.576224157360098, 464.35749105900425, -4719.436731271355, -1205.6977994081735, -1443.7215261127385, -4019.156577486584, -3372.1182789943555, -2431.825093248498, -2755.992443083816, -1421.2133194462442, -8105.010760427805, -14447.675877532469, 0.01, -0.10550000000000001, 0.99025, 192.0, 0.0, 0.0, 0.0, 0.0, 0.0, 0.0, 0.0, 0.0, 0.0, 1.645922600927232E9, 0.0, 2022-02-27 11:43:20.927
208.0, -666.1713917459717, -3238.074867495879, -1769.498201548839, -9146.959679956399, 27.425590446661765, 424.86195860647666, -4856.922311415949, -1337.1484085498344, -3081.076214441802, -4401.282000694514, -3288.0533680979456, -2497.427463224824, -2595.3057521946134, -1371.3465775664542, -8297.749852865918, -14990.935026518706, 0.01, -0.10550000000000001, 0.99025, 192.0, 0.0, 0.0, 0.0, 0.0, 0.0, 0.0, 0.0, 0.0, 0.0, 1.645922600934452E9, 0.0, 2022-02-27 11:43:20.934
210.0, -934.9734705654944, -3443.5544542735165, -1922.2053196674967, -9343.945603841019, -200.71866520865743, 293.47840469818175, -4783.988569258281, -1340.4564667292198, -2125.606194210791, -4435.860149366874, -3511.5037574176504, -2548.434144071835, -2883.196220778969, -1564.890332804958, -8275.800439810806, -14862.814827300886, 0.01, -0.10550000000000001, 0.99025, 192.0, 0.0, 0.0, 0.0, 0.0, 0.0, 0.0, 0.0, 0.0, 0.0, 1.645922600942487E9, 0.0, 2022-02-27 11:43:20.942
212.0, -534.363154693026, -3124.2821364739107, -1646.5189035557394, -9009.965838189823, 166.7216618921354, 535.5701488936126, -4676.968416806271, -1155.4734296170986, -2019.5918702592696, -4055.925197115564, -3274.351748746842, -2439.424686363302, -2627.961650843817, -1345.351498764932, -8117.885365234061, -14537.105207098151, 0.01, -0.10550000000000001, 0.99025, 192.0, 0.0, 0.0, 0.0, 0.0, 0.0, 0.0, 0.0, 0.0, 0.0, 1.645922600948974E9, 0.0, 2022-02-27 11:43:20.948
214.0, -954.374784752701, -3464.4309835947734, -1959.1751049965746, -9381.273017081383, -231.7205347681683, 237.7555057711012, -4926.860919816604, -1470.9906543482132, -3255.9339113156693, -4701.108300818003, -3451.735192744159, -2589.807223058608, -2768.1741438119584, -1530.2227771547768, -8405.619371607228, -15232.803253269585, 0.009000000000000001, -0.10475000000000001, 0.989125, 192.0, 0.0, 32.0, 126.0, 96.0, 15.0, 112.0, 0.0, 0.0, 0.0, 1.645922600956962E9, 0.0, 2022-02-27 11:43:20.956
216.0, -724.2412238408594, -3268.6744056551943, -1757.0929833761436, -9145.417409588983, 12.002886772499892, 448.6442147069234, -4690.602980924008, -1166.5822466113862, -1461.9381978438137, -4049.5549499458016, -3391.9219245817576, -2448.2759771676037, -2770.766946168774, -1442.4921801676967, -8104.049635416226, -14454.224938657873, 0.009000000000000001, -0.10475000000000001, 0.989125, 192.0, 0.0, 0.0, 0.0, 0.0, 0.0, 0.0, 0.0, 0.0, 0.0, 1.645922600965043E9, 0.0, 2022-02-27 11:43:20.965
218.0, -672.2063627489046, -3238.6336611072616, -1760.401041555529, -9152.838188748145, 34.19816901661981, 405.86297581946565, -4832.268337281745, -1357.2426268151555, -3063.7089090000286, -4413.463701422656, -3294.3789117787974, -2506.2564022846705, -2593.9199440383845, -1380.4437375597643, -8284.02588177036, -14973.858293754853, 0.009000000000000001, -0.10475000000000001, 0.989125, 192.0, 0.0, 0.0, 0.0, 0.0, 0.0, 0.0, 0.0, 0.0, 0.0, 1.64592260097198E9, 0.0, 2022-02-27 11:43:20.971
220.0, -942.438953213567, -3447.242492108642, -1919.0537236992984, -9340.637545661635, -192.85085116038934, 292.114948286408, -4821.070113309635, -1327.8947863453373, -2126.455560500093, -4438.162379045771, -3518.2986877320636, -2556.1454959089156, -2874.6131509081306, -1567.438431672863, -8271.285387430833, -14859.640879588233, 0.009000000000000001, -0.10475000000000001, 0.989125, 192.0, 0.0, 0.0, 0.0, 0.0, 0.0, 0.0, 0.0, 0.0, 0.0, 1.645922600979535E9, 0.0, 2022-02-27 11:43:20.979
222.0, -538.5652826506237, -3131.3229359773322, -1641.8026854756697, -9008.803547478146, 186.92763887973297, 535.8607215715315, -4695.475661215265, -1165.107031477336, -2013.0428091338647, -4054.941720359531, -3275.558742947429, -2435.6248898059, -2615.8246536045854, -1346.4914377321527, -8119.315876879201, -14530.891422139577, 0.009000000000000001, -0.10475000000000001, 0.989125, 192.0, 0.0, 0.0, 0.0, 0.0, 0.0, 0.0, 0.0, 0.0, 0.0, 1.645922600987832E9, 0.0, 2022-02-27 11:43:20.987
224.0, -971.3397587942791, -3486.693321072259, -1959.8233055857786, -9384.603427005224, -219.9411654402215, 234.02276444706496, -4932.515911163797, -1481.7418434312158, -3264.6063881643286, -4712.775911423673, -3456.4961143131395, -2603.79941508763, -2754.4948762053104, -1524.768951507682, -8400.165545960135, -15229.4951950902, 0.007500000000000001, -0.106375, 0.9865625, 192.0, 0.0, 24.0, 126.0, 80.0, 15.0, 96.0, 0.0, 0.0, 0.0, 1.645922601001249E9, 0.0, 2022-02-27 11:43:21.001
226.0, -748.0458316857614, -3298.648094969761, -1757.4506112874285, -9139.628307775058, 23.089352022332196, 455.4167932768814, -4721.962478394804, -1173.8018600704504, -1460.8429623655036, -4052.8183046362765, -3394.157099027288, -2452.8580847809417, -2761.669786175464, -1438.4688661657412, -8098.238181857847, -14449.95575546691, 0.007500000000000001, -0.106375, 0.9865625, 192.0, 0.0, 0.0, 0.0, 0.0, 0.0, 0.0, 0.0, 0.0, 0.0, 1.645922601009235E9, 0.0, 2022-02-27 11:43:21.009
228.0, -722.4530842844349, -3299.0504263699563, -1761.6080357561154, -9143.204586887907, 49.196189546130846, 420.41396145987056, -4831.664840181451, -1341.1717225517896, -3073.141345160168, -4427.5453004295, -3306.001818895557, -2517.432274512324, -2595.9316010393622, -1378.6779497477949, -8285.63520737114, -14966.593976806877, 0.007500000000000001, -0.106375, 0.9865625, 192.0, 0.0, 0.0, 0.0, 0.0, 0.0, 0.0, 0.0, 0.0, 0.0, 1.645922601017245E9, 0.0, 2022-02-27 11:43:21.017
230.0, -1046.3298614418343, -3562.9351214093117, -1928.4638081149828, -9347.767752142878, -185.98886561261006, 296.2500210106398, -4833.229462293322, -1334.6897166597507, -2190.0909769643517, -4487.492679058633, -3539.063458331044, -2577.5361153526446, -2871.6627206400303, -1572.512277664218, -8279.756698579395, -14877.321109452381, 0.007500000000000001, -0.106375, 0.9865625, 192.0, 0.0, 0.0, 0.0, 0.0, 0.0, 0.0, 0.0, 0.0, 0.0, 1.645922601024283E9, 0.0, 2022-02-27 11:43:21.024
232.0, -697.7991101502312, -3301.0173798820238, -1654.0290896927227, -9018.83948073858, 190.41451101476088, 546.813076354632, -4675.694367372318, -1131.0653246719032, -2028.4655128080265, -4095.3983778236366, -3308.6840282301937, -2473.980483291207, -2609.8343860905634, -1354.3369000359655, -8115.940763466449, -14519.02264583381, 0.007500000000000001, -0.106375, 0.9865625, 192.0, 0.0, 0.0, 0.0, 0.0, 0.0, 0.0, 0.0, 0.0, 0.0, 1.645922601031902E9, 0.0, 2022-02-27 11:43:21.031
234.0, -1174.561819381931, -3697.023236396699, -1974.3966429706388, -9395.801650977332, -206.21719434466297, 237.88961623783308, -4893.623875811562, -1452.9527965727802, -3344.4691711031405, -4772.186848185879, -3506.832242826491, -2658.851761681052, -2750.4492104589, -1534.9613469793019, -8396.768080802927, -15221.806194997573, 0.00875, -0.1051875, 0.98628125, 192.0, 0.0, 40.0, 126.0, 96.0, 15.0, 104.0, 0.0, 0.0, 0.0, 1.645922601039879E9, 0.0, 2022-02-27 11:43:21.039
236.0, -975.7207007075192, -3526.1888535247867, -1776.1143179076098, -9159.923691740476, 37.997965574022004, 452.7792874311552, -4695.5650681930865, -1161.7095663201292, -1540.8398557710477, -4126.288488660871, -3461.6817190267707, -2519.5780419800335, -2763.703794920897, -1454.2939012400986, -8095.1536411230145, -14447.072380432175, 0.00875, -0.1051875, 0.98628125, 192.0, 0.0, 0.0, 0.0, 0.0, 0.0, 0.0, 0.0, 0.0, 0.0, 1.645922601047973E9, 0.0, 2022-02-27 11:43:21.047
238.0, -928.6702786290979, -3497.31039968853, -1774.527344051283, -9153.642851548535, 70.60916073431501, 424.21375801727277, -4812.732912627806, -1324.0502862990245, -3137.246148257989, -4472.718175973675, -3367.357357425375, -2576.6643973188875, -2590.5671823700886, -1375.3028363350436, -8273.967596765471, -14953.96524118963, 0.00875, -0.1051875, 0.98628125, 192.0, 0.0, 0.0, 0.0, 0.0, 0.0, 0.0, 0.0, 0.0, 0.0, 1.645922601054009E9, 0.0, 2022-02-27 11:43:21.054
240.0, -1213.1185785673356, -3707.886184201978, -1944.3335466782507, -9359.211845303995, -181.49616497709334, 291.1091197859192, -4807.2120317473455, -1315.4001611948206, -2276.7263384731223, -4530.0951039904485, -3598.1614706708756, -2626.620546176499, -2873.830839852195, -1577.0049782997346, -8272.179457209046, -14874.996528029029, 0.00875, -0.1051875, 0.98628125, 192.0, 0.0, 0.0, 0.0, 0.0, 0.0, 0.0, 0.0, 0.0, 0.0, 1.645922601061448E9, 0.0, 2022-02-27 11:43:21.061
242.0, -801.801777100775, -3390.1114332808775, -1661.8522002520801, -9027.668419798425, 190.23569705911842, 549.7635066227325, -4690.02183556817, -1125.1868158801576, -2080.9474087890876, -4117.705418790033, -3350.0794589614225, -2502.0989778159833, -2619.2891739951583, -1357.5331994930746, -8109.369350596589, -14512.071253308208, 0.00875, -0.1051875, 0.98628125, 192.0, 0.0, 0.0, 0.0, 0.0, 0.0, 0.0, 0.0, 0.0, 0.0, 1.645922601069687E9, 0.0, 2022-02-27 11:43:21.069
244.0, -1203.4402732181875, -3711.753035992746, -1973.323759236784, -9401.300180113338, -210.35226706889478, 235.07329643646437, -4912.73461732085, -1453.153962272878, -3385.5516774119947, -4780.94873201236, -3520.377399966407, -2678.5436485461773, -2756.283015761735, -1538.0458877141343, -8395.985769746992, -15223.929610720828, 0.008375, -0.10459375000000001, 0.988140625, 192.0, 0.0, 32.0, 126.0, 96.0, 15.0, 120.0, 0.0, 0.0, 0.0, 1.645922601077617E9, 0.0, 2022-02-27 11:43:21.077
246.0, -954.6430056861647, -3499.2326497116865, -1781.4116813435176, -9167.791505788744, 20.362439198784735, 445.3361565275379, -4717.492129503743, -1167.5433716229645, -1548.3053384191203, -4124.232128170983, -3461.8158294935024, -2521.142664091905, -2776.757213682796, -1460.9770728322355, -8100.0263214142715, -14454.135531680053, 0.008375, -0.10459375000000001, 0.988140625, 192.0, 0.0, 0.0, 0.0, 0.0, 0.0, 0.0, 0.0, 0.0, 0.0, 1.645922601084163E9, 0.0, 2022-02-27 11:43:21.084
248.0, -861.570341774266, -3435.9995646476227, -1770.30286434923, -9151.161807913997, 65.08827985385416, 425.10782779548504, -4814.4316452064095, -1324.743190377139, -3108.61356361074, -4471.175905606259, -3353.18635144071, -2564.5274000796558, -2596.1774702283706, -1384.0647201615238, -8275.800439810806, -14948.086732397884, 0.008375, -0.10459375000000001, 0.988140625, 192.0, 0.0, 0.0, 0.0, 0.0, 0.0, 0.0, 0.0, 0.0, 0.0, 1.645922601092119E9, 0.0, 2022-02-27 11:43:21.092
