%OpenBCI Raw EEG Data
%Number of channels = 16
%Sample Rate = 125 Hz
%Board = OpenBCI_GUI$BoardCytonSerialDaisy
Sample Index, EXG Channel 0, EXG Channel 1, EXG Channel 2, EXG Channel 3, EXG Channel 4, EXG Channel 5, EXG Channel 6, EXG Channel 7, EXG Channel 8, EXG Channel 9, EXG Channel 10, EXG Channel 11, EXG Channel 12, EXG Channel 13, EXG Channel 14, EXG Channel 15, Accel Channel 0, Accel Channel 1, Accel Channel 2, Other, Other, Other, Other, Other, Other, Other, Analog Channel 0, Analog Channel 1, Analog Channel 2, Timestamp, Other, Timestamp (Formatted)
0.0, 156.37280420932822, -2406.3441045694476, -1818.9626120284333, -8900.688159547826, 478.2155726212946, 755.3101486337363, -4276.402804422713, -1279.1232799438574, 0.0, 0.0, 0.0, 0.0, 0.0, 0.0, 0.0, 0.0, 0.0, 0.0, 0.0, 192.0, 0.0, 0.0, 0.0, 0.0, 0.0, 0.0, 0.0, 0.0, 0.0, 1.64592313139103E9, 0.0, 2022-02-27 11:52:11.391
56.0, -170.0073683270655, -2665.66904373992, -2082.6014378787804, -9212.115015043619, 159.07736528842037, 537.3135849611265, -4494.913458217795, -1547.3665651519973, -3082.6408365536736, -4349.940043680674, -3424.2425470641315, -2360.143048780328, -2825.349906128634, -1708.634401397038, -7810.615934206955, -15117.244734435646, 0.0, 0.0, 0.0, 192.0, 0.0, 0.0, 0.0, 0.0, 0.0, 0.0, 0.0, 0.0, 0.0, 1.645923131391033E9, 0.0, 2022-02-27 11:52:11.391
58.0, -68.93277990016698, -2584.263990433692, -1978.8893436061555, -9073.08716453161, 266.1645729737965, 646.7030223253993, -4358.187837384682, -1320.9433938197367, -1241.8629219368604, -3746.107667220553, -3430.1434076003325, -2246.4844282250915, -2903.446901255477, -1694.0610640121777, -7515.997590541553, -14386.61091168057, 0.01, -0.098, 0.98, 192.0, 0.0, 40.0, 126.0, 120.0, 15.0, 80.0, 0.0, 0.0, 0.0, 1.645923131391036E9, 0.0, 2022-02-27 11:52:11.391
0.0, 34.98048007255555, -1228.4295235192208, -925.8316070832739, -4478.820202209974, 218.37654332835, 382.2595336746614, -2152.182418368151, -628.3298883831368, -1062.244303494013, -1921.8476917562118, -1653.2244268923316, -1144.8339992563724, -1377.0909758914681, -796.5714688982331, -3806.4797289943376, -7281.371328994194, 0.012, -0.096, 0.986, 192.0, 0.0, 48.0, 126.5, 0.0, 15.0, 104.0, 0.0, 0.0, 0.0, 1.645923131517735E9, 0.0, 2022-02-27 11:52:11.517
2.0, 12.226404217052963, -2516.4711495007455, -1910.872985228656, -9026.30496338665, 380.87372551843237, 689.8195373796866, -4389.167355199737, -1350.8276761564823, -2016.8202539468116, -3871.7244710593786, -3285.684083185683, -2174.7800320124666, -2706.2598116707577, -1570.8806003189804, -7516.601087641846, -14592.179905436029, 0.012, -0.096, 0.986, 192.0, 0.0, 0.0, 0.0, 0.0, 0.0, 0.0, 0.0, 0.0, 0.0, 1.645923131525029E9, 0.0, 2022-02-27 11:52:11.525
4.0, -191.86737440435581, -2711.0877884731044, -2104.1038160447856, -9208.695198141957, 169.40387122677222, 504.59063107855695, -4566.95313059725, -1515.6941432588271, -2292.797242736488, -4128.970697995508, -3495.9469432767564, -2399.6162294884, -2926.1115701331582, -1786.30671337923, -7742.018430473618, -14828.817823984364, 0.012, -0.096, 0.986, 192.0, 0.0, 0.0, 0.0, 0.0, 0.0, 0.0, 0.0, 0.0, 0.0, 1.645923131532385E9, 0.0, 2022-02-27 11:52:11.532
6.0, 60.617930962792755, -2459.0495179950617, -1854.8371618792012, -8958.400363731429, 431.54513019861344, 761.2333609143926, -4304.074264058383, -1248.9484249291927, -2086.6918071141013, -3987.2159346599506, -3396.6157909173717, -2285.2647048550493, -2828.7250195413853, -1691.8035378221916, -7629.7903215635215, -14638.805644369799, 0.012, -0.096, 0.986, 192.0, 0.0, 0.0, 0.0, 0.0, 0.0, 0.0, 0.0, 0.0, 0.0, 1.645923131540368E9, 0.0, 2022-02-27 11:52:11.540
8.0, -131.85294054185636, -2648.614662720521, -2045.2516728939622, -9156.682688794457, 236.12382842586382, 555.843181114576, -4520.394446896845, -1462.9887298332133, -2183.676026305679, -3987.2382864044057, -3368.6537586037825, -2250.0607073379406, -2794.549202269221, -1643.0543831651669, -7597.112071169862, -14711.940552227565, 0.012, -0.10200000000000001, 0.996, 192.0, 0.0, 48.0, 126.0, 104.0, 15.5, 16.0, 0.0, 0.0, 0.0, 1.645923131548447E9, 0.0, 2022-02-27 11:52:11.548
10.0, -62.674291452681004, -2582.609961343999, -1968.652244645625, -9072.37190870904, 313.10323632994135, 640.6009960891004, -4419.118692769849, -1377.1356793803786, -2266.0645563679404, -4159.324366965815, -3537.6776501748145, -2447.2477969226597, -2975.2407044459233, -1834.139446513587, -7775.903675067863, -14801.526344004435, 0.012, -0.10200000000000001, 0.996, 192.0, 0.0, 0.0, 0.0, 0.0, 0.0, 0.0, 0.0, 0.0, 0.0, 1.645923131555029E9, 0.0, 2022-02-27 11:52:11.555
12.0, -2.503395378994391, -2533.7266962202425, -1909.3754183501505, -9023.823919752112, 377.67742606132344, 685.4162437219911, -4385.68048306471, -1337.0590015720131, -2036.1321611561968, -3885.0908142436524, -3289.7968041654594, -2168.767412753989, -2713.5017768742773, -1572.5793328975838, -7513.024808528997, -14592.157553691573, 0.012, -0.10200000000000001, 0.996, 192.0, 0.0, 0.0, 0.0, 0.0, 0.0, 0.0, 0.0, 0.0, 0.0, 1.645923131561977E9, 0.0, 2022-02-27 11:52:11.561
14.0, -209.92758392424392, -2729.796198582196, -2108.775330635945, -9217.233564523884, 164.59824616888122, 499.2485641537385, -4572.630473688898, -1500.606715751495, -2303.436673097214, -4139.72188707851, -3508.799196338558, -2405.6735522357885, -2934.8063987262726, -1791.9393529819672, -7737.8610060049305, -14823.40870182618, 0.012, -0.10200000000000001, 0.996, 192.0, 0.0, 0.0, 0.0, 0.0, 0.0, 0.0, 0.0, 0.0, 0.0, 1.645923131570018E9, 0.0, 2022-02-27 11:52:11.570
16.0, 49.44205873513922, -2481.2895037280923, -1847.684603653503, -8957.550997442127, 439.6811651803452, 754.4831340888899, -4304.789519880953, -1250.490695296609, -2087.675283870135, -3994.592010330202, -3403.4554247206956, -2306.9458969766974, -2825.4393131064553, -1691.9376482889234, -7628.8515482963985, -14640.638487415134, 0.011, -0.10400000000000001, 0.995, 192.0, 0.0, 40.0, 126.0, 88.0, 15.5, 8.0, 0.0, 0.0, 0.0, 1.645923131578002E9, 0.0, 2022-02-27 11:52:11.578
18.0, -153.71294661914666, -2672.262808354236, -2041.4742280810153, -9158.336717884149, 233.82159874696717, 557.1619340374391, -4509.218574669191, -1438.4018109323754, -2182.178459427173, -3992.2003736734837, -3367.6255783588385, -2254.955739373653, -2779.998216628816, -1647.077697167122, -7587.813745476455, -14706.710244025022, 0.011, -0.10400000000000001, 0.995, 192.0, 0.0, 0.0, 0.0, 0.0, 0.0, 0.0, 0.0, 0.0, 0.0, 1.645923131585669E9, 0.0, 2022-02-27 11:52:11.585
20.0, -92.98325693407737, -2612.5389471696553, -1970.2168667574963, -9074.092993032098, 305.1013118149414, 649.1170107265724, -4425.958326573173, -1355.6333012143734, -2264.2987685559715, -4166.96866356953, -3546.1266095789206, -2469.241913466682, -2972.983178255937, -1834.877054080612, -7775.143715756383, -14795.334910790314, 0.011, -0.10400000000000001, 0.995, 192.0, 0.0, 0.0, 0.0, 0.0, 0.0, 0.0, 0.0, 0.0, 0.0, 1.645923131592653E9, 0.0, 2022-02-27 11:52:11.592
22.0, -42.937701098644865, -2567.1872576698374, -1904.1451101476086, -9019.800605750157, 380.87372551843237, 701.0848165851613, -4376.3598056268465, -1323.8491205989267, -2049.7220217850236, -3891.751634091334, -3297.5081560025405, -2191.9685234985977, -2706.706846559864, -1569.1371642514664, -7508.822680571399, -14586.144934433096, 0.011, -0.10400000000000001, 0.995, 192.0, 0.0, 0.0, 0.0, 0.0, 0.0, 0.0, 0.0, 0.0, 0.0, 1.645923131600563E9, 0.0, 2022-02-27 11:52:11.600
24.0, -276.49107891214834, -2793.766891213285, -2112.217499282062, -9216.518308701314, 169.0015398265767, 508.8821660139759, -4562.773354384107, -1492.2695150696654, -2318.188824437717, -4151.613015128733, -3520.9808970667004, -2424.046686178051, -2929.1961108679907, -1790.6653035480147, -7725.634601787878, -14815.719701733555, 0.011, -0.10400000000000001, 0.995, 192.0, 0.0, 0.0, 0.0, 0.0, 0.0, 0.0, 0.0, 0.0, 0.0, 1.64592313160778E9, 0.0, 2022-02-27 11:52:11.607
26.0, -38.57911092985999, -2566.8296297585525, -1848.8021908762685, -8957.573349186581, 449.82885716305464, 767.0671662172277, -4303.671932658188, -1266.740413515617, -2112.709237660079, -4016.0049815183856, -3425.2930790535306, -2328.4482751427026, -2826.4898450958544, -1692.2952762002083, -7624.403551149792, -14634.111778034185, 0.0135, -0.10200000000000001, 0.9924999999999999, 192.0, 0.0, 64.0, 126.0, 112.0, 15.0, 120.0, 0.0, 0.0, 0.0, 1.645923131615281E9, 0.0, 2022-02-27 11:52:11.615
28.0, -285.29766622753937, -2805.680371007964, -2053.4100596201492, -9170.71958431239, 237.66609879327999, 555.3290909921039, -4506.424606612278, -1444.5038371686742, -2232.7157536406226, -4035.898034083609, -3407.210517789187, -2288.21513512315, -2790.5705917561763, -1654.6102350485605, -7580.705890739667, -14708.833659748276, 0.0135, -0.10200000000000001, 0.9924999999999999, 192.0, 0.0, 0.0, 0.0, 0.0, 0.0, 0.0, 0.0, 0.0, 0.0, 1.645923131622289E9, 0.0, 2022-02-27 11:52:11.622
30.0, -252.77587804506757, -2768.0847368341374, -1987.4500617325382, -9091.169725795951, 311.31509677351676, 644.5572548576897, -4425.153663772781, -1357.1532198373343, -2324.335554162926, -4224.412646819669, -3602.900040495401, -2520.874443158441, -2988.8976203081156, -1854.814810134746, -7772.036823277095, -14793.390309022703, 0.0135, -0.10200000000000001, 0.9924999999999999, 192.0, 0.0, 0.0, 0.0, 0.0, 0.0, 0.0, 0.0, 0.0, 0.0, 1.645923131636998E9, 0.0, 2022-02-27 11:52:11.636
32.0, -205.63604898882497, -2727.203396225381, -1912.5493660628042, -9027.02021920922, 396.4752431482367, 709.064389355706, -4375.041052703983, -1315.6907338727397, -2115.0114673389753, -3946.2228353289174, -3348.850113016381, -2234.6156519193237, -2710.1713669504365, -1577.183792255377, -7506.5875061258685, -14582.725117531434, 0.0135, -0.10200000000000001, 0.9924999999999999, 192.0, 0.0, 0.0, 0.0, 0.0, 0.0, 0.0, 0.0, 0.0, 0.0, 1.645923131644921E9, 0.0, 2022-02-27 11:52:11.644
34.0, -471.5547527736131, -2965.338881652222, -2129.5848047238355, -9230.711666430434, 162.16190602325273, 514.1571777054284, -4588.299046552068, -1501.7913582076262, -2383.344159524937, -4199.40104477418, -3576.636740760415, -2470.2477419671704, -2936.2592621158674, -1794.3533413831403, -7722.7735784975985, -14813.998617410496, 0.0135, -0.10200000000000001, 0.9924999999999999, 192.0, 0.0, 0.0, 0.0, 0.0, 0.0, 0.0, 0.0, 0.0, 0.0, 1.64592313165286E9, 0.0, 2022-02-27 11:52:11.652
36.0, -219.15885438428575, -2726.935175291917, -1862.5932172051928, -8965.351756257029, 448.688918195834, 777.5501343667668, -4303.8730983582855, -1246.4450295501983, -2192.6167240878017, -4054.807609892799, -3489.442585640262, -2383.4559182472135, -2844.415944149011, -1684.628627852038, -7630.103245985895, -14633.7541501229, 0.012750000000000001, -0.10300000000000001, 0.99425, 192.0, 0.0, 48.0, 126.0, 96.0, 15.5, 16.0, 0.0, 0.0, 0.0, 1.645923131661154E9, 0.0, 2022-02-27 11:52:11.661
38.0, -439.2564820356944, -2944.5964627976973, -2059.8250102788224, -9175.05582273672, 240.70593603920176, 561.9899108397855, -4497.662722785798, -1450.3599942159647, -2300.016856195552, -4070.6549967116116, -3458.328957358475, -2332.2257199556493, -2798.0807778931594, -1652.442115836396, -7583.388100074304, -14708.543087070357, 0.012750000000000001, -0.10300000000000001, 0.99425, 192.0, 0.0, 0.0, 0.0, 0.0, 0.0, 0.0, 0.0, 0.0, 0.0, 1.645923131667468E9, 0.0, 2022-02-27 11:52:11.667
40.0, -372.26830390313916, -2873.406156707544, -1994.8708408917, -9094.522487464248, 304.07313156999726, 654.1908567179271, -4416.905870068774, -1336.7907806385494, -2373.0623570754956, -4237.644879537211, -3646.4859421832493, -2541.8180277130637, -3000.475823935965, -1858.7710689033354, -7773.042651777584, -14794.686710201111, 0.012750000000000001, -0.10300000000000001, 0.99425, 192.0, 0.0, 0.0, 0.0, 0.0, 0.0, 0.0, 0.0, 0.0, 0.0, 1.645923131675538E9, 0.0, 2022-02-27 11:52:11.675
42.0, -280.31322721400585, -2780.355844540101, -1923.3676103791727, -9031.937602989388, 388.0039319996753, 714.5852702361668, -4367.217942144625, -1293.0707684839688, -2169.9520552101203, -3959.522123279825, -3381.483659921129, -2251.3124050274378, -2730.220881726847, -1588.6949406498602, -7509.96261953862, -14583.686242543012, 0.012750000000000001, -0.10300000000000001, 0.99425, 192.0, 0.0, 0.0, 0.0, 0.0, 0.0, 0.0, 0.0, 0.0, 0.0, 1.645923131683546E9, 0.0, 2022-02-27 11:52:11.683
44.0, -479.7131394998002, -2959.952111238493, -2133.7422291925227, -9232.812730409232, 166.92282759223315, 515.1630062059172, -4589.237819819191, -1487.86622141197, -2411.730874983177, -4194.506012738468, -3592.484127579228, -2487.0786055420167, -2954.565340824764, -1808.457292134439, -7730.373171612403, -14818.513669790467, 0.012750000000000001, -0.10300000000000001, 0.99425, 192.0, 0.0, 0.0, 0.0, 0.0, 0.0, 0.0, 0.0, 0.0, 0.0, 1.645923131689695E9, 0.0, 2022-02-27 11:52:11.689
46.0, -182.72551092213524, -2690.9265149744174, -1860.6486154375812, -8963.809485889613, 455.30503455460484, 777.2372099443925, -4289.679740629165, -1232.72105845464, -2191.230915931573, -4055.4334587375474, -3486.7156728167147, -2366.781516883554, -2847.6569470950303, -1703.918183316968, -7636.004106522097, -14632.189528011028, 0.013375000000000001, -0.10250000000000001, 0.9941249999999999, 192.0, 0.0, 56.0, 126.0, 104.0, 15.5, 8.0, 0.0, 0.0, 0.0, 1.645923131697142E9, 0.0, 2022-02-27 11:52:11.697
48.0, -370.50251609116987, -2874.2555229968457, -2063.244827180484, -9179.369709416595, 246.91972099777712, 563.3310155071039, -4499.920248975784, -1444.6602993798613, -2295.6806177712224, -4048.0797348117517, -3445.342593829941, -2305.0907021869066, -2803.6910657514413, -1656.5101333272617, -7584.5950942748905, -14710.353578371238, 0.013375000000000001, -0.10250000000000001, 0.9941249999999999, 192.0, 0.0, 0.0, 0.0, 0.0, 0.0, 0.0, 0.0, 0.0, 0.0, 1.645923131705157E9, 0.0, 2022-02-27 11:52:11.705
50.0, -281.72138711469023, -2787.061367876693, -1996.7036839370353, -9099.462222988872, 294.2383640096622, 631.906167495986, -4438.810579634975, -1369.93841766577, -2346.821409084965, -4224.88203345323, -3628.269270452174, -2527.2223385837483, -3004.409730960099, -1864.783688161813, -7778.027090791117, -14802.286303315916, 0.013375000000000001, -0.10250000000000001, 0.9941249999999999, 192.0, 0.0, 0.0, 0.0, 0.0, 0.0, 0.0, 0.0, 0.0, 0.0, 1.645923131713594E9, 0.0, 2022-02-27 11:52:11.713
52.0, -170.43205147171636, -2692.938171975395, -1913.3093253742845, -9028.093102943076, 380.22552492922847, 700.8836508850636, -4384.004102230561, -1325.4360944552534, -2132.0658483583748, -3935.5610532237356, -3351.197046184188, -2226.3231547264045, -2721.7942740671965, -1588.0690918051114, -7517.159881253229, -14592.135201947118, 0.013375000000000001, -0.10250000000000001, 0.9941249999999999, 192.0, 0.0, 0.0, 0.0, 0.0, 0.0, 0.0, 0.0, 0.0, 0.0, 1.645923131719785E9, 0.0, 2022-02-27 11:52:11.719
54.0, -379.64437957339044, -2892.919229617027, -2130.5682814798693, -9241.887538658088, 149.0637837724428, 492.83361349506544, -4593.127023354415, -1514.3083351025982, -2362.4229267147693, -4186.101756823273, -3558.531827751616, -2449.0582882235394, -2947.2563203878785, -1814.3581526706403, -7733.010677458129, -14826.068559416362, 0.013375000000000001, -0.10250000000000001, 0.9941249999999999, 192.0, 0.0, 0.0, 0.0, 0.0, 0.0, 0.0, 0.0, 0.0, 0.0, 1.645923131727852E9, 0.0, 2022-02-27 11:52:11.727
56.0, -80.42157655019481, -2599.910211552407, -1848.8021908762685, -8965.418811490395, 441.02226984766367, 764.9661022384289, -4329.130569592782, -1250.2448261076006, -2148.628490999757, -4046.738630144433, -3455.5573410460165, -2363.9875488266407, -2850.294452940757, -1715.0717038001662, -7642.508464158591, -14646.360533995694, 0.0116875, -0.10325000000000001, 0.9940625, 192.0, 0.0, 40.0, 126.0, 96.0, 15.5, 8.0, 0.0, 0.0, 0.0, 1.645923131735834E9, 0.0, 2022-02-27 11:52:11.735
58.0, -273.87592481087745, -2791.419958045478, -2050.526684585415, -9172.172447701985, 220.49995905160418, 550.2105415118386, -4508.525670591077, -1455.5455989295958, -2246.9985183475637, -4032.098237526207, -3405.221212532665, -2293.847774725887, -2793.543373768732, -1674.2574184247756, -7591.613542033857, -14716.522659840903, 0.0116875, -0.10325000000000001, 0.9940625, 192.0, 0.0, 0.0, 0.0, 0.0, 0.0, 0.0, 0.0, 0.0, 0.0, 1.645923131742515E9, 0.0, 2022-02-27 11:52:11.742
60.0, -195.6224674728474, -2709.1431867054926, -1987.070082076798, -9092.354368252083, 286.30349472802817, 631.5261878402457, -4435.033134822027, -1368.84318218746, -2293.177222392228, -4201.010370374963, -3591.210078145275, -2500.4002452373797, -2997.2571727344007, -1875.6913394560029, -7784.844372849986, -14804.45442252808, 0.0116875, -0.10325000000000001, 0.9940625, 192.0, 0.0, 0.0, 0.0, 0.0, 0.0, 0.0, 0.0, 0.0, 0.0, 1.645923131757591E9, 0.0, 2022-02-27 11:52:11.757
62.0, -102.77332100550187, -2630.554453200633, -1905.2850491148292, -9023.421588351917, 377.34214989449384, 697.7767584057759, -4379.377291128313, -1317.9259083182703, -2091.519783916448, -3903.709817374923, -3321.3798190808084, -2200.931573025176, -2713.233555940814, -1587.5550016826394, -7518.322171964905, -14595.063280470764, 0.0116875, -0.10325000000000001, 0.9940625, 192.0, 0.0, 0.0, 0.0, 0.0, 0.0, 0.0, 0.0, 0.0, 0.0, 1.645923131765567E9, 0.0, 2022-02-27 11:52:11.765
64.0, -326.08959985847474, -2840.0797057246814, -2130.3671157797717, -9241.105227602153, 139.13960923428647, 495.784043763166, -4587.3826250294005, -1516.1411781479333, -2333.3880106673255, -4171.371957227225, -3545.3890020118956, -2438.8658927519195, -2940.6402040291077, -1811.5418328692715, -7736.072866448506, -14827.230850128039, 0.0116875, -0.10325000000000001, 0.9940625, 192.0, 0.0, 0.0, 0.0, 0.0, 0.0, 0.0, 0.0, 0.0, 0.0, 1.645923131772144E9, 0.0, 2022-02-27 11:52:11.772
66.0, -25.48098867905005, -2554.200894141304, -1852.1102490556539, -8961.171980043886, 440.463476236281, 765.5695993387222, -4313.618458940799, -1258.2020471336898, -2126.6343744557353, -4026.219728734461, -3448.471838053684, -2352.565807409979, -2844.6841650824745, -1727.8345498841466, -7643.626051381356, -14650.003868341908, 0.01184375, -0.106625, 0.9920312499999999, 192.0, 0.0, 48.0, 126.0, 72.0, 15.0, 120.0, 0.0, 0.0, 0.0, 1.645923131780102E9, 0.0, 2022-02-27 11:52:11.780
68.0, -225.17147364276335, -2747.029393557238, -2044.6258240492136, -9172.23950293535, 234.76037201409008, 556.3796229815034, -4519.790949796552, -1477.6961776848052, -2226.770189615511, -4015.133263484629, -3391.676055392749, -2276.189896606195, -2782.4122050299893, -1662.433345607918, -7583.075175651929, -14721.127119198694, 0.01184375, -0.106625, 0.9920312499999999, 192.0, 0.0, 0.0, 0.0, 0.0, 0.0, 0.0, 0.0, 0.0, 0.0, 1.645923131788169E9, 0.0, 2022-02-27 11:52:11.788
70.0, -172.55546719497053, -2693.318151631135, -1992.0768728347866, -9106.547725981203, 287.19756450624044, 616.841091733109, -4432.619146420854, -1363.1881908402672, -2278.1344983738063, -4198.015236617951, -3586.918543209856, -2505.9211261178407, -2995.3796262001547, -1878.03827262381, -7780.0610995365505, -14808.388329552214, 0.01184375, -0.106625, 0.9920312499999999, 192.0, 0.0, 0.0, 0.0, 0.0, 0.0, 0.0, 0.0, 0.0, 0.0, 1.645923131795207E9, 0.0, 2022-02-27 11:52:11.795
72.0, -63.3001402974296, -2593.428205660368, -1898.4007118225948, -9017.83365223809, 383.2653621751502, 709.2655550558037, -4390.396701144779, -1309.1863762362452, -2086.3341792028164, -3929.5707857097136, -3316.8647667008363, -2209.514642896014, -2713.3676664075456, -1599.088501821578, -7510.364950938815, -14591.084669957718, 0.01184375, -0.106625, 0.9920312499999999, 192.0, 0.0, 0.0, 0.0, 0.0, 0.0, 0.0, 0.0, 0.0, 0.0, 1.645923131802732E9, 0.0, 2022-02-27 11:52:11.802
74.0, -291.8690790973996, -2807.93789719795, -2125.2932697884166, -9240.009992123842, 141.24067321308533, 496.36518911900396, -4607.6333055059085, -1517.6610967708943, -2312.1538534347837, -4162.274797233916, -3526.2335570136975, -2426.661840279322, -2936.348669093689, -1794.8450797611572, -7728.696790778255, -14821.844079714308, 0.01184375, -0.106625, 0.9920312499999999, 192.0, 0.0, 0.0, 0.0, 0.0, 0.0, 0.0, 0.0, 0.0, 0.0, 1.645923131809881E9, 0.0, 2022-02-27 11:52:11.809
76.0, 7.6442966037150155, -2518.0804751015276, -1840.5767489167154, -8954.53351194066, 434.8978918669095, 770.7105005634428, -4334.874967917796, -1245.7968289609944, -2105.1990515230955, -4020.385923431626, -3433.6302797353605, -2339.8476648149094, -2847.2322639503795, -1718.0221340682667, -7649.772781106566, -14647.344010751727, 0.011921875, -0.1063125, 0.990015625, 192.0, 0.0, 48.0, 126.0, 88.0, 15.0, 112.0, 0.0, 0.0, 0.0, 1.645923131817771E9, 0.0, 2022-02-27 11:52:11.817
78.0, -204.13848211031942, -2732.1431317500037, -2045.385783360694, -9170.049031978731, 219.89646195131087, 549.4058787114476, -4513.934792749261, -1481.5853812200287, -2217.5612708999242, -4010.349990171193, -3380.321369209453, -2266.377480790315, -2785.3626352980896, -1658.5664938171499, -7585.913847197753, -14720.590677331767, 0.011921875, -0.1063125, 0.990015625, 192.0, 0.0, 0.0, 0.0, 0.0, 0.0, 0.0, 0.0, 0.0, 0.0, 1.645923131824973E9, 0.0, 2022-02-27 11:52:11.824
80.0, -150.20372273966345, -2675.81673572263, -1992.0545210903313, -9102.65852244598, 276.6475411233355, 616.4164085884581, -4444.376164004346, -1386.1434323958674, -2262.7564981885553, -4199.333989540814, -3581.352958840485, -2493.5606114340558, -3002.956867570504, -1877.2783133123296, -7784.263227494148, -14814.378597066236, 0.011921875, -0.1063125, 0.990015625, 192.0, 0.0, 0.0, 0.0, 0.0, 0.0, 0.0, 0.0, 0.0, 0.0, 1.645923131832385E9, 0.0, 2022-02-27 11:52:11.832
82.0, -40.99309933103315, -2572.0822897055496, -1895.6961507435026, -9017.565431304625, 384.4947081201921, 699.1178630730943, -4390.016721489039, -1337.5954434389405, -2079.9415802885987, -3903.463948185915, -3306.0912258733783, -2196.6176863453015, -2717.2345181983137, -1594.1264145524997, -7520.758512110533, -14603.132260219129, 0.011921875, -0.1063125, 0.990015625, 192.0, 0.0, 0.0, 0.0, 0.0, 0.0, 0.0, 0.0, 0.0, 0.0, 1.645923131840361E9, 0.0, 2022-02-27 11:52:11.840
84.0, -271.9983782766316, -2790.2353155893466, -2126.0085256109865, -9240.322916546216, 142.96175753614398, 483.6246947794789, -4606.426311305322, -1537.1741696803774, -2305.0012952090856, -4145.2651197034265, -3515.9741063087117, -2419.3304680979813, -2943.1659511525577, -1796.6779228064922, -7729.143825667361, -14839.166681667171, 0.011921875, -0.1063125, 0.990015625, 192.0, 0.0, 0.0, 0.0, 0.0, 0.0, 0.0, 0.0, 0.0, 0.0, 1.645923131848378E9, 0.0, 2022-02-27 11:52:11.848
86.0, 33.10293353830976, -2499.237954525704, -1844.4659524519388, -8951.068991550088, 435.5237407116581, 775.4714221324232, -4342.608671499333, -1249.194294118201, -2091.273914727439, -4023.358705444182, -3426.0753901094668, -2340.5629206374792, -2854.474229153899, -1732.729581919859, -7653.460818941691, -14654.47421723297, 0.01, -0.106, 0.988, 192.0, 0.0, 40.0, 126.0, 88.0, 15.0, 112.0, 0.0, 0.0, 0.0, 1.645923131855041E9, 0.0, 2022-02-27 11:52:11.855
88.0, -171.41552822774986, -2696.9838377218057, -2045.2740246384174, -9163.05293596422, 225.23852887612927, 561.4758207173135, -4536.3759441823895, -1471.5270962151405, -2200.350427669338, -4001.163423200062, -3363.4010986567855, -2250.865370138332, -2780.981693384849, -1655.3925461044964, -7586.204419875672, -14718.064930208318, 0.01, -0.106, 0.988, 192.0, 0.0, 0.0, 0.0, 0.0, 0.0, 0.0, 0.0, 0.0, 0.0, 1.645923131863099E9, 0.0, 2022-02-27 11:52:11.863
90.0, -132.3446789198731, -2659.0082238922387, -2003.0515793623424, -9109.878135905044, 274.6582358668132, 604.8605567050644, -4458.703632200198, -1398.1463191683674, -2254.464000995636, -4176.11052705175, -3576.2567611046748, -2494.3205707455363, -3003.40390245961, -1879.2899703133073, -7784.576151916523, -14816.256143600482, 0.01, -0.106, 0.988, 192.0, 0.0, 0.0, 0.0, 0.0, 0.0, 0.0, 0.0, 0.0, 0.0, 1.645923131870085E9, 0.0, 2022-02-27 11:52:11.870
92.0, -16.629697874748455, -2552.9938999407173, -1894.6903222430137, -9010.301114356651, 396.2293739592283, 708.3714852775914, -4388.720320310631, -1317.3000594735217, -2069.749184816979, -3902.4134161965153, -3301.5761734934063, -2198.4281776461817, -2711.4677681288445, -1593.6793796633935, -7520.892622577265, -14597.65608282758, 0.01, -0.106, 0.988, 192.0, 0.0, 0.0, 0.0, 0.0, 0.0, 0.0, 0.0, 0.0, 0.0, 1.645923131884762E9, 0.0, 2022-02-27 11:52:11.884
94.0, -265.27050319558424, -2786.167298098481, -2135.3292030488496, -9246.179073593506, 140.03367901249874, 484.94344770234204, -4594.6022384884645, -1512.9895821797352, -2297.9381439612084, -4152.44002967358, -3517.672838887315, -2414.569546529001, -2933.1970731254905, -1806.3562281556403, -7727.758017511132, -14828.16962339516, 0.01, -0.106, 0.988, 192.0, 0.0, 0.0, 0.0, 0.0, 0.0, 0.0, 0.0, 0.0, 0.0, 1.645923131892704E9, 0.0, 2022-02-27 11:52:11.892
96.0, 33.46056144959467, -2499.908506859363, -1848.1539902870645, -8959.450895720827, 447.68308969534513, 764.1614394380379, -4314.646639185744, -1254.491657554109, -2098.828804353333, -4022.956374043986, -3440.425210049774, -2352.99049055463, -2857.7822873332843, -1734.495369731828, -7651.85149334091, -14651.032048586852, 0.014, -0.108, 0.984, 192.0, 0.0, 56.0, 126.0, 80.0, 15.0, 96.0, 0.0, 0.0, 0.0, 1.645923131900784E9, 0.0, 2022-02-27 11:52:11.900
98.0, -168.48744970410465, -2694.9498289763724, -2045.6987077830684, -9167.255063921817, 243.32109014047268, 562.3028352621598, -4522.786083553563, -1448.8624273374592, -2207.123006239296, -4010.4170454045593, -3374.331101695431, -2266.9362744016976, -2774.3655770260784, -1659.6393775510046, -7579.007158161064, -14718.243744163961, 0.014, -0.108, 0.984, 192.0, 0.0, 0.0, 0.0, 0.0, 0.0, 0.0, 0.0, 0.0, 0.0, 1.645923131907311E9, 0.0, 2022-02-27 11:52:11.907
100.0, -126.44381838367205, -2647.4747237533, -2007.0078381309318, -9109.051121360199, 281.0284830365757, 624.5524435701899, -4465.587969492432, -1388.0433306745686, -2255.8051056629547, -4188.1134138242505, -3585.733900753725, -2498.522698703134, -3002.733350125951, -1874.8196214222457, -7790.477012452724, -14811.674035987144, 0.014, -0.108, 0.984, 192.0, 0.0, 0.0, 0.0, 0.0, 0.0, 0.0, 0.0, 0.0, 0.0, 1.645923131915471E9, 0.0, 2022-02-27 11:52:11.915
102.0, -16.89791880821214, -2541.4603998017787, -1901.7534734908909, -9010.9269632014, 393.4354059023149, 722.676601728988, -4379.109070194849, -1295.3506464184102, -2069.2127429500515, -3900.0217795397975, -3310.494519531074, -2193.4660903771032, -2717.815663554152, -1582.794080113659, -7521.183195255184, -14588.60362632318, 0.014, -0.108, 0.984, 192.0, 0.0, 0.0, 0.0, 0.0, 0.0, 0.0, 0.0, 0.0, 0.0, 1.645923131923345E9, 0.0, 2022-02-27 11:52:11.923
104.0, -270.858439309411, -2786.212001587391, -2141.990022896531, -9251.655250985057, 139.85486505685628, 485.7928139916437, -4583.247552305169, -1504.473567542263, -2309.046960955496, -4156.977433798008, -3530.636850671393, -2423.040857677562, -2944.4847040754207, -1814.2910974372742, -7728.026238444596, -14820.234754113526, 0.014, -0.108, 0.984, 192.0, 0.0, 0.0, 0.0, 0.0, 0.0, 0.0, 0.0, 0.0, 0.0, 1.645923131930419E9, 0.0, 2022-02-27 11:52:11.930
106.0, 32.834712604846075, -2499.4838237147123, -1856.2453217798857, -8963.653023678426, 447.70544143980044, 765.994282483373, -4313.082017073872, -1248.456686551176, -2106.4731009570482, -4032.2546997373943, -3450.6623090103044, -2363.9875488266407, -2867.8405723381725, -1747.235864071353, -7653.32670847496, -14652.753132909911, 0.014, -0.106, 0.988, 192.0, 0.0, 56.0, 126.0, 88.0, 15.0, 112.0, 0.0, 0.0, 0.0, 1.645923131937084E9, 0.0, 2022-02-27 11:52:11.937
108.0, -168.1074700483644, -2695.4415673543895, -2052.292472397384, -9165.9139592545, 235.76620051457888, 561.9675590953302, -4524.127188220881, -1436.5242643981296, -2217.181291244184, -4004.9185162685535, -3378.577933141939, -2266.3551290458595, -2787.6425132325307, -1664.534409586717, -7582.35991982936, -14712.834622005776, 0.014, -0.106, 0.988, 192.0, 0.0, 0.0, 0.0, 0.0, 0.0, 0.0, 0.0, 0.0, 0.0, 1.645923131944827E9, 0.0, 2022-02-27 11:52:11.944
110.0, -139.43018191220546, -2660.3493285595573, -2018.809559203334, -9116.427197030449, 272.6018753769249, 624.418333103458, -4474.439260296734, -1367.7255949646944, -2267.137440101795, -4186.705253923566, -3592.215906645764, -2496.2875242576033, -3013.4845392089537, -1878.3735487906397, -7791.2146200197485, -14803.806221938876, 0.014, -0.106, 0.988, 192.0, 0.0, 0.0, 0.0, 0.0, 0.0, 0.0, 0.0, 0.0, 0.0, 1.645923131952975E9, 0.0, 2022-02-27 11:52:11.952
112.0, -14.595689129315511, -2544.8355132145302, -1901.5746595352484, -9013.005675435743, 401.8396618175104, 714.8311394251751, -4381.523058596023, -1304.9618965341922, -2081.3273884448276, -3907.10728253213, -3318.4740923016184, -2203.3679131708045, -2722.934213034417, -1592.405330229441, -7523.507776678536, -14586.949597233486, 0.014, -0.106, 0.988, 192.0, 0.0, 0.0, 0.0, 0.0, 0.0, 0.0, 0.0, 0.0, 0.0, 1.645923131960125E9, 0.0, 2022-02-27 11:52:11.960
114.0, -272.46776491019307, -2791.129385367559, -2149.18728461114, -9254.40451555306, 131.80823705294574, 479.4896220552471, -4588.075529107515, -1519.896271216425, -2311.349190634393, -4153.512913407435, -3529.7427808931807, -2421.5879942879674, -2944.1941313975017, -1805.1939374439644, -7725.634601787878, -14825.286248360426, 0.014, -0.106, 0.988, 192.0, 0.0, 0.0, 0.0, 0.0, 0.0, 0.0, 0.0, 0.0, 0.0, 1.645923131967571E9, 0.0, 2022-02-27 11:52:11.967
116.0, 25.592747401326587, -2505.8987743733855, -1865.1413160730979, -8970.984395859767, 439.21177854678376, 763.7144045489317, -4316.054799086428, -1252.9493871866928, -2119.7723889079557, -4027.60553689069, -3465.0121289506114, -2370.0672233184846, -2881.85511611165, -1739.1221808340765, -7667.050679570518, -14659.928042880065, 0.01, -0.106, 0.99, 192.0, 0.0, 40.0, 126.0, 88.0, 15.0, 120.0, 0.0, 0.0, 0.0, 1.645923131975555E9, 0.0, 2022-02-27 11:52:11.975
118.0, -166.29697874748456, -2690.39007310749, -2053.2088939200517, -9168.104430211119, 244.9751192301654, 566.0132248417408, -4514.895917760839, -1451.8799128389255, -2212.2415557195613, -3993.675588807534, -3381.2824942210314, -2265.7069284566555, -2784.870896920073, -1658.3206246281416, -7585.377405330826, -14715.449776107047, 0.01, -0.106, 0.99, 192.0, 0.0, 0.0, 0.0, 0.0, 0.0, 0.0, 0.0, 0.0, 0.0, 1.64592313198281E9, 0.0, 2022-02-27 11:52:11.982
120.0, -142.91705404723336, -2668.261846096736, -2022.4305418050938, -9127.357200069095, 266.25397995161774, 609.6214782740449, -4464.4703822696665, -1384.3776445838982, -2269.64083548079, -4200.2057075745715, -3599.212002660275, -2511.620820953944, -3019.698324167529, -1887.8506884396897, -7795.30498925507, -14816.345550578304, 0.01, -0.106, 0.99, 192.0, 0.0, 0.0, 0.0, 0.0, 0.0, 0.0, 0.0, 0.0, 0.0, 1.64592313199017E9, 0.0, 2022-02-27 11:52:11.990
122.0, -1.3187529228631167, -2543.203835869293, -1896.6125722661702, -9009.295285856162, 399.7609495831668, 710.7631219343093, -4381.098375451372, -1306.1688907347789, -2078.242847709995, -3915.0645035582193, -3316.641249256283, -2206.541860883458, -2720.4308176554227, -1597.0991965650555, -7526.0111720575305, -14591.934036247021, 0.01, -0.106, 0.99, 192.0, 0.0, 0.0, 0.0, 0.0, 0.0, 0.0, 0.0, 0.0, 0.0, 1.645923132005248E9, 0.0, 2022-02-27 11:52:12.005
124.0, -253.66994782327984, -2779.953513139905, -2138.793723439422, -9253.488094030392, 145.39809768177244, 474.63929350844546, -4594.110500110448, -1534.0002219677237, -2301.7155887741555, -4150.58483488379, -3516.152920264354, -2414.1225116398946, -2932.8617969586608, -1804.2551641768414, -7723.846462231453, -14828.750768750999, 0.01, -0.106, 0.99, 192.0, 0.0, 0.0, 0.0, 0.0, 0.0, 0.0, 0.0, 0.0, 0.0, 1.645923132012449E9, 0.0, 2022-02-27 11:52:12.012
126.0, 32.700602138114235, -2503.484785972212, -1863.1296590721201, -8968.950387114333, 437.53539771263576, 752.963215465929, -4330.203453326637, -1252.8152767199608, -2110.5858219368247, -4028.9242898135535, -3455.9820241906673, -2370.0001680851183, -2874.6578543970413, -1747.6381954715487, -7668.794115638032, -14667.035897616852, 0.012, -0.108, 0.99, 192.0, 0.0, 48.0, 126.0, 80.0, 15.0, 120.0, 0.0, 0.0, 0.0, 1.645923132019926E9, 0.0, 2022-02-27 11:52:12.019
128.0, -163.52536243502647, -2690.188907407392, -2050.0125944629426, -9164.103467953619, 238.76133427159004, 556.5584369371459, -4528.977516767683, -1455.992633818702, -2221.204605246139, -4002.12454821164, -3381.036625032023, -2267.7185854576333, -2789.0506731332152, -1658.3653281170523, -7583.790431474499, -14711.225296404995, 0.012, -0.108, 0.99, 192.0, 0.0, 0.0, 0.0, 0.0, 0.0, 0.0, 0.0, 0.0, 0.0, 1.645923132027804E9, 0.0, 2022-02-27 11:52:12.027
130.0, -144.36991743682833, -2662.76331696073, -2027.2361668629846, -9125.747874468312, 258.8779042813664, 594.1093676220618, -4487.291513358536, -1399.4874238356858, -2278.536829774002, -4182.078442821317, -3593.6240665464484, -2501.629591182422, -3020.927670112571, -1889.4153105515613, -7798.814213134553, -14820.950009936096, 0.012, -0.108, 0.99, 192.0, 0.0, 0.0, 0.0, 0.0, 0.0, 0.0, 0.0, 0.0, 0.0, 1.645923132035858E9, 0.0, 2022-02-27 11:52:12.035
132.0, 2.503395378994391, -2534.5090072761786, -1888.7000547289915, -9002.075672397099, 412.47909217823656, 707.6785811994769, -4381.791279529486, -1301.095044743424, -2081.930885545121, -3904.447424941948, -3314.8307579554034, -2208.0394277619635, -2727.963355536861, -1598.3285425100973, -7531.7108668936335, -14590.190600179507, 0.012, -0.108, 0.99, 192.0, 0.0, 0.0, 0.0, 0.0, 0.0, 0.0, 0.0, 0.0, 0.0, 1.645923132042369E9, 0.0, 2022-02-27 11:52:12.042
134.0, -264.018805506087, -2785.3402835536344, -2139.0172408839753, -9254.516274275336, 145.17458023721937, 457.5625607445909, -4588.902543652362, -1518.6222217824725, -2308.6669812997557, -4144.952195281052, -3511.369646950918, -2408.1545958703277, -2924.658706743563, -1796.4097018730286, -7719.24200287366, -14829.153100151194, 0.012, -0.108, 0.99, 192.0, 0.0, 0.0, 0.0, 0.0, 0.0, 0.0, 0.0, 0.0, 0.0, 1.645923132050388E9, 0.0, 2022-02-27 11:52:12.050
136.0, 23.20111074460873, -2503.395378994391, -1865.3871852621062, -8964.547093456638, 430.7404673982224, 758.8864277465854, -4324.012020112517, -1242.332308570422, -2133.9433948926207, -4049.063211567785, -3470.8235825089914, -2381.2877990350485, -2886.4595754694433, -1758.8587711881128, -7673.085650573451, -14669.606348229212, 0.012, -0.10200000000000001, 0.984, 192.0, 0.0, 48.0, 126.0, 104.0, 15.0, 96.0, 0.0, 0.0, 0.0, 1.6459231320575E9, 0.0, 2022-02-27 11:52:12.057
138.0, -164.77706012452367, -2682.0752241701157, -2044.379954860205, -9157.196778916928, 238.22489240466268, 570.617684199534, -4527.412894655811, -1441.9110348118586, -2225.2055675036395, -3984.1090421806625, -3380.388424442819, -2259.1578673312506, -2787.061367876693, -1641.4450575643848, -7582.046995406985, -14705.726767268989, 0.012, -0.10200000000000001, 0.984, 192.0, 0.0, 0.0, 0.0, 0.0, 0.0, 0.0, 0.0, 0.0, 0.0, 1.645923132065469E9, 0.0, 2022-02-27 11:52:12.065
140.0, -149.19789423917464, -2659.81288669263, -2030.0524866643534, -9125.23378434584, 252.93234025625472, 598.8926409354974, -4496.858059985407, -1387.551592296552, -2288.438652567703, -4181.184373043105, -3597.7144357817697, -2514.526547733134, -3022.5816992022633, -1879.938170902511, -7798.277771267626, -14816.904344189687, 0.012, -0.10200000000000001, 0.984, 192.0, 0.0, 0.0, 0.0, 0.0, 0.0, 0.0, 0.0, 0.0, 0.0, 1.645923132072017E9, 0.0, 2022-02-27 11:52:12.072
142.0, -15.601517629804329, -2538.5323212781336, -1897.2831245998293, -9002.96974217531, 397.7269408377339, 701.6212584520887, -4389.793204044486, -1312.5838413934518, -2096.9512578190875, -3920.7641983943226, -3321.580984780906, -2209.3358289403714, -2735.5182451627547, -1596.2051267868433, -7531.755570382545, -14589.788268779312, 0.012, -0.10200000000000001, 0.984, 192.0, 0.0, 0.0, 0.0, 0.0, 0.0, 0.0, 0.0, 0.0, 0.0, 1.645923132080062E9, 0.0, 2022-02-27 11:52:12.080
144.0, -275.0605672670087, -2783.7086062083968, -2142.99585139702, -9256.125599876119, 138.71492608963564, 464.4692497812808, -4604.682875237808, -1533.083800445056, -2331.666926344267, -4158.072669276317, -3523.5960511679714, -2416.8717762078973, -2941.7801429963283, -1805.8644897776235, -7725.522843065602, -14828.527251306446, 0.012, -0.10200000000000001, 0.984, 192.0, 0.0, 0.0, 0.0, 0.0, 0.0, 0.0, 0.0, 0.0, 0.0, 1.645923132088105E9, 0.0, 2022-02-27 11:52:12.088
146.0, 23.29051772242996, -2502.0542743270726, -1861.9226648715337, -8964.68120392337, 434.2496912777056, 748.4928665748677, -4333.198587083649, -1248.1437621288017, -2135.195092582118, -4041.3518597307043, -3465.146239417343, -2384.439395003247, -2887.3536452476555, -1756.6683002314926, -7673.42092674028, -14665.627737716168, 0.014, -0.10200000000000001, 0.98, 192.0, 0.0, 56.0, 126.0, 104.0, 15.0, 80.0, 0.0, 0.0, 0.0, 1.645923132095224E9, 0.0, 2022-02-27 11:52:12.095
148.0, -157.6468536432807, -2676.9343229453953, -2041.2283588920068, -9147.563177056692, 241.04121220603136, 569.9024283769642, -4526.675287088787, -1444.5932441464954, -2218.187119744673, -3999.3305801547267, -3369.056090003978, -2248.116105570329, -2779.953513139905, -1650.631624535516, -7580.92940818422, -14698.753022998933, 0.014, -0.10200000000000001, 0.98, 192.0, 0.0, 0.0, 0.0, 0.0, 0.0, 0.0, 0.0, 0.0, 0.0, 1.645923132102668E9, 0.0, 2022-02-27 11:52:12.102
150.0, -148.25912097205173, -2658.494133769767, -2029.0019546749538, -9126.373723313061, 245.44450586372685, 592.7906146991986, -4504.0329699555605, -1411.959697241747, -2286.5164025445465, -4190.773271414432, -3590.9642089562667, -2494.0299980676173, -3022.0676090797915, -1879.8711156691452, -7799.3730067459355, -14813.730396477033, 0.014, -0.10200000000000001, 0.98, 192.0, 0.0, 0.0, 0.0, 0.0, 0.0, 0.0, 0.0, 0.0, 0.0, 1.645923132112101E9, 0.0, 2022-02-27 11:52:12.112
152.0, -10.88529954973454, -2527.8258356840415, -1891.6728367415474, -9002.030968908188, 398.3751414269378, 717.1333691040718, -4385.032282475506, -1299.9104022872928, -2092.927943817132, -3907.129634276585, -3315.411903311241, -2205.9383637831647, -2732.5678148946545, -1602.5306704676952, -7535.2871460064825, -14588.961254234464, 0.014, -0.10200000000000001, 0.98, 192.0, 0.0, 0.0, 0.0, 0.0, 0.0, 0.0, 0.0, 0.0, 0.0, 1.645923132119604E9, 0.0, 2022-02-27 11:52:12.119
154.0, -265.96340727369875, -2765.961321110883, -2141.319470562872, -9247.40841953855, 126.08619047238714, 479.1766976328728, -4613.824738720029, -1515.7164950032825, -2325.855472785887, -4130.3565061517365, -3513.8059870965467, -2409.2945348375483, -2943.054192430281, -1804.4339781324838, -7724.762883754121, -14820.525326791445, 0.013000000000000001, -0.099, 0.981, 192.0, 0.0, 48.0, 126.5, 0.0, 15.0, 88.0, 0.0, 0.0, 0.0, 1.645923132132247E9, 0.0, 2022-02-27 11:52:12.132
156.0, 19.490721165027757, -2503.171861549838, -1865.8342201512123, -8964.34592775654, 421.5539004270912, 745.5647880512224, -4342.921595921707, -1251.004785419081, -2141.431229285148, -4051.834827880243, -3466.9790824626784, -2384.037063603051, -2897.7472064193735, -1765.5419427802497, -7679.724118676677, -14667.572339483779, 0.013000000000000001, -0.099, 0.981, 192.0, 0.0, 0.0, 0.0, 0.0, 0.0, 0.0, 0.0, 0.0, 0.0, 1.645923132140258E9, 0.0, 2022-02-27 11:52:12.140
158.0, -156.9315978207109, -2677.8507444680627, -2039.417867591127, -9153.642851548535, 239.14131392733026, 559.7547363942548, -4533.760790081119, -1445.0402790356015, -2219.7070383676337, -3996.804833031277, -3365.457459146674, -2250.172466060217, -2785.0050073868047, -1649.46933382384, -7579.029509905519, -14704.832697490776, 0.013000000000000001, -0.099, 0.981, 192.0, 0.0, 0.0, 0.0, 0.0, 0.0, 0.0, 0.0, 0.0, 0.0, 1.645923132147466E9, 0.0, 2022-02-27 11:52:12.147
160.0, -159.41264145524997, -2668.1053838855487, -2037.9203007126214, -9135.627345517558, 239.07425869396434, 587.5156030077461, -4507.27397290158, -1399.9568104692473, -2291.947876447186, -4193.9248673826305, -3592.126499667943, -2511.397303509391, -3024.0792660807692, -1889.2588483403742, -7798.523640456634, -14823.11812914826, 0.013000000000000001, -0.099, 0.981, 192.0, 0.0, 0.0, 0.0, 0.0, 0.0, 0.0, 0.0, 0.0, 0.0, 1.645923132154913E9, 0.0, 2022-02-27 11:52:12.154
162.0, -6.750226825502733, -2530.5974519965, -1894.5115082873713, -9000.958085174332, 391.71432157925625, 720.8214069391975, -4395.49289888059, -1298.7481115756168, -2091.966818805554, -3901.362884207116, -3318.8540719573584, -2217.5612708999242, -2737.7534196082856, -1603.5588507126392, -7533.566061683424, -14588.916550745555, 0.013000000000000001, -0.099, 0.981, 192.0, 0.0, 0.0, 0.0, 0.0, 0.0, 0.0, 0.0, 0.0, 0.0, 1.645923132162924E9, 0.0, 2022-02-27 11:52:12.162
164.0, -267.7738985745786, -2778.992388128327, -2148.0920491328297, -9253.175169608017, 127.5614056064374, 471.10771788450694, -4617.53512829961, -1516.7446752482267, -2326.8165977974654, -4150.6295383727, -3514.923574319312, -2414.3907325733585, -2934.5828812817194, -1799.2260216743973, -7722.170081397305, -14825.755634993988, 0.0125, -0.0975, 0.9835, 192.0, 0.0, 48.0, 126.5, 0.0, 15.0, 104.0, 0.0, 0.0, 0.0, 1.645923132171039E9, 0.0, 2022-02-27 11:52:12.171
166.0, 25.145712512220445, -2496.041655068595, -1864.8954468840896, -8966.938730113356, 435.07670582255196, 760.9874917253843, -4360.355956596846, -1259.520800056553, -2140.157179851196, -4062.161333818595, -3471.896466242846, -2390.3179037949926, -2891.354607505156, -1765.9889776693558, -7683.993301867641, -14673.875531420175, 0.0125, -0.0975, 0.9835, 192.0, 0.0, 0.0, 0.0, 0.0, 0.0, 0.0, 0.0, 0.0, 0.0, 1.645923132177565E9, 0.0, 2022-02-27 11:52:12.177
168.0, -154.1376297637975, -2672.2404566097807, -2036.936823956588, -9153.017002703788, 246.80796227550059, 571.6458644444781, -4521.377923652879, -1426.130703226412, -2209.089959751363, -3993.675588807534, -3357.5002381205845, -2256.5203614855245, -2764.6202164435645, -1640.3945255749854, -7573.151001113773, -14700.33999685526, 0.0125, -0.0975, 0.9835, 192.0, 0.0, 0.0, 0.0, 0.0, 0.0, 0.0, 0.0, 0.0, 0.0, 1.645923132184539E9, 0.0, 2022-02-27 11:52:12.184
170.0, -164.8441153578896, -2674.0285961662053, -2043.1506089151633, -9147.674935778969, 242.82935176245593, 588.4096727859584, -4495.516955318089, -1393.4077493438424, -2293.020760181041, -4195.02010286094, -3587.857316476979, -2513.364257021458, -3015.9432310990373, -1894.846784454201, -7795.30498925507, -14824.12395764875, 0.0125, -0.0975, 0.9835, 192.0, 0.0, 0.0, 0.0, 0.0, 0.0, 0.0, 0.0, 0.0, 0.0, 1.645923132194235E9, 0.0, 2022-02-27 11:52:12.194
172.0, 0.8493662893016684, -2522.416713525857, -1889.7282349739355, -8999.728739229291, 407.6734671203455, 728.5104070318231, -4379.019663217028, -1280.2855706555333, -2085.3059989578724, -3914.9974483248534, -3315.300144588965, -2221.919861068709, -2728.25392821478, -1612.6783624504046, -7532.381419227293, -14586.815486766754, 0.0125, -0.0975, 0.9835, 192.0, 0.0, 0.0, 0.0, 0.0, 0.0, 0.0, 0.0, 0.0, 0.0, 1.645923132200662E9, 0.0, 2022-02-27 11:52:12.200
174.0, -268.35504393041657, -2772.6221409585646, -2146.192150854129, -9250.045925384275, 135.85390279935632, 485.52459305818, -4604.861689193451, -1508.7874542221373, -2319.596984338401, -4136.77145681041, -3500.9760857792007, -2409.6074592599225, -2917.8190729402395, -1799.9189257525118, -7713.385845826369, -14817.105509889783, 0.013250000000000001, -0.10075, 0.98475, 192.0, 0.0, 56.0, 126.0, 96.0, 15.0, 104.0, 0.0, 0.0, 0.0, 1.645923132207191E9, 0.0, 2022-02-27 11:52:12.207
176.0, 12.874604806256869, -2508.759797663665, -1872.6962056989917, -8971.006747604222, 427.52181619665816, 763.1109074486384, -4336.104313862838, -1235.6714887227404, -2153.2553021020058, -4060.999043106919, -3473.930474988279, -2393.3577410409143, -2896.7860814077953, -1766.9053991920232, -7687.167249580294, -14674.210807587006, 0.013250000000000001, -0.10075, 0.98475, 192.0, 0.0, 0.0, 0.0, 0.0, 0.0, 0.0, 0.0, 0.0, 0.0, 1.645923132215193E9, 0.0, 2022-02-27 11:52:12.215
178.0, -150.9189785622333, -2668.5077152857443, -2033.4052483326493, -9147.8090462457, 256.64272983583567, 587.649713474478, -4513.3089439045125, -1425.124874725923, -2215.706076110134, -3974.2966263647827, -3354.683918319216, -2244.2045502906503, -2768.3306060231457, -1640.5509877861725, -7570.759364457055, -14696.473145064492, 0.013250000000000001, -0.10075, 0.98475, 192.0, 0.0, 0.0, 0.0, 0.0, 0.0, 0.0, 0.0, 0.0, 0.0, 1.645923132223292E9, 0.0, 2022-02-27 11:52:12.223
180.0, -161.53605717850414, -2670.161744375437, -2046.257501394451, -9141.86348222059, 240.4824185946487, 587.135623352006, -4502.133071676859, -1399.4650720912305, -2296.2170596381497, -4184.693596922588, -3584.057519919577, -2502.3224952605365, -3017.731370655462, -1889.3706070626506, -7794.992064832696, -14825.710931505077, 0.013250000000000001, -0.10075, 0.98475, 192.0, 0.0, 0.0, 0.0, 0.0, 0.0, 0.0, 0.0, 0.0, 0.0, 1.64592313222994E9, 0.0, 2022-02-27 11:52:12.229
182.0, 6.951392525600497, -2514.5712512220443, -1891.9634094194664, -8996.778308961191, 405.28183046362767, 722.7213052178986, -4374.728128281609, -1293.227230695156, -2083.6296181237244, -3907.5096139323255, -3311.835624198392, -2211.638058619268, -2731.472579416344, -1602.3518565120528, -7530.973259326609, -14588.134239689618, 0.013250000000000001, -0.10075, 0.98475, 192.0, 0.0, 0.0, 0.0, 0.0, 0.0, 0.0, 0.0, 0.0, 0.0, 1.645923132237837E9, 0.0, 2022-02-27 11:52:12.237
184.0, -252.59706408942512, -2760.6863094194305, -2147.4885520325365, -9245.799093937767, 134.06576324293175, 482.46240406780294, -4612.640096263897, -1516.1635298923886, -2314.277269158038, -4125.237956671472, -3495.030521754089, -2389.848517161431, -2919.2048810964684, -1794.6439140610594, -7713.542308037557, -14819.564201779867, 0.014625, -0.104375, 0.987375, 192.0, 0.0, 64.0, 126.0, 80.0, 15.0, 120.0, 0.0, 0.0, 0.0, 1.645923132253069E9, 0.0, 2022-02-27 11:52:12.253
186.0, 29.549006169915938, -2493.426500967324, -1871.13158358712, -8965.351756257029, 421.37508647144875, 759.0428899577726, -4338.42889528619, -1248.3672795733548, -2139.6207379842685, -4044.2799382543494, -3464.3415766169524, -2381.310150779504, -2900.250601798368, -1770.012291671311, -7689.670644959288, -14674.054345375818, 0.014625, -0.104375, 0.987375, 192.0, 0.0, 0.0, 0.0, 0.0, 0.0, 0.0, 0.0, 0.0, 0.0, 1.645923132259481E9, 0.0, 2022-02-27 11:52:12.259
188.0, -138.22318771161886, -2650.00047087675, -2030.4771698090042, -9141.595261287124, 248.50669485410393, 591.293047820693, -4516.639353828354, -1429.6846305948056, -2202.67500909269, -3961.5784837697133, -3344.5585780809615, -2233.25219550755, -2769.6270072015536, -1623.3624963000414, -7568.300672566971, -14689.499400794435, 0.014625, -0.104375, 0.987375, 192.0, 0.0, 0.0, 0.0, 0.0, 0.0, 0.0, 0.0, 0.0, 0.0, 1.645923132267457E9, 0.0, 2022-02-27 11:52:12.267
190.0, -158.36210946585055, -2670.4299653089006, -2044.1787891601075, -9138.7565897413, 236.63791854833588, 594.2658298332489, -4490.487812815644, -1404.4718628492192, -2287.5445827894905, -4186.30292252337, -3578.156659383376, -2488.822041609531, -3012.791635130839, -1888.007150650877, -7791.326378742026, -14817.17256512315, 0.014625, -0.104375, 0.987375, 192.0, 0.0, 0.0, 0.0, 0.0, 0.0, 0.0, 0.0, 0.0, 0.0, 1.645923132275579E9, 0.0, 2022-02-27 11:52:12.275
192.0, 14.327468195851827, -2510.5702889645445, -1878.909990657567, -8987.792907690156, 414.2448799902058, 741.0720874157057, -4363.105221164849, -1290.008579493592, -2068.9892255054983, -3884.1296892320743, -3307.5664410074287, -2199.2104887021173, -2728.164521236959, -1606.0398943471785, -7527.285221491483, -14580.17701866353, 0.014625, -0.104375, 0.987375, 192.0, 0.0, 0.0, 0.0, 0.0, 0.0, 0.0, 0.0, 0.0, 0.0, 1.645923132282673E9, 0.0, 2022-02-27 11:52:12.282
194.0, -260.42017464878256, -2761.826248386651, -2135.4186100266706, -9250.560015506748, 141.1065627463535, 494.1300146734732, -4599.854898435462, -1516.6105647814948, -2304.241335897605, -4114.330305377282, -3491.6330565968824, -2395.056473619518, -2912.9463926489825, -1787.2454866463527, -7697.493755518646, -14809.058881885872, 0.0173125, -0.10518749999999999, 0.9886874999999999, 192.0, 0.0, 80.0, 126.0, 88.0, 15.0, 120.0, 0.0, 0.0, 0.0, 1.645923132290157E9, 0.0, 2022-02-27 11:52:12.290
196.0, 16.942622297122753, -2497.4498149692795, -1866.75064167388, -8968.078669080576, 419.25167074819456, 766.575427839211, -4346.900206434751, -1247.8531894508826, -2139.5536827509027, -4029.9971735474082, -3476.255056411631, -2410.8368052049645, -2903.178680322013, -1778.461251075417, -7683.658025700811, -14675.529560509869, 0.0173125, -0.10518749999999999, 0.9886874999999999, 192.0, 0.0, 0.0, 0.0, 0.0, 0.0, 0.0, 0.0, 0.0, 0.0, 1.64592313229812E9, 0.0, 2022-02-27 11:52:12.298
198.0, -137.6420423557809, -2654.962558145828, -2020.6200505042139, -9128.005400658298, 259.6378635928468, 599.1608618689611, -4512.303115404024, -1426.6894968377944, -2193.6225525882905, -3967.1440681390845, -3347.196083926688, -2221.6739918797007, -2759.412259985478, -1637.4440953068847, -7559.047050362475, -14678.770563455888, 0.0173125, -0.10518749999999999, 0.9886874999999999, 192.0, 0.0, 0.0, 0.0, 0.0, 0.0, 0.0, 0.0, 0.0, 0.0, 1.645923132305294E9, 0.0, 2022-02-27 11:52:12.305
200.0, -171.39317648329455, -2677.2472473677694, -2046.5704258168253, -9142.645793276524, 232.21227314618508, 590.0860536201064, -4493.684112272753, -1406.5505750835628, -2291.7243590026333, -4187.934599868608, -3584.2363338752193, -2490.9007538438746, -3012.791635130839, -1881.5474965032931, -7792.01928282014, -14819.161870379672, 0.0173125, -0.10518749999999999, 0.9886874999999999, 192.0, 0.0, 0.0, 0.0, 0.0, 0.0, 0.0, 0.0, 0.0, 0.0, 1.645923132312228E9, 0.0, 2022-02-27 11:52:12.312
202.0, -3.7550930684915866, -2528.518739762156, -1876.7642231898576, -8987.9717216458, 413.73078986773373, 737.6522705140437, -4359.774811241008, -1284.6218090798627, -2078.6898825991016, -3897.2501632273393, -3316.909470189747, -2209.447587662648, -2728.1421694925034, -1606.8669088920246, -7525.921765079709, -14582.166323920052, 0.0173125, -0.10518749999999999, 0.9886874999999999, 192.0, 0.0, 0.0, 0.0, 0.0, 0.0, 0.0, 0.0, 0.0, 0.0, 1.645923132319772E9, 0.0, 2022-02-27 11:52:12.319
204.0, -276.55813414551426, -2796.31499008119, -2132.7140489475787, -9248.078971872208, 142.24650171357413, 487.75976750371075, -4598.334979812501, -1509.9497449338132, -2316.7583127925773, -4121.013476969419, -3496.081053743488, -2387.9933223716407, -2911.180604837013, -1788.787757013769, -7698.633694485867, -14812.344588320804, 0.01565625, -0.10459375, 0.98934375, 192.0, 0.0, 56.0, 126.0, 96.0, 15.0, 120.0, 0.0, 0.0, 0.0, 1.645923132327964E9, 0.0, 2022-02-27 11:52:12.327
206.0, -19.55777639839368, -2540.946309679307, -1866.7059381849692, -8973.532494727671, 428.59469993051295, 755.8465905006636, -4333.310345805925, -1250.781267974528, -2150.483685789548, -4064.4412117530364, -3481.1724401917986, -2408.6686859927995, -2899.6694564425297, -1787.8042802577354, -7685.312054790504, -14680.312833823304, 0.01565625, -0.10459375, 0.98934375, 192.0, 0.0, 0.0, 0.0, 0.0, 0.0, 0.0, 0.0, 0.0, 0.0, 1.645923132335747E9, 0.0, 2022-02-27 11:52:12.335
208.0, -205.01020014407638, -2727.002230525283, -2022.1176173827193, -9140.544729297726, 259.9507880152211, 595.294010078193, -4512.616039826398, -1437.1054097539677, -2211.772169086, -3980.331597367716, -3358.930749765724, -2249.278396282005, -2759.814591385674, -1642.1603133869546, -7557.25891080605, -14685.632549003667, 0.01565625, -0.10459375, 0.98934375, 192.0, 0.0, 0.0, 0.0, 0.0, 0.0, 0.0, 0.0, 0.0, 0.0, 1.645923132342487E9, 0.0, 2022-02-27 11:52:12.342
210.0, -274.21120097770705, -2783.7309579528523, -2052.7842107754004, -9155.408639360505, 223.1374648973304, 584.6322279730115, -4517.89105151785, -1423.4261421473198, -2322.860339028876, -4214.332010070326, -3608.2197556757637, -2522.5731757370445, -3018.960716600504, -1888.9906274069106, -7794.857954365963, -14822.760501236977, 0.01565625, -0.10459375, 0.98934375, 192.0, 0.0, 0.0, 0.0, 0.0, 0.0, 0.0, 0.0, 0.0, 0.0, 1.645923132350449E9, 0.0, 2022-02-27 11:52:12.350
212.0, -137.41852491122782, -2661.064584382127, -1883.715615715458, -8995.705425227336, 412.50144392269186, 738.3004711032476, -4351.549369281455, -1285.2700096690667, -2118.587746451825, -3941.6407277155795, -3353.074592718434, -2247.4679049811252, -2734.9594515513722, -1615.829958418603, -7530.660334904234, -14585.340271632705, 0.01565625, -0.10459375, 0.98934375, 192.0, 0.0, 0.0, 0.0, 0.0, 0.0, 0.0, 0.0, 0.0, 0.0, 1.645923132358503E9, 0.0, 2022-02-27 11:52:12.358
214.0, -454.34390954302665, -2957.8957507486048, -2146.7956479544223, -9257.958442921454, 131.9646992641329, 483.6246947794789, -4592.031787876104, -1515.7164950032825, -2372.1682872972833, -4169.673224648622, -3543.4667519887394, -2433.166197915816, -2919.8754334301275, -1790.0841581921768, -7698.90191541933, -14809.796489452898, 0.011828125, -0.10429687500000001, 0.990671875, 192.0, 0.0, 32.0, 126.0, 96.0, 15.5, 0.0, 0.0, 0.0, 0.0, 1.645923132365483E9, 0.0, 2022-02-27 11:52:12.365
216.0, -213.74973222610143, -2718.642678098998, -1883.3803395486284, -8990.564524002615, 414.9601358127756, 757.3218056347139, -4336.90897666323, -1253.195256375701, -2227.0384105489743, -4112.609221054223, -3547.6912316907924, -2459.5412563730783, -2921.3282968197223, -1791.849946004146, -7695.258581073115, -14689.208828116516, 0.011828125, -0.10429687500000001, 0.990671875, 192.0, 0.0, 0.0, 0.0, 0.0, 0.0, 0.0, 0.0, 0.0, 0.0, 1.645923132380216E9, 0.0, 2022-02-27 11:52:12.380
218.0, -385.4111296428597, -2896.271991285323, -2029.6501552641578, -9153.598148059626, 271.5066398986149, 599.5408415247014, -4497.305094874513, -1423.381438658409, -2276.2569518395608, -4023.515167655369, -3412.1055498248998, -2303.1013969303845, -2766.251893788802, -1640.439229063896, -7558.555311984457, -14680.782220456866, 0.011828125, -0.10429687500000001, 0.990671875, 192.0, 0.0, 0.0, 0.0, 0.0, 0.0, 0.0, 0.0, 0.0, 0.0, 1.645923132388065E9, 0.0, 2022-02-27 11:52:12.388
220.0, -442.7880576596329, -2946.094029676203, -2075.8288593088223, -9179.682633838967, 217.05779040548688, 579.4019197704697, -4513.063074715505, -1411.155034441356, -2394.3188660524925, -4261.002452493007, -3664.2779307696737, -2579.167792697882, -3026.8955858821378, -1902.5134328023712, -7797.696625911788, -14829.421321084657, 0.011828125, -0.10429687500000001, 0.990671875, 192.0, 0.0, 0.0, 0.0, 0.0, 0.0, 0.0, 0.0, 0.0, 0.0, 1.645923132394606E9, 0.0, 2022-02-27 11:52:12.394
222.0, -237.15200867080793, -2747.901111590995, -1894.846784454201, -9005.316675343118, 419.4751881927476, 759.4228696135127, -4354.768020483019, -1279.749128788606, -2180.926761737676, -3973.8942949645875, -3403.2095555316873, -2285.398815321781, -2753.9807860828387, -1616.5899177300832, -7541.8585588763435, -14584.64736755459, 0.011828125, -0.10429687500000001, 0.990671875, 192.0, 0.0, 0.0, 0.0, 0.0, 0.0, 0.0, 0.0, 0.0, 0.0, 1.645923132402737E9, 0.0, 2022-02-27 11:52:12.402
224.0, -503.85302351153183, -3011.1599577856014, -2153.054136401908, -9264.172227880028, 142.55942613594846, 489.3467413600375, -4578.2854650360905, -1498.7738727061599, -2400.890278922353, -4172.78011712791, -3560.7446504526915, -2445.4149538773245, -2916.8355961842058, -1788.430129102484, -7701.360607309414, -14806.89076267371, 0.012, -0.108, 0.99, 192.0, 0.0, 48.0, 126.0, 80.0, 15.0, 120.0, 0.0, 0.0, 0.0, 1.645923132410679E9, 0.0, 2022-02-27 11:52:12.410
226.0, -207.17831935624116, -2719.782617066219, -1884.4308715380278, -8988.374053045995, 420.43631320432587, 754.9078172335408, -4328.482369003578, -1239.8512649358827, -2238.5942624323684, -4144.706326092044, -3554.8437899164906, -2465.82209656502, -2920.2107095969573, -1807.5632223562268, -7700.310075320015, -14687.107764137718, 0.012, -0.108, 0.99, 192.0, 0.0, 0.0, 0.0, 0.0, 0.0, 0.0, 0.0, 0.0, 0.0, 1.645923132418702E9, 0.0, 2022-02-27 11:52:12.418
228.0, -330.58230049399145, -2842.5831011036757, -2026.6326697626914, -9136.879043207055, 273.16066898830763, 613.3095161091705, -4488.386748836845, -1413.546671098074, -2263.0023673775636, -4013.0098477613747, -3402.7625206425814, -2292.0149316805523, -2760.6863094194305, -1636.9970604177786, -7563.2268265756165, -14679.32935706727, 0.012, -0.108, 0.99, 192.0, 0.0, 0.0, 0.0, 0.0, 0.0, 0.0, 0.0, 0.0, 0.0, 1.645923132425356E9, 0.0, 2022-02-27 11:52:12.425
230.0, -356.44326882878175, -2868.578179905198, -2064.921208014632, -9160.95187198542, 224.85854922038905, 591.0918821205953, -4492.74533900563, -1409.188080929289, -2353.2140079991827, -4235.454408580591, -3634.14777924392, -2535.2689665876587, -3012.523414197375, -1878.1276796016311, -7797.227239278226, -14824.906268704686, 0.012, -0.108, 0.99, 192.0, 0.0, 0.0, 0.0, 0.0, 0.0, 0.0, 0.0, 0.0, 0.0, 1.645923132432418E9, 0.0, 2022-02-27 11:52:12.432
232.0, -156.35045246487292, -2677.1131369010377, -1885.9060866720781, -8990.385710046972, 418.58111841453535, 745.8330089846861, -4334.696153962154, -1273.6247508078518, -2134.859816415288, -3947.9215679075205, -3367.4020609142854, -2253.6816899397004, -2737.8204748416515, -1611.8736996500136, -7542.238538532083, -14582.054565197775, 0.012, -0.108, 0.99, 192.0, 0.0, 0.0, 0.0, 0.0, 0.0, 0.0, 0.0, 0.0, 0.0, 1.645923132440327E9, 0.0, 2022-02-27 11:52:12.440
234.0, -415.45187419079235, -2923.697581731985, -2145.2086740980953, -9255.767971964833, 137.10560048885353, 488.8550029820208, -4582.755813927151, -1501.5678407630733, -2367.474420961669, -4157.849151831764, -3535.2636617736416, -2429.276994380593, -2912.901689160072, -1780.3164458652075, -7701.092386375951, -14807.181335351628, 0.014, -0.10400000000000001, 0.99, 192.0, 0.0, 56.0, 126.0, 96.0, 15.0, 120.0, 0.0, 0.0, 0.0, 1.645923132447436E9, 0.0, 2022-02-27 11:52:12.447
236.0, -124.52156836051564, -2641.327994028091, -1884.9002581715893, -8983.009634376722, 414.5801561570354, 758.4840963463898, -4344.754438967042, -1250.2001226186899, -2198.539936368458, -4103.087377916262, -3528.8263593705133, -2443.5150555986233, -2916.790892695295, -1798.1084344516319, -7705.42862480028, -14689.253531605427, 0.014, -0.10400000000000001, 0.99, 192.0, 0.0, 0.0, 0.0, 0.0, 0.0, 0.0, 0.0, 0.0, 0.0, 1.64592313245497E9, 0.0, 2022-02-27 11:52:12.454
238.0, -259.9284362707658, -2772.420975258467, -2022.7211144830126, -9133.302764094205, 270.47845965367077, 611.2531556192822, -4486.218629624681, -1415.8041972880599, -2232.179311773695, -3991.5521730842797, -3379.874334320347, -2264.142306344784, -2760.3063297636904, -1636.2371011062983, -7559.7623061850445, -14673.964938397998, 0.014, -0.10400000000000001, 0.99, 192.0, 0.0, 0.0, 0.0, 0.0, 0.0, 0.0, 0.0, 0.0, 0.0, 1.645923132462915E9, 0.0, 2022-02-27 11:52:12.462
240.0, -294.0148465651091, -2802.6181820175866, -2068.117507471741, -9168.730279055868, 213.28034559254, 575.6468267019781, -4510.626734569876, -1406.9529064837584, -2333.9021007897977, -4192.494355737491, -3619.0156482476773, -2531.580928752533, -3017.4855014664536, -1882.6427319816032, -7798.188364289805, -14821.17352738065, 0.014, -0.10400000000000001, 0.99, 192.0, 0.0, 0.0, 0.0, 0.0, 0.0, 0.0, 0.0, 0.0, 0.0, 1.645923132470061E9, 0.0, 2022-02-27 11:52:12.470
242.0, -93.09501565635392, -2615.869357093496, -1884.3414645602065, -8988.932846657377, 413.39551370090413, 738.546340292256, -4341.580491254388, -1268.3497391163992, -2106.5625079348692, -3930.487207232381, -3351.5323223510177, -2254.8886841402873, -2746.515303434766, -1623.5636620001392, -7540.897433864765, -14578.45593434047, 0.014, -0.10400000000000001, 0.99, 192.0, 0.0, 0.0, 0.0, 0.0, 0.0, 0.0, 0.0, 0.0, 0.0, 1.645923132477661E9, 0.0, 2022-02-27 11:52:12.477
244.0, -351.86116121544376, -2865.6501013815528, -2141.9006159187097, -9246.69316371598, 138.22318771161886, 497.4827763417693, -4598.379683301411, -1517.6834485153495, -2344.7874003395323, -4152.44002967358, -3516.1082167754435, -2399.4150637883026, -2916.0309333838145, -1784.138594167065, -7704.422796299791, -14807.6954254741, 0.008, -0.10400000000000001, 0.994, 192.0, 0.0, 32.0, 126.0, 96.0, 15.5, 8.0, 0.0, 0.0, 0.0, 1.645923132485675E9, 0.0, 2022-02-27 11:52:12.485
246.0, -73.47018402459432, -2594.009351016206, -1879.3570255466732, -8982.9202273989, 405.3265339525383, 753.7008230329542, -4326.738932936065, -1257.5761982889412, -2190.5603635979132, -4094.7725289788877, -3518.991591810178, -2430.3945816033583, -2927.6538405005745, -1793.012236715822, -7711.061264403018, -14691.376947328681, 0.008, -0.10400000000000001, 0.994, 192.0, 0.0, 0.0, 0.0, 0.0, 0.0, 0.0, 0.0, 0.0, 0.0, 1.645923132499737E9, 0.0, 2022-02-27 11:52:12.499
248.0, -204.36199955487248, -2719.9837827663164, -2015.3673905572166, -9129.860595448088, 267.14804972983, 607.0510276616845, -4476.450917297711, -1412.6302495754064, -2219.3270587118936, -3974.9895304428974, -3364.295168434998, -2250.865370138332, -2760.485143719333, -1634.7171824833374, -7559.158809084751, -14675.417801787593, 0.008, -0.10400000000000001, 0.994, 192.0, 0.0, 0.0, 0.0, 0.0, 0.0, 0.0, 0.0, 0.0, 0.0, 1.645923132507291E9, 0.0, 2022-02-27 11:52:12.507
250.0, -247.59027333143632, -2755.1207250500593, -2063.557751602859, -9164.505799353814, 214.77791247104557, 576.1385650799948, -4516.3040776615235, -1418.1511304558671, -2321.340420405915, -4208.989943145507, -3601.2907148946188, -2518.3710477794466, -3016.1891002880457, -1877.2336098234189, -7795.282637510614, -14823.162832637172, 0.008, -0.10400000000000001, 0.994, 192.0, 0.0, 0.0, 0.0, 0.0, 0.0, 0.0, 0.0, 0.0, 0.0, 1.645923132515237E9, 0.0, 2022-02-27 11:52:12.515
252.0, -34.46638995008349, -2561.8898942339297, -1870.4386795090056, -8976.482924995771, 417.0388480471192, 757.0759364457056, -4349.202436113648, -1262.8288582359385, -2090.5363071604143, -3920.9206606055095, -3336.6013570548726, -2238.9295385991977, -2736.032335285227, -1610.465539749329, -7546.820646145421, -14576.421925595037, 0.008, -0.10400000000000001, 0.994, 192.0, 0.0, 0.0, 0.0, 0.0, 0.0, 0.0, 0.0, 0.0, 0.0, 1.645923132523375E9, 0.0, 2022-02-27 11:52:12.523
254.0, -301.39092223536045, -2811.961211199905, -2134.323374548361, -9241.485207257892, 132.47878938660497, 494.17471816238384, -4591.584752986998, -1506.6416867544278, -2316.043056970007, -4112.475110587491, -3487.0956524724547, -2383.94765662523, -2900.9658576209376, -1766.8606957031127, -7701.137089864861, -14800.185239337115, 0.012, -0.11, 0.99, 192.0, 0.0, 48.0, 126.0, 72.0, 15.0, 120.0, 0.0, 0.0, 0.0, 1.645923132529892E9, 0.0, 2022-02-27 11:52:12.529
0.0, -37.9756138295667, -2561.107583177994, -1884.0508918822877, -8983.948407643844, 401.45968216177016, 741.0497356712503, -4360.266549619026, -1256.9950529331034, -2178.512773336503, -4074.968883391486, -3507.7263126047033, -2433.166197915816, -2933.353535336678, -1803.2940391652633, -7719.465520318213, -14692.695700251545, 0.012, -0.11, 0.99, 192.0, 0.0, 0.0, 0.0, 0.0, 0.0, 0.0, 0.0, 0.0, 0.0, 1.645923132538006E9, 0.0, 2022-02-27 11:52:12.538
2.0, -163.45830720166055, -2687.8866777284957, -2009.7571026989344, -9121.836319188633, 269.6737968532797, 611.3649143415588, -4501.529574576566, -1410.998572230169, -2199.38930265776, -3964.350100082171, -3347.620767071339, -2241.477637467103, -2755.92538785045, -1628.8386736915916, -7565.1043731098625, -14667.594691228234, 0.012, -0.11, 0.99, 192.0, 0.0, 0.0, 0.0, 0.0, 0.0, 0.0, 0.0, 0.0, 0.0, 1.645923132545976E9, 0.0, 2022-02-27 11:52:12.545
4.0, -220.14233114031927, -2730.936137549417, -2067.446955138082, -9169.311424411706, 194.88485990582228, 571.5117539777463, -4503.921211233283, -1436.1442847423893, -2320.3345919054264, -4193.5895912158, -3596.9768282147443, -2513.6995331882877, -3022.8722718801823, -1885.3696448051508, -7796.668445666844, -14828.281382117437, 0.012, -0.11, 0.99, 192.0, 0.0, 0.0, 0.0, 0.0, 0.0, 0.0, 0.0, 0.0, 0.0, 1.645923132553082E9, 0.0, 2022-02-27 11:52:12.553
6.0, -0.3352761668296059, -2532.0503153860946, -1864.649577695081, -8975.58885521756, 414.37899045693763, 746.6376717850771, -4340.708773220632, -1277.357492131888, -2080.4109669221602, -3909.5659744222135, -3327.8171214839367, -2236.604957175846, -2747.5658354241655, -1614.3323915400972, -7548.407620001748, -14584.423850110037, 0.012, -0.11, 0.99, 192.0, 0.0, 0.0, 0.0, 0.0, 0.0, 0.0, 0.0, 0.0, 0.0, 1.645923132559618E9, 0.0, 2022-02-27 11:52:12.559
8.0, -271.663102109802, -2791.129385367559, -2127.9531273785983, -9239.272384556816, 133.37285916481724, 491.89484022794255, -4575.782069657096, -1514.2412798692324, -2302.8331759969205, -4121.751084536443, -3474.533972088572, -2384.014711858596, -2892.1592703055467, -1767.3524340811293, -7690.542362993046, -14806.801355695887, 0.008, -0.108, 0.992, 192.0, 0.0, 32.0, 126.0, 80.0, 15.5, 0.0, 0.0, 0.0, 0.0, 1.645923132567654E9, 0.0, 2022-02-27 11:52:12.567
10.0, 3.263354690474831, -2521.723809447743, -1873.8361446662122, -8967.162247557908, 399.1798042273288, 758.8193725132195, -4368.2014189006595, -1266.0475094375026, -2159.7596597385004, -4074.119517102184, -3494.807004309536, -2418.011715175118, -2920.724799719429, -1786.6643412905148, -7717.275049361593, -14698.753022998933, 0.008, -0.108, 0.992, 192.0, 0.0, 0.0, 0.0, 0.0, 0.0, 0.0, 0.0, 0.0, 0.0, 1.645923132575603E9, 0.0, 2022-02-27 11:52:12.575
12.0, -123.18046369319723, -2645.418363263412, -2001.866936906211, -9110.235763816328, 269.09265149744175, 613.7341992538213, -4506.759882779108, -1426.5330346266073, -2174.936494223654, -3937.1927305689733, -3325.9395749496907, -2218.120064511307, -2740.1003527760927, -1605.8387286470806, -7564.322062053927, -14670.008679629407, 0.008, -0.108, 0.992, 192.0, 0.0, 0.0, 0.0, 0.0, 0.0, 0.0, 0.0, 0.0, 0.0, 1.645923132582832E9, 0.0, 2022-02-27 11:52:12.582
14.0, -199.93635415272166, -2715.6028408530765, -2071.447917395582, -9164.215226675895, 199.93635415272166, 567.1531638089614, -4511.923135748284, -1428.9693747722358, -2303.9954667085967, -4187.644027190689, -3578.5813425280267, -2497.8297946250195, -3010.4223502185764, -1878.462955768461, -7804.40214924838, -14830.851832729797, 0.008, -0.108, 0.992, 192.0, 0.0, 0.0, 0.0, 0.0, 0.0, 0.0, 0.0, 0.0, 0.0, 1.645923132590188E9, 0.0, 2022-02-27 11:52:12.590
16.0, 9.678305349147958, -2524.048390871095, -1872.1150603431536, -8970.760878415213, 413.1943480008064, 756.0030527118507, -4346.341412823369, -1269.9367129727261, -2086.1330135027188, -3922.641744928568, -3327.5265488060177, -2232.626346662801, -2750.583320925632, -1621.0826183656, -7553.101486337363, -14584.35679487667, 0.008, -0.108, 0.992, 192.0, 0.0, 0.0, 0.0, 0.0, 0.0, 0.0, 0.0, 0.0, 0.0, 1.645923132598258E9, 0.0, 2022-02-27 11:52:12.598
18.0, -260.08489848195296, -2778.7241671948636, -2130.478874502048, -9238.06539035623, 132.72465857561335, 503.92007874489775, -4586.577962229009, -1522.533777062151, -2312.5785365794345, -4101.366293593203, -3472.321149387497, -2371.073051818973, -2896.9425436189827, -1751.750916451325, -7694.498621761635, -14795.714890446056, 0.012, -0.108, 0.986, 192.0, 0.0, 48.0, 126.0, 80.0, 15.0, 104.0, 0.0, 0.0, 0.0, 1.645923132605365E9, 0.0, 2022-02-27 11:52:12.605
20.0, -3.553927368393823, -2530.2845275741256, -1883.782670948824, -8979.768631430701, 390.2838099341166, 752.158552665538, -4348.107200635338, -1273.9600269746813, -2166.7110522641005, -4086.0777003857734, -3496.148108976854, -2424.069037922506, -2922.8035119537726, -1797.169661184509, -7720.784273241076, -14703.37983410118, 0.012, -0.108, 0.986, 192.0, 0.0, 0.0, 0.0, 0.0, 0.0, 0.0, 0.0, 0.0, 0.0, 1.645923132611919E9, 0.0, 2022-02-27 11:52:12.611
22.0, -119.44772236916094, -2640.299813783147, -1996.9272013815882, -9108.000589370798, 273.115965499397, 622.8537109915866, -4479.222533610169, -1417.0782467220124, -2177.95397972512, -3941.841893415677, -3326.766589494537, -2218.634154633779, -2743.1178382775593, -1608.6550484484494, -7554.554349726957, -14663.884301648653, 0.012, -0.108, 0.986, 192.0, 0.0, 0.0, 0.0, 0.0, 0.0, 0.0, 0.0, 0.0, 0.0, 1.645923132627863E9, 0.0, 2022-02-27 11:52:12.627
24.0, -196.5165372510597, -2707.779730293719, -2070.0174057504423, -9165.377517387571, 197.90234540728872, 568.4495649873692, -4519.299211418535, -1435.4737324087303, -2307.88467024382, -4186.526439967924, -3580.771813484647, -2497.6062771804663, -3011.338771741244, -1876.875981912134, -7796.936666600307, -14829.667190273667, 0.012, -0.108, 0.986, 192.0, 0.0, 0.0, 0.0, 0.0, 0.0, 0.0, 0.0, 0.0, 0.0, 1.645923132634968E9, 0.0, 2022-02-27 11:52:12.634
26.0, 24.855139834301454, -2502.523660960634, -1857.8993508695783, -8967.855151636024, 425.21958651776157, 755.1313346780938, -4355.438572816679, -1274.3176548859662, -2074.1077749857636, -3905.9896953093644, -3322.497406303574, -2228.737143127578, -2735.5182451627547, -1614.5782607291058, -7547.401791501259, -14584.960291976964, 0.012, -0.108, 0.986, 192.0, 0.0, 0.0, 0.0, 0.0, 0.0, 0.0, 0.0, 0.0, 0.0, 1.645923132642601E9, 0.0, 2022-02-27 11:52:12.642
28.0, -247.1655901867855, -2772.0856990916373, -2119.7947406524113, -9234.511462987837, 145.3086907039512, 493.21359315080565, -4600.011360646648, -1514.576556036062, -2294.115995659351, -4101.366293593203, -3464.252169639131, -2369.8437058739314, -2878.8376306101836, -1761.6080357561154, -7687.390767024847, -14805.437899284114, 0.008, -0.11, 0.986, 192.0, 0.0, 32.0, 126.0, 72.0, 15.0, 104.0, 0.0, 0.0, 0.0, 1.645923132650476E9, 0.0, 2022-02-27 11:52:12.650
30.0, 7.823110559357472, -2519.555690235578, -1874.0820138552206, -8980.819163420101, 407.6287636314349, 752.7844015102866, -4345.156770367238, -1266.3157303709663, -2155.825752714366, -4078.2322380819605, -3491.253076941142, -2424.2925553670593, -2918.4896252738986, -1790.5088413368276, -7718.571450540001, -14706.352616113738, 0.008, -0.11, 0.986, 192.0, 0.0, 0.0, 0.0, 0.0, 0.0, 0.0, 0.0, 0.0, 0.0, 1.645923132658501E9, 0.0, 2022-02-27 11:52:12.658
32.0, -114.575042077904, -2640.0539445941386, -1990.5122507229153, -9109.341694038118, 290.99736106364264, 620.6185365460559, -4478.17200162077, -1413.8148920315377, -2174.735328523556, -3945.3511172951603, -3326.386609838797, -2227.373686715804, -2733.059553272671, -1609.2361938042873, -7548.54173046848, -14667.28176680586, 0.008, -0.11, 0.986, 192.0, 0.0, 0.0, 0.0, 0.0, 0.0, 0.0, 0.0, 0.0, 0.0, 1.645923132665065E9, 0.0, 2022-02-27 11:52:12.665
34.0, -191.91207789326643, -2711.7583408067635, -2064.2059521920623, -9171.52424711278, 211.33574382492827, 565.812059141643, -4525.825920799484, -1438.2453487211883, -2299.0333794395187, -4189.499221980479, -3575.116822137454, -2499.9979138371846, -2993.7479488549175, -1870.7739556758352, -7787.705396140265, -14831.231812385538, 0.008, -0.11, 0.986, 192.0, 0.0, 0.0, 0.0, 0.0, 0.0, 0.0, 0.0, 0.0, 0.0, 1.645923132673172E9, 0.0, 2022-02-27 11:52:12.673
36.0, 32.00769805999971, -2503.238916783204, -1855.3512520016734, -8967.810448147113, 430.00285983119727, 759.0652417022278, -4346.117895378816, -1285.3147131579774, -2068.899818527677, -3905.386198209071, -3319.6587347577497, -2231.4640559511254, -2733.2607189727687, -1610.085560093589, -7544.898396122265, -14582.613358809158, 0.009000000000000001, -0.109, 0.987, 192.0, 0.0, 40.0, 126.0, 80.0, 15.0, 112.0, 0.0, 0.0, 0.0, 1.645923132680097E9, 0.0, 2022-02-27 11:52:12.680
38.0, -250.45129662171564, -2765.8942658775172, -2123.795702909911, -9232.522157731313, 146.67214711572495, 504.7694450341994, -4596.85976467845, -1510.3297245895535, -2292.4172630807475, -4111.446930342547, -3457.9489777027343, -2358.556074924001, -2874.2331712523905, -1748.82283792768, -7679.120621576384, -14796.698367202089, 0.009000000000000001, -0.109, 0.987, 192.0, 0.0, 0.0, 0.0, 0.0, 0.0, 0.0, 0.0, 0.0, 0.0, 1.645923132688183E9, 0.0, 2022-02-27 11:52:12.688
40.0, -3.620982601759744, -2517.87930940143, -1884.0955953711982, -8978.896913396944, 403.71720835175614, 756.3159771342251, -4347.168427368215, -1249.7530877295837, -2170.4884970770477, -4083.3060840733156, -3502.630114868893, -2429.075828680495, -2926.3574393221666, -1788.3854256135735, -7721.09719766345, -14696.786069486865, 0.009000000000000001, -0.109, 0.987, 192.0, 0.0, 0.0, 0.0, 0.0, 0.0, 0.0, 0.0, 0.0, 0.0, 1.645923132694852E9, 0.0, 2022-02-27 11:52:12.694
42.0, -113.36804787731742, -2631.3814677454793, -1986.2654192764069, -9105.206621313884, 295.46770995470405, 628.3745918720474, -4468.292530571524, -1400.157976169345, -2173.729500023067, -3947.1839603404956, -3328.8453017288807, -2221.7410471130665, -2735.674707373942, -1593.187641285377, -7544.54076821098, -14654.831845144254, 0.009000000000000001, -0.109, 0.987, 192.0, 0.0, 0.0, 0.0, 0.0, 0.0, 0.0, 0.0, 0.0, 0.0, 1.645923132702691E9, 0.0, 2022-02-27 11:52:12.702
44.0, -200.02576113054292, -2714.9546402638725, -2066.17290570413, -9176.061651237209, 208.13944436781938, 560.6488061724671, -4518.4721968736885, -1434.445552163786, -2294.8088997374657, -4187.644027190689, -3573.731013981225, -2490.878402099419, -2990.998684286915, -1873.6573307105698, -7783.68208213831, -14827.230850128039, 0.009000000000000001, -0.109, 0.987, 192.0, 0.0, 0.0, 0.0, 0.0, 0.0, 0.0, 0.0, 0.0, 0.0, 1.645923132710717E9, 0.0, 2022-02-27 11:52:12.710
46.0, 28.654936391703654, -2502.4119022383575, -1852.0878973111985, -8968.436296991862, 440.2176070472726, 762.7085760484429, -4328.012982370017, -1270.2719891395557, -2063.0660132248418, -3923.0887798176745, -3327.9512319506684, -2236.3367362423824, -2733.484236417322, -1627.27405157972, -7542.529111210002, -14582.41219310906, 0.013500000000000002, -0.10650000000000001, 0.9875, 192.0, 0.0, 72.0, 126.0, 96.0, 15.0, 112.0, 0.0, 0.0, 0.0, 1.645923132717994E9, 0.0, 2022-02-27 11:52:12.717
48.0, -247.41145937579387, -2758.607597185087, -2125.248566299506, -9231.672791442012, 144.54873139247078, 504.59063107855695, -4586.600313973465, -1494.05765462609, -2291.6796555137225, -4094.973694678986, -3462.0616986825107, -2360.0983452914174, -2870.992168306371, -1746.945291393434, -7672.3480430064255, -14789.903436887675, 0.013500000000000002, -0.10650000000000001, 0.9875, 192.0, 0.0, 0.0, 0.0, 0.0, 0.0, 0.0, 0.0, 0.0, 0.0, 1.64592313272541E9, 0.0, 2022-02-27 11:52:12.725
50.0, 16.450883919105998, -2498.1203673029386, -1882.4862697704161, -8981.422660520395, 393.9941995136976, 744.6483665285548, -4356.7573257395425, -1264.035852436525, -2168.767412753989, -4069.3585955332037, -3504.6864753587815, -2421.140959398861, -2928.1008753896804, -1799.4271873744951, -7720.851328474442, -14705.570305057801, 0.013500000000000002, -0.10650000000000001, 0.9875, 192.0, 0.0, 0.0, 0.0, 0.0, 0.0, 0.0, 0.0, 0.0, 0.0, 1.645923132733362E9, 0.0, 2022-02-27 11:52:12.733
52.0, -101.5886785493706, -2621.3455344850463, -1983.5608581973147, -9097.092938076608, 284.47065168269296, 623.1889871584162, -4476.69678648672, -1413.9713542427248, -2160.8101917278996, -3921.725323405901, -3314.7860544664927, -2206.4524539056365, -2726.0411055137047, -1600.6307721889941, -7542.774980399011, -14654.407161999603, 0.013500000000000002, -0.10650000000000001, 0.9875, 192.0, 0.0, 0.0, 0.0, 0.0, 0.0, 0.0, 0.0, 0.0, 0.0, 1.645923132747015E9, 0.0, 2022-02-27 11:52:12.747
54.0, -193.3649412828614, -2702.124738946526, -2070.6879580841014, -9173.267683180295, 185.474775490138, 558.972425338319, -4538.4323046722775, -1445.1743895023335, -2306.0071237095744, -4176.8481346187755, -3569.8194587015464, -2487.8385648534972, -2996.854841334205, -1863.84491489469, -7786.788974617598, -14830.628315285245, 0.013500000000000002, -0.10650000000000001, 0.9875, 192.0, 0.0, 0.0, 0.0, 0.0, 0.0, 0.0, 0.0, 0.0, 0.0, 1.645923132754975E9, 0.0, 2022-02-27 11:52:12.754
56.0, 42.267148764985656, -2481.915352572841, -1852.5796356892154, -8958.445067220338, 419.7657608706666, 758.6852620464877, -4348.330718079891, -1263.4770588251424, -2058.8415335227887, -3912.6952186459566, -3315.613069011339, -2231.44170420667, -2733.752457350786, -1614.9135368959353, -7545.121913566818, -14582.702765786978, 0.01575, -0.10325000000000001, 0.98775, 192.0, 0.0, 72.0, 126.0, 112.0, 15.0, 112.0, 0.0, 0.0, 0.0, 1.645923132763098E9, 0.0, 2022-02-27 11:52:12.763
58.0, -232.88282547984429, -2752.416163970967, -2120.1747203081513, -9228.096512329163, 137.6867458446915, 494.7335117737665, -4585.058043606048, -1513.7718932356709, -2284.415338565748, -4079.550991004824, -3451.377564832874, -2350.9788335536523, -2871.215685750924, -1754.3884222970514, -7672.191580795238, -14792.585646222311, 0.01575, -0.10325000000000001, 0.98775, 192.0, 0.0, 0.0, 0.0, 0.0, 0.0, 0.0, 0.0, 0.0, 0.0, 1.645923132770267E9, 0.0, 2022-02-27 11:52:12.770
60.0, 12.338162939329498, -2511.7996349095865, -1888.074205884243, -8984.77542218869, 383.17595519732896, 736.6240902690996, -4352.666956504221, -1268.0144629495696, -2163.7606219960003, -4083.127270117673, -3499.478518900695, -2424.784293745076, -2931.5430440357977, -1818.4708736504167, -7719.465520318213, -14711.560572571823, 0.01575, -0.10325000000000001, 0.98775, 192.0, 0.0, 0.0, 0.0, 0.0, 0.0, 0.0, 0.0, 0.0, 0.0, 1.645923132777621E9, 0.0, 2022-02-27 11:52:12.777
62.0, -90.99395167755505, -2622.999563574739, -1985.8407361317559, -9097.875249132545, 278.30157021302824, 622.6078418025783, -4474.88629518584, -1403.6672000488281, -2161.5925027838352, -3939.7408294368784, -3317.3788568233085, -2211.280430707983, -2735.652355629487, -1617.595746230572, -7544.183140299695, -14656.485874233947, 0.01575, -0.10325000000000001, 0.98775, 192.0, 0.0, 0.0, 0.0, 0.0, 0.0, 0.0, 0.0, 0.0, 0.0, 1.645923132785675E9, 0.0, 2022-02-27 11:52:12.785
64.0, -180.378577754328, -2695.665084798942, -2074.0407197523978, -9175.033470992264, 187.88876389131116, 544.779067609199, -4538.499359905643, -1462.2734740106434, -2295.5241555600355, -4179.485640464502, -3564.857371432468, -2481.7365386171987, -2999.8723268356716, -1872.4056330210726, -7787.034843806607, -14835.41158859868, 0.01575, -0.10325000000000001, 0.98775, 192.0, 0.0, 0.0, 0.0, 0.0, 0.0, 0.0, 0.0, 0.0, 0.0, 1.645923132793825E9, 0.0, 2022-02-27 11:52:12.793
66.0, 56.50520998301626, -2472.259398968148, -1850.7020891549694, -8958.065087564599, 419.6987056373007, 757.4782678459011, -4357.740802495576, -1269.8249542504495, -2054.058260209353, -3875.5019158723258, -3314.94251667768, -2225.1608640147288, -2737.641660886009, -1627.631679491005, -7548.92171012422, -14587.821315267243, 0.015875, -0.10162500000000001, 0.988875, 192.0, 0.0, 64.0, 126.0, 112.0, 15.0, 120.0, 0.0, 0.0, 0.0, 1.645923132799912E9, 0.0, 2022-02-27 11:52:12.799
68.0, -223.8303689754449, -2742.156713265981, -2115.5926126948134, -9225.526061716802, 139.05020225646524, 492.16306116140623, -4601.19600310278, -1526.735905019749, -2277.7768704625214, -4058.473295983469, -3446.2366636081533, -2347.491961418624, -2864.6219211366083, -1754.2990153192302, -7671.699842417222, -14794.887875901208, 0.015875, -0.10162500000000001, 0.988875, 192.0, 0.0, 0.0, 0.0, 0.0, 0.0, 0.0, 0.0, 0.0, 0.0, 1.645923132807467E9, 0.0, 2022-02-27 11:52:12.807
70.0, 12.382866428240114, -2515.1076930889717, -1888.7671099623574, -8985.267160566707, 376.69394930528995, 728.6221657540997, -4372.001215458062, -1281.0231782225583, -2162.28540686195, -4099.175822636584, -3501.668989857315, -2420.6715727652995, -2931.2748231023343, -1824.684658608992, -7725.768712254609, -14718.735482541977, 0.015875, -0.10162500000000001, 0.988875, 192.0, 0.0, 0.0, 0.0, 0.0, 0.0, 0.0, 0.0, 0.0, 0.0, 1.645923132815474E9, 0.0, 2022-02-27 11:52:12.815
72.0, -80.30981782791828, -2611.331952969069, -1980.6551314181247, -9094.857763631078, 279.35210220242766, 629.7156965393659, -4485.83864996894, -1394.4359295887864, -2148.1144008772853, -3933.7952654117666, -3310.6956852311714, -2197.8693840347987, -2731.3384689496124, -1610.3761327715079, -7546.463018234136, -14653.110760821195, 0.015875, -0.10162500000000001, 0.988875, 192.0, 0.0, 0.0, 0.0, 0.0, 0.0, 0.0, 0.0, 0.0, 0.0, 1.645923132823475E9, 0.0, 2022-02-27 11:52:12.823
74.0, -180.95972311016598, -2700.493061601289, -2074.8230308083334, -9178.00625300482, 179.23863878710733, 538.006489039241, -4564.896770107362, -1463.48046821123, -2291.0538066689737, -4179.910323609152, -3561.146981852887, -2479.6131228939444, -2997.860669834694, -1889.1470896180977, -7792.980407831718, -14836.50682407699, 0.015875, -0.10162500000000001, 0.988875, 192.0, 0.0, 0.0, 0.0, 0.0, 0.0, 0.0, 0.0, 0.0, 0.0, 1.64592313283064E9, 0.0, 2022-02-27 11:52:12.830
76.0, 57.01930010548832, -2483.9270095738184, -1847.170513531031, -8958.266253264697, 416.25653699118345, 751.0856689316832, -4353.650433260254, -1289.382730648843, -2047.777420017412, -3911.041189556264, -3315.344848077875, -2226.703134382145, -2744.481294689333, -1639.0310691632117, -7558.644718962279, -14591.352890891183, 0.0159375, -0.1038125, 0.9884375, 192.0, 0.0, 64.0, 126.0, 88.0, 15.0, 112.0, 0.0, 0.0, 0.0, 1.645923132837785E9, 0.0, 2022-02-27 11:52:12.837
78.0, -221.34932534090584, -2756.3277192506457, -2115.033819083431, -9230.555204219247, 141.37478367981717, 487.1115669145068, -4594.62459023292, -1508.6533437554056, -2274.178239605217, -4088.3352265757594, -3445.320242085486, -2347.201388740705, -2871.573313662209, -1760.4904485333502, -7672.28098777306, -14795.35726253477, 0.0159375, -0.1038125, 0.9884375, 192.0, 0.0, 0.0, 0.0, 0.0, 0.0, 0.0, 0.0, 0.0, 0.0, 1.645923132845313E9, 0.0, 2022-02-27 11:52:12.845
80.0, 21.2118054880864, -2519.0863036020164, -1886.7331012169245, -8992.531477514682, 381.16429819635135, 725.738790719365, -4356.511456550534, -1272.3059978849885, -2156.988043426042, -4085.876534685676, -3500.014960767622, -2434.14967467185, -2936.572186538242, -1833.5359494132936, -7723.690000020266, -14719.71895929801, 0.0159375, -0.1038125, 0.9884375, 192.0, 0.0, 0.0, 0.0, 0.0, 0.0, 0.0, 0.0, 0.0, 0.0, 1.645923132853215E9, 0.0, 2022-02-27 11:52:12.853
82.0, -73.4254805356837, -2612.3824849584685, -1977.5035354499264, -9099.7974991557, 288.8962970848438, 616.2375946328157, -4477.166173120281, -1420.252194434666, -2140.7159734625784, -3938.1091520916407, -3306.6276677403057, -2209.6934568516563, -2730.82437882714, -1608.185661814888, -7534.303669250449, -14656.172949811573, 0.0159375, -0.1038125, 0.9884375, 192.0, 0.0, 0.0, 0.0, 0.0, 0.0, 0.0, 0.0, 0.0, 0.0, 1.645923132860316E9, 0.0, 2022-02-27 11:52:12.860
84.0, -180.9820748546213, -2711.221898939836, -2077.192315720596, -9187.326930442683, 172.53311545051523, 531.9044628029421, -4558.906502593339, -1468.2637415246656, -2289.0421496679965, -4182.167849799139, -3557.7942201845913, -2486.7433293751874, -2994.284390721845, -1874.5066969998716, -7785.313759483548, -14842.765312524476, 0.0159375, -0.1038125, 0.9884375, 192.0, 0.0, 0.0, 0.0, 0.0, 0.0, 0.0, 0.0, 0.0, 0.0, 1.645923132874869E9, 0.0, 2022-02-27 11:52:12.874
86.0, 55.90171288272296, -2486.586867164, -1845.7623536303465, -8959.160323042908, 411.36150495547116, 748.2917008747698, -4363.708718265142, -1273.714157785673, -2054.6170538207357, -3927.581480453191, -3321.580984780906, -2237.476675209603, -2753.9807860828387, -1647.7706012452365, -7559.6505474627675, -14590.45882111297, 0.01496875, -0.10390625, 0.98721875, 192.0, 0.0, 56.0, 126.0, 96.0, 15.0, 104.0, 0.0, 0.0, 0.0, 1.645923132883029E9, 0.0, 2022-02-27 11:52:12.883
88.0, -213.74973222610143, -2740.6814981319308, -2105.802548623389, -9226.64364893957, 133.5293213760044, 495.13584317396203, -4607.700360739274, -1515.4035705809083, -2272.077175626418, -4087.3293980752705, -3439.508788527106, -2344.8768073173533, -2871.0145200508264, -1751.7062129624146, -7674.538513963046, -14793.323253789336, 0.01496875, -0.10390625, 0.98721875, 192.0, 0.0, 0.0, 0.0, 0.0, 0.0, 0.0, 0.0, 0.0, 0.0, 1.645923132889962E9, 0.0, 2022-02-27 11:52:12.889
90.0, 15.668572863170251, -2519.779207680131, -1886.3531215611843, -8995.347797316052, 367.1497544228738, 714.0711801136947, -4377.410337616246, -1283.3477596459104, -2156.4292498146597, -4098.125290647184, -3498.8750218004016, -2431.467465337213, -2935.052267915281, -1828.2385859773858, -7732.474235591202, -14724.725750055999, 0.01496875, -0.10390625, 0.98721875, 192.0, 0.0, 0.0, 0.0, 0.0, 0.0, 0.0, 0.0, 0.0, 0.0, 1.645923132897948E9, 0.0, 2022-02-27 11:52:12.897
92.0, -72.4643555241055, -2609.94614481284, -1975.8942098491443, -9091.862629874067, 273.6300556218691, 615.7458562547989, -4488.02912092556, -1407.80227277306, -2142.5041130190034, -3930.464855487926, -3306.806481695948, -2212.353314441838, -2730.3996956824894, -1626.3129265681418, -7545.770114156022, -14651.635545687146, 0.01496875, -0.10390625, 0.98721875, 192.0, 0.0, 0.0, 0.0, 0.0, 0.0, 0.0, 0.0, 0.0, 0.0, 1.645923132905547E9, 0.0, 2022-02-27 11:52:12.905
94.0, -183.70898767816874, -2710.3725326505346, -2081.997940778487, -9188.086889754164, 158.20564725466338, 524.5283871326908, -4561.588711927976, -1487.5309452451404, -2295.0324171820184, -4190.505050480968, -3557.3918887843956, -2482.8317740955085, -2999.2241262464677, -1883.2685808263518, -7790.812288619553, -14840.619545056767, 0.01496875, -0.10390625, 0.98721875, 192.0, 0.0, 0.0, 0.0, 0.0, 0.0, 0.0, 0.0, 0.0, 0.0, 1.645923132913486E9, 0.0, 2022-02-27 11:52:12.913
96.0, 57.15341057222016, -2475.7015676142655, -1848.042231564788, -8961.104924810521, 409.9086415658762, 750.191599153471, -4357.561988539933, -1279.6373700663294, -2062.5295713579144, -3919.2666315158167, -3320.619859769328, -2240.829436877899, -2757.7805826402405, -1650.2963483686863, -7560.656375963256, -14592.805754280776, 0.014484375, -0.10495312500000001, 0.987609375, 192.0, 0.0, 56.0, 126.0, 88.0, 15.0, 112.0, 0.0, 0.0, 0.0, 1.645923132920107E9, 0.0, 2022-02-27 11:52:12.920
98.0, -204.89844142179984, -2729.483274159822, -2105.310810245372, -9227.560070462236, 135.4515713991608, 487.78211924816605, -4605.889869438394, -1528.0770096870674, -2281.6437222532895, -4085.0718718852845, -3436.178378603265, -2345.3238422064596, -2869.025214794304, -1753.2261315853755, -7670.559903450001, -14795.178448579127, 0.014484375, -0.10495312500000001, 0.987609375, 192.0, 0.0, 0.0, 0.0, 0.0, 0.0, 0.0, 0.0, 0.0, 0.0, 1.645923132927215E9, 0.0, 2022-02-27 11:52:12.927
100.0, 19.311907209385303, -2506.0328848401173, -1884.5426302603043, -8993.514954270715, 366.5239055781252, 706.3374765321585, -4375.711605037643, -1297.6528760973067, -2161.1454678947293, -4077.0475956258297, -3493.801175809047, -2427.0865234239727, -2938.1144569056582, -1827.4562749214501, -7734.6870582922775, -14729.285505924881, 0.014484375, -0.10495312500000001, 0.987609375, 192.0, 0.0, 0.0, 0.0, 0.0, 0.0, 0.0, 0.0, 0.0, 0.0, 1.645923132935122E9, 0.0, 2022-02-27 11:52:12.935
102.0, -83.59552426284841, -2614.908232081918, -1971.9603028250103, -9093.248438030296, 286.9963988061427, 612.3260393531369, -4487.0679959139825, -1410.8868135078924, -2154.5517032804137, -3926.910928119532, -3306.0688741289227, -2208.0170760175083, -2735.2053207403806, -1628.6822114804045, -7539.645736175268, -14653.915423621587, 0.014484375, -0.10495312500000001, 0.987609375, 192.0, 0.0, 0.0, 0.0, 0.0, 0.0, 0.0, 0.0, 0.0, 0.0, 1.64592313294315E9, 0.0, 2022-02-27 11:52:12.943
104.0, -187.6652464467581, -2710.126663461526, -2077.348777931783, -9192.266665967307, 162.00544381206558, 514.8947852724535, -4574.329206267501, -1499.6232389954614, -2307.571745821446, -4201.680922708621, -3559.4035457853734, -2490.3419602324916, -3004.2085652600013, -1884.7214442159468, -7788.443003707291, -14844.17347242516, 0.014484375, -0.10495312500000001, 0.987609375, 192.0, 0.0, 0.0, 0.0, 0.0, 0.0, 0.0, 0.0, 0.0, 0.0, 1.645923132949686E9, 0.0, 2022-02-27 11:52:12.949
106.0, 65.58001823187092, -2463.072831997017, -1839.749734371869, -8956.67927940837, 412.50144392269186, 750.7950962537642, -4370.235427646092, -1275.9269804867483, -2052.583045075303, -3912.9634395794205, -3315.4789585446074, -2241.120009555818, -2753.6231581715538, -1642.4508860648737, -7561.0587073634515, -14596.002053737886, 0.016, -0.108, 0.982, 192.0, 0.0, 64.0, 126.0, 80.0, 15.0, 88.0, 0.0, 0.0, 0.0, 1.645923132957842E9, 0.0, 2022-02-27 11:52:12.957
108.0, -214.80026421550087, -2727.3375066921126, -2104.8861271007213, -9223.78262564929, 143.58760638089257, 492.20776465031685, -4609.15322412887, -1514.2412798692324, -2279.2297338521166, -4066.4081652651034, -3431.998602390123, -2336.0702200019623, -2862.18558099098, -1739.5692157231829, -7663.273234757571, -14783.667300184645, 0.016, -0.108, 0.982, 192.0, 0.0, 0.0, 0.0, 0.0, 0.0, 0.0, 0.0, 0.0, 0.0, 1.645923132965891E9, 0.0, 2022-02-27 11:52:12.965
110.0, 1.6763808341480297, -2522.2826030591254, -1890.5999530076926, -9000.555753774137, 364.95928346625374, 708.8632236556082, -4393.5035936240665, -1296.0435504965246, -2177.95397972512, -4100.986313937463, -3505.7146556037255, -2440.363459630425, -2944.797628497795, -1832.7759901018132, -7732.943622224763, -14728.659657080134, 0.016, -0.108, 0.982, 192.0, 0.0, 0.0, 0.0, 0.0, 0.0, 0.0, 0.0, 0.0, 0.0, 1.645923132972991E9, 0.0, 2022-02-27 11:52:12.972
112.0, -78.70049222713617, -2601.296019708636, -1967.1770295115746, -9090.186249039918, 288.15868951781863, 620.7302952683324, -4498.4003303528225, -1409.0986739514678, -2146.572130509869, -3938.623242214113, -3303.364313049831, -2213.4261981756927, -2727.4716171588443, -1610.443188004874, -7536.49414020707, -14646.584051440246, 0.016, -0.108, 0.982, 192.0, 0.0, 0.0, 0.0, 0.0, 0.0, 0.0, 0.0, 0.0, 0.0, 1.645923132980389E9, 0.0, 2022-02-27 11:52:12.980
114.0, -210.53108102453723, -2720.6319833555203, -2089.5081269154703, -9197.988712547865, 162.3407199788952, 521.3544394200372, -4555.732554880686, -1478.8584683964812, -2307.7729115215434, -4183.464250977547, -3561.0799266195213, -2484.9328380743073, -3000.274658235867, -1873.6573307105698, -7783.972654816229, -14838.160853166683, 0.016, -0.108, 0.982, 192.0, 0.0, 0.0, 0.0, 0.0, 0.0, 0.0, 0.0, 0.0, 0.0, 1.645923132995415E9, 0.0, 2022-02-27 11:52:12.995
116.0, 39.20495977460859, -2485.6704456413327, -1853.65251942307, -8962.848360878035, 419.85516784848784, 744.9612909509291, -4352.711659993131, -1278.3186171434663, -2069.6374260947023, -3923.3793524955936, -3337.875406488825, -2251.6700329387227, -2763.837905387629, -1647.4129733339516, -7557.862407906343, -14591.308187402272, 0.016, -0.10400000000000001, 0.984, 192.0, 0.0, 64.0, 126.0, 96.0, 15.0, 96.0, 0.0, 0.0, 0.0, 1.645923133002592E9, 0.0, 2022-02-27 11:52:13.002
118.0, -229.57476730045883, -2744.861274345073, -2121.247604042006, -9234.042076354275, 145.6216151263255, 484.7646337466996, -4605.264020593646, -1537.2412249137433, -2286.5611060334572, -4082.479069528469, -3448.7624107316033, -2352.476400432158, -2875.060185797237, -1760.8480764446351, -7663.56380743549, -14788.741146175998, 0.016, -0.10400000000000001, 0.984, 192.0, 0.0, 0.0, 0.0, 0.0, 0.0, 0.0, 0.0, 0.0, 0.0, 1.645923133010251E9, 0.0, 2022-02-27 11:52:13.010
120.0, -14.036895517932836, -2536.4759607882456, -1910.1800811505416, -9008.915306200422, 358.45492582975936, 716.0604853702171, -4399.896192538285, -1299.7092365871952, -2187.699340307634, -4111.0445989423515, -3523.4619407012397, -2453.662747581333, -2960.7120705499733, -1836.329917470207, -7743.806570030042, -14735.052255994351, 0.016, -0.10400000000000001, 0.984, 192.0, 0.0, 0.0, 0.0, 0.0, 0.0, 0.0, 0.0, 0.0, 0.0, 1.645923133018147E9, 0.0, 2022-02-27 11:52:13.018
122.0, -82.16501261770877, -2610.1473105129376, -1971.3344539802617, -9092.13085080753, 292.2714104975951, 618.5845278006229, -4489.571391292977, -1418.285240922599, -2149.0308223999527, -3941.3501550376604, -3314.316667832931, -2214.9014133097426, -2736.8817015745285, -1613.7735979287147, -7541.612689687335, -14648.28278401885, 0.016, -0.10400000000000001, 0.984, 192.0, 0.0, 0.0, 0.0, 0.0, 0.0, 0.0, 0.0, 0.0, 0.0, 1.645923133025293E9, 0.0, 2022-02-27 11:52:13.025
124.0, -211.49220603611542, -2726.0858090026154, -2093.0844060283193, -9205.007160306832, 157.46803968763825, 507.7869305356659, -4587.0920523514815, -1489.475547012752, -2304.889536486809, -4191.488527237002, -3565.5949789994934, -2491.079567799517, -2997.0783587787582, -1876.875981912134, -7785.202000761271, -14847.325068393358, 0.016, -0.10400000000000001, 0.984, 192.0, 0.0, 0.0, 0.0, 0.0, 0.0, 0.0, 0.0, 0.0, 0.0, 1.645923133032748E9, 0.0, 2022-02-27 11:52:13.032
126.0, 43.45179122111693, -2483.725843873721, -1848.55632168726, -8963.876541122978, 416.7035718802896, 747.8446659856637, -4369.073136934417, -1266.6957100267066, -2067.871638282733, -3921.4794542168925, -3341.965775724146, -2260.3872132762926, -2768.64353044552, -1652.2409501362981, -7571.139344112796, -14600.472402628948, 0.014, -0.11, 0.986, 192.0, 0.0, 56.0, 126.0, 72.0, 15.0, 104.0, 0.0, 0.0, 0.0, 1.645923133040799E9, 0.0, 2022-02-27 11:52:13.040
128.0, -230.87116847886665, -2748.325794735646, -2112.5304237044365, -9226.978925106398, 140.97245227962165, 493.0347791951632, -4612.595392774987, -1517.0799514150563, -2288.59511477889, -4075.080642113762, -3445.029669407567, -2340.786438082032, -2869.025214794304, -1740.016250612289, -7661.105115545406, -14790.372823521237, 0.014, -0.11, 0.986, 192.0, 0.0, 0.0, 0.0, 0.0, 0.0, 0.0, 0.0, 0.0, 0.0, 1.645923133047757E9, 0.0, 2022-02-27 11:52:13.047
130.0, -16.1379594967317, -2537.392382310913, -1907.0508369267986, -9007.01540792172, 357.13617290689626, 713.7359039468652, -4404.746521085086, -1307.8899750578375, -2191.0968054648406, -4115.224375155494, -3522.6349261563932, -2449.3488609014585, -2964.82479152975, -1832.5077691683496, -7748.72395381021, -14745.289354954883, 0.014, -0.11, 0.986, 192.0, 0.0, 0.0, 0.0, 0.0, 0.0, 0.0, 0.0, 0.0, 0.0, 1.645923133054949E9, 0.0, 2022-02-27 11:52:13.054
132.0, -74.87834392527866, -2597.8985545514292, -1962.5725701537813, -9079.926798334933, 309.8398816394665, 642.0315077342401, -4482.731757489652, -1390.256153375644, -2140.3359938068384, -3924.2510705293503, -3304.526603761507, -2200.6857038361672, -2730.0420677712045, -1601.5918972005722, -7535.309497750938, -14646.673458418067, 0.014, -0.11, 0.986, 192.0, 0.0, 0.0, 0.0, 0.0, 0.0, 0.0, 0.0, 0.0, 0.0, 1.645923133062405E9, 0.0, 2022-02-27 11:52:13.062
134.0, -209.12292112385288, -2714.4629018858554, -2090.245734482495, -9195.8205933357, 172.91309510625544, 532.1726837364058, -4568.473049220211, -1483.5299829876403, -2301.8496992408873, -4175.9093613516525, -3554.5532172385715, -2478.2943699710813, -2995.178460500057, -1868.2705602968408, -7780.329320470014, -14846.766274781976, 0.014, -0.11, 0.986, 192.0, 0.0, 0.0, 0.0, 0.0, 0.0, 0.0, 0.0, 0.0, 0.0, 1.645923133070375E9, 0.0, 2022-02-27 11:52:13.070
136.0, 52.034861091954845, -2475.3662914474357, -1842.588405917693, -8952.544206684137, 431.65688892088997, 762.3956516260686, -4341.401677298746, -1272.7083292851842, -2060.5402661013923, -3919.8701286161104, -3333.315650619942, -2253.63698645079, -2767.7941641562184, -1640.2827668527088, -7566.289015565993, -14593.856286270176, 0.014, -0.11, 0.986, 192.0, 0.0, 56.0, 126.0, 72.0, 15.0, 104.0, 0.0, 0.0, 0.0, 1.645923133078598E9, 0.0, 2022-02-27 11:52:13.078
138.0, -225.97613644315442, -2742.4472859439, -2106.1154730457633, -9223.894384371566, 159.8820280888114, 499.78500602066595, -4592.992912887682, -1521.0138584391902, -2274.379405305315, -4069.515057744391, -3432.959727401701, -2343.334536949937, -2857.223493721902, -1733.8024656537136, -7651.985603807641, -14787.422393253137, 0.014, -0.11, 0.986, 192.0, 0.0, 0.0, 0.0, 0.0, 0.0, 0.0, 0.0, 0.0, 0.0, 1.645923133085145E9, 0.0, 2022-02-27 11:52:13.085
140.0, -16.652049619203762, -2543.0473736581057, -1903.295743858307, -9009.094120156065, 370.3013503910721, 715.2111190809154, -4391.201363945171, -1295.1047772294019, -2180.569133826391, -4122.756913036932, -3518.633963898893, -2460.7035470847545, -2951.1455239231022, -1831.9042720680563, -7737.078694948995, -14740.81900606382, 0.014, -0.11, 0.986, 192.0, 0.0, 0.0, 0.0, 0.0, 0.0, 0.0, 0.0, 0.0, 0.0, 1.645923133093083E9, 0.0, 2022-02-27 11:52:13.093
142.0, -83.08143414037634, -2609.812034346108, -1964.6959858770356, -9090.119193806553, 305.3024775150392, 627.3464116271033, -4469.901856172306, -1391.932534209792, -2138.257281572495, -3938.1315038360963, -3306.0241706400125, -2219.215299989617, -2718.3968089099894, -1611.113740338533, -7526.435855202181, -14645.7570368954, 0.014, -0.11, 0.986, 192.0, 0.0, 0.0, 0.0, 0.0, 0.0, 0.0, 0.0, 0.0, 0.0, 1.645923133101051E9, 0.0, 2022-02-27 11:52:13.101
144.0, -221.28227010753992, -2739.3403934646126, -2092.7938333504003, -9204.8730498401, 164.97822582462143, 520.1027417305401, -4567.489572464177, -1474.2987125275986, -2306.2529928985828, -4193.075501093328, -3559.2023800852753, -2494.879364356919, -2990.752815097906, -1877.300665056785, -7776.238951234693, -14844.575803825355, 0.014, -0.11, 0.986, 192.0, 0.0, 0.0, 0.0, 0.0, 0.0, 0.0, 0.0, 0.0, 0.0, 1.645923133108173E9, 0.0, 2022-02-27 11:52:13.108
146.0, 32.79000911593546, -2501.651942926877, -1844.6000629186706, -8958.690936409348, 432.1933307878174, 762.8873900040853, -4358.545465295967, -1273.3788816188433, -2063.9153795141438, -3933.0576578447412, -3337.89775823328, -2262.957663888653, -2763.323815265157, -1647.077697167122, -7567.11603011084, -14597.298454916294, 0.014, -0.106, 0.99, 192.0, 0.0, 56.0, 126.0, 88.0, 15.0, 120.0, 0.0, 0.0, 0.0, 1.645923133122711E9, 0.0, 2022-02-27 11:52:13.122
148.0, -254.7651833015899, -2776.4666410048776, -2106.160176534674, -9225.570765205714, 160.28435948900696, 503.09306420005134, -4599.921953668828, -1511.827291468059, -2278.9838646631083, -4081.4732410279803, -3432.7362099571483, -2346.910816062786, -2851.4790953968877, -1731.5002359748169, -7653.192598008228, -14784.382556007215, 0.014, -0.106, 0.99, 192.0, 0.0, 0.0, 0.0, 0.0, 0.0, 0.0, 0.0, 0.0, 0.0, 1.645923133130696E9, 0.0, 2022-02-27 11:52:13.130
150.0, -72.37494854628427, -2599.1055487520157, -1912.5270143183488, -9017.45367258235, 363.4393648432928, 718.6532877270326, -4391.424881389723, -1278.7656520325725, -2199.2551921910276, -4134.312764920326, -3534.1013710619654, -2475.7462711031762, -2953.91714023556, -1842.9236820845226, -7747.226386931705, -14739.96963977452, 0.014, -0.106, 0.99, 192.0, 0.0, 0.0, 0.0, 0.0, 0.0, 0.0, 0.0, 0.0, 0.0, 1.645923133138744E9, 0.0, 2022-02-27 11:52:13.138
152.0, -148.88496981680035, -2678.76716599073, -1963.0196050428874, -9083.190153025407, 312.0527043405419, 653.6544148509997, -4466.54909450401, -1377.8732869474038, -2150.3942788117265, -3953.1295243656073, -3319.9493074356687, -2230.3911722172707, -2719.4920443882997, -1604.7881966576813, -7529.878023848299, -14633.195356511516, 0.014, -0.106, 0.99, 192.0, 0.0, 0.0, 0.0, 0.0, 0.0, 0.0, 0.0, 0.0, 0.0, 1.645923133145261E9, 0.0, 2022-02-27 11:52:13.145
154.0, -326.2460620696619, -2841.532569114276, -2101.8462898547996, -9212.785567377277, 172.19783928368562, 535.3913349379701, -4572.228142288702, -1478.187916062822, -2334.147969978806, -4214.935507170619, -3584.571610042049, -2514.683009944321, -2986.371873184666, -1862.1908858049974, -7780.619893147933, -14839.725475278554, 0.014, -0.106, 0.99, 192.0, 0.0, 0.0, 0.0, 0.0, 0.0, 0.0, 0.0, 0.0, 0.0, 1.645923133153357E9, 0.0, 2022-02-27 11:52:13.153
156.0, -102.28158262748512, -2634.1754358023927, -1853.7866298898018, -8969.844456892546, 443.61507220447925, 770.9116662635406, -4326.649525958243, -1248.1214103843463, -2101.5333654324254, -3988.802908516277, -3382.355377954886, -2314.3890278803146, -2761.2898065197237, -1652.665633280949, -7565.97609114362, -14593.565713592257, 0.008, -0.10400000000000001, 0.986, 192.0, 0.0, 32.0, 126.0, 96.0, 15.0, 104.0, 0.0, 0.0, 0.0, 1.645923133160568E9, 0.0, 2022-02-27 11:52:13.160
158.0, -415.3177637240605, -2922.021200897837, -2119.32535401885, -9238.691239200978, 165.2240950136298, 513.1289974604842, -4582.934627882794, -1499.0644453840787, -2329.0964757319066, -4100.449872070536, -3482.5358966035724, -2400.0632643775066, -2850.4285634074886, -1736.8423028996353, -7646.9341095607415, -14779.97926234952, 0.008, -0.10400000000000001, 0.986, 192.0, 0.0, 0.0, 0.0, 0.0, 0.0, 0.0, 0.0, 0.0, 0.0, 1.645923133167904E9, 0.0, 2022-02-27 11:52:13.167
160.0, -245.2656919080844, -2762.474448975855, -1930.1401889491308, -9033.12224544552, 369.45198410177045, 714.0711801136947, -4379.042014961483, -1292.2214021946672, -2264.2317133226056, -4186.168812056639, -3590.830098489535, -2534.9783939097397, -2962.4778583619427, -1844.4659524519388, -7748.545139854567, -14746.451645666559, 0.008, -0.10400000000000001, 0.986, 192.0, 0.0, 0.0, 0.0, 0.0, 0.0, 0.0, 0.0, 0.0, 0.0, 1.645923133175065E9, 0.0, 2022-02-27 11:52:13.175
162.0, -313.77378866360056, -2830.669621308997, -1982.353863996728, -9103.664350946468, 321.39573352286027, 657.0965834971171, -4449.07003033996, -1371.9500746667475, -2213.7838260869776, -4006.5948971027015, -3374.62167437335, -2283.409510065259, -2725.6834776024198, -1617.3275252971084, -7530.68268664869, -14642.001943826908, 0.008, -0.10400000000000001, 0.986, 192.0, 0.0, 0.0, 0.0, 0.0, 0.0, 0.0, 0.0, 0.0, 0.0, 1.645923133182993E9, 0.0, 2022-02-27 11:52:13.182
164.0, -469.87837193946507, -2972.9161230225714, -2120.8229208973553, -9232.186881564485, 167.61573167034766, 517.91227077392, -4558.258302004136, -1475.0139683501684, -2391.5472497400347, -4278.995606779528, -3632.0690670095764, -2567.008443714195, -2992.853879076705, -1897.3054763442847, -7775.456640178757, -14846.788626526431, 0.008, -0.10400000000000001, 0.986, 192.0, 0.0, 0.0, 0.0, 0.0, 0.0, 0.0, 0.0, 0.0, 0.0, 1.645923133190071E9, 0.0, 2022-02-27 11:52:13.190
166.0, -183.15019406678607, -2708.8749657720286, -1866.102441084676, -8971.54318947115, 439.7258686692558, 773.638579087088, -4332.304517305436, -1250.1777708742347, -2150.3048718339055, -4000.872850522143, -3418.0734655944666, -2350.6882608757332, -2774.4326322594443, -1668.6471305664934, -7571.027585390519, -14598.103117716684, 0.008, -0.108, 0.99, 192.0, 0.0, 32.0, 126.0, 80.0, 15.0, 120.0, 0.0, 0.0, 0.0, 1.645923133197584E9, 0.0, 2022-02-27 11:52:13.197
168.0, -451.0805548525518, -2970.0998032212024, -2125.7179529330674, -9235.96432637743, 168.44274621519403, 514.0007154942413, -4579.179534814302, -1487.5309452451404, -2351.448220187214, -4139.073686489307, -3495.544611876561, -2396.5093370091126, -2852.306109941734, -1736.3952680105292, -7646.397667693815, -14776.380631492215, 0.008, -0.108, 0.99, 192.0, 0.0, 0.0, 0.0, 0.0, 0.0, 0.0, 0.0, 0.0, 0.0, 1.645923133205692E9, 0.0, 2022-02-27 11:52:13.205
170.0, -229.1277324113527, -2742.6484516439978, -1931.7048110610024, -9032.563451834138, 366.32273987802745, 719.480302271879, -4392.676579079221, -1294.8365562959382, -2269.4620215251475, -4201.479757008524, -3590.181897900331, -2523.266079815159, -2963.7519077958955, -1843.1248477846204, -7750.512093366635, -14748.865634067732, 0.008, -0.108, 0.99, 192.0, 0.0, 0.0, 0.0, 0.0, 0.0, 0.0, 0.0, 0.0, 0.0, 1.64592313321365E9, 0.0, 2022-02-27 11:52:13.213
172.0, -255.9721775021765, -2779.3947195285227, -1973.8602011037115, -9081.066737302153, 326.6036899809468, 656.7836590747427, -4448.980623362139, -1369.7372519656722, -2193.2649246770056, -3988.758205027367, -3353.163999696255, -2259.6496057092677, -2715.4687303863443, -1605.5928594580723, -7527.44168370267, -14633.351818722704, 0.008, -0.108, 0.99, 192.0, 0.0, 0.0, 0.0, 0.0, 0.0, 0.0, 0.0, 0.0, 0.0, 1.64592313322019E9, 0.0, 2022-02-27 11:52:13.220
174.0, -383.2877139196055, -2890.4828894713987, -2113.8268248828444, -9213.187898777473, 175.55060095198166, 529.4010674239478, -4561.298139250057, -1476.3997765063973, -2359.986586569141, -4225.776103231443, -3598.8767264934454, -2519.846262913497, -2980.247495203912, -1867.6670631965476, -7773.3108727110475, -14838.898460733708, 0.008, -0.108, 0.99, 192.0, 0.0, 0.0, 0.0, 0.0, 0.0, 0.0, 0.0, 0.0, 0.0, 1.645923133228236E9, 0.0, 2022-02-27 11:52:13.228
176.0, -100.82871923789016, -2631.135598556471, -1851.6632141665477, -8965.016480090198, 450.074726352063, 766.1730964390155, -4331.723371949598, -1259.744317501106, -2111.4351882261262, -3990.322827139238, -3387.026892546045, -2315.953649992186, -2765.35782401059, -1669.6082555780717, -7572.368690057838, -14600.65121658459, 0.01, -0.11, 0.988, 192.0, 0.0, 40.0, 126.0, 72.0, 15.0, 112.0, 0.0, 0.0, 0.0, 1.645923133243942E9, 0.0, 2022-02-27 11:52:13.243
178.0, -351.9952716821756, -2869.0028630498487, -2108.4400544691152, -9232.186881564485, 169.85090611587836, 512.7266660602887, -4587.2708663071235, -1513.8389484690367, -2306.476510343136, -4106.149566906639, -3452.3386898444523, -2374.4481652317245, -2835.1623219445137, -1735.9705848658784, -7642.0614292694845, -14776.984128592507, 0.01, -0.11, 0.988, 192.0, 0.0, 0.0, 0.0, 0.0, 0.0, 0.0, 0.0, 0.0, 0.0, 1.645923133250024E9, 0.0, 2022-02-27 11:52:13.250
180.0, -145.5769116374149, -2660.259921581736, -1920.61834581117, -9033.166948934431, 364.73576602170067, 705.0857788426613, -4400.767910572042, -1309.0522657695135, -2234.34743098586, -4146.896797048664, -3557.4365922733064, -2515.577079722533, -2954.9453204805045, -1842.811923362246, -7751.048535233562, -14756.241709737982, 0.01, -0.11, 0.988, 192.0, 0.0, 0.0, 0.0, 0.0, 0.0, 0.0, 0.0, 0.0, 0.0, 1.645923133257759E9, 0.0, 2022-02-27 11:52:13.257
182.0, -171.05790031646495, -2699.3084191451576, -1961.4773346754712, -9081.893751847, 319.89816664435466, 649.5193421267679, -4454.16622807577, -1381.807193971538, -2163.179476640162, -3948.681527219001, -3325.0455051714785, -2240.6506229222564, -2709.254945427769, -1630.760923714748, -7526.145282524262, -14640.459673459492, 0.01, -0.11, 0.988, 192.0, 0.0, 0.0, 0.0, 0.0, 0.0, 0.0, 0.0, 0.0, 0.0, 1.645923133265812E9, 0.0, 2022-02-27 11:52:13.265
184.0, -311.56096596252513, -2826.221624162391, -2108.7976823804, -9219.356980247137, 161.91603683424435, 518.3593056630261, -4571.021148088115, -1485.8098609220817, -2335.846702557409, -4203.603172731778, -3577.597865771993, -2497.1815940358156, -2978.347596925211, -1870.1928103199973, -7772.550913399567, -14844.911079992185, 0.009000000000000001, -0.10600000000000001, 0.988, 192.0, 0.0, 32.0, 126.0, 104.0, 15.0, 112.0, 0.0, 0.0, 0.0, 1.64592313327252E9, 0.0, 2022-02-27 11:52:13.272
186.0, -28.54317766942712, -2556.7042895202985, -1846.522312941827, -8962.960119600311, 441.8716361369653, 766.3742621391133, -4330.203453326637, -1266.718061771162, -2085.6859786136124, -3971.2791408633166, -3364.3398719239085, -2288.2598386120603, -2763.748498409808, -1674.793860291703, -7573.486277280603, -14605.434489898025, 0.009000000000000001, -0.10600000000000001, 0.988, 192.0, 0.0, 0.0, 0.0, 0.0, 0.0, 0.0, 0.0, 0.0, 0.0, 1.645923133280411E9, 0.0, 2022-02-27 11:52:13.280
188.0, -284.85063133843323, -2801.1429668835362, -2104.7296648895344, -9227.023628595309, 168.73331889311302, 501.6625525549117, -4580.185363314791, -1532.770876022682, -2287.5892862784012, -4081.7191102169886, -3434.6808117247597, -2360.545380180524, -2834.1788451884804, -1740.9773756238671, -7641.7038013582, -14784.583721707311, 0.009000000000000001, -0.10600000000000001, 0.988, 192.0, 0.0, 0.0, 0.0, 0.0, 0.0, 0.0, 0.0, 0.0, 0.0, 1.645923133288369E9, 0.0, 2022-02-27 11:52:13.288
190.0, -92.89384995625615, -2613.880051836974, -1924.1052179461979, -9030.015352966233, 353.8281147275108, 698.80493865072, -4396.655189592265, -1300.804472065505, -2215.281392965483, -4140.906529534642, -3543.4667519887394, -2487.9950270646846, -2957.2251984149457, -1873.9479033884888, -7756.301195180559, -14760.980279562507, 0.009000000000000001, -0.10600000000000001, 0.988, 192.0, 0.0, 0.0, 0.0, 0.0, 0.0, 0.0, 0.0, 0.0, 0.0, 1.645923133295697E9, 0.0, 2022-02-27 11:52:13.295
192.0, -111.53520483198224, -2641.1044765835377, -1955.4423636725385, -9074.137696521007, 324.5696812355139, 651.0392607497288, -4454.4344490092335, -1363.8587431739263, -2136.290328060428, -3943.7641434388333, -3305.5100805175402, -2224.8479395923546, -2707.645619826987, -1603.178871056899, -7525.58648891288, -14631.451920444004, 0.009000000000000001, -0.10600000000000001, 0.988, 192.0, 0.0, 0.0, 0.0, 0.0, 0.0, 0.0, 0.0, 0.0, 0.0, 1.645923133302051E9, 0.0, 2022-02-27 11:52:13.302
194.0, -257.06741298048655, -2771.3704432690674, -2102.98622882202, -9220.675733170001, 161.15607752276392, 511.1620439484172, -4581.772337171118, -1479.4619654967744, -2305.3589231203705, -4184.112451566751, -3550.2616823031526, -2484.1505270183716, -2966.9705589974596, -1859.2181037924415, -7769.220503475726, -14844.151120680704, 0.0115, -0.10500000000000001, 0.987, 192.0, 0.0, 56.0, 126.0, 96.0, 15.0, 104.0, 0.0, 0.0, 0.0, 1.645923133310061E9, 0.0, 2022-02-27 11:52:13.310
196.0, 18.79781708691324, -2504.9823528507177, -1841.64963265057, -8960.546131199138, 442.67629893735636, 768.7211953069205, -4335.210244084626, -1253.1058493978799, -2064.228303936518, -3929.6378409430795, -3351.577025839928, -2300.083911428918, -2760.6863094194305, -1663.1709531749432, -7578.090736638396, -14607.021463754352, 0.0115, -0.10500000000000001, 0.987, 192.0, 0.0, 0.0, 0.0, 0.0, 0.0, 0.0, 0.0, 0.0, 0.0, 1.645923133318264E9, 0.0, 2022-02-27 11:52:13.318
198.0, -240.504770339104, -2766.4307077444446, -2095.811318851867, -9222.352114004148, 181.29499927699558, 514.492453872258, -4572.1834387997915, -1502.573669263562, -2266.668053468234, -4038.6249469071568, -3420.420398762274, -2340.27234795956, -2824.053504950226, -1725.53232020525, -7640.362696690881, -14779.934558860608, 0.0115, -0.10500000000000001, 0.987, 192.0, 0.0, 0.0, 0.0, 0.0, 0.0, 0.0, 0.0, 0.0, 0.0, 1.645923133325301E9, 0.0, 2022-02-27 11:52:13.325
200.0, -61.62375946328157, -2593.048226004628, -1918.4502265990052, -9031.155291933454, 361.1147834199409, 690.8477176246307, -4385.300503408969, -1306.839443068438, -2198.964619513109, -4138.850169044754, -3531.7097344052477, -2488.4420619537905, -2950.7208407784515, -1849.5397984432934, -7748.902767765852, -14758.722753372522, 0.0115, -0.10500000000000001, 0.987, 192.0, 0.0, 0.0, 0.0, 0.0, 0.0, 0.0, 0.0, 0.0, 0.0, 1.645923133332689E9, 0.0, 2022-02-27 11:52:13.332
202.0, -85.67423649719197, -2611.1531390134264, -1942.5677588662816, -9074.383565710017, 328.436533026282, 641.6515280784998, -4447.795980906008, -1389.0491591750574, -2121.605231953291, -3929.9507653654537, -3293.3507315338534, -2214.0073435315303, -2701.543593590688, -1607.2245368033095, -7521.205546999639, -14638.93975483653, 0.0115, -0.10500000000000001, 0.987, 192.0, 0.0, 0.0, 0.0, 0.0, 0.0, 0.0, 0.0, 0.0, 0.0, 1.645923133340743E9, 0.0, 2022-02-27 11:52:13.340
204.0, -254.0722792234754, -2778.053614861204, -2102.22626951054, -9218.529965702292, 152.26008322955173, 500.9920002212525, -4589.19311633028, -1492.8506604255035, -2302.3861411078146, -4182.793698643887, -3544.4055252558624, -2484.5752101630223, -2969.4516026319984, -1869.65636845307, -7770.651015120866, -14853.181225440649, 0.014750000000000001, -0.10350000000000001, 0.9864999999999999, 192.0, 0.0, 72.0, 126.0, 104.0, 15.0, 104.0, 0.0, 0.0, 0.0, 1.645923133348769E9, 0.0, 2022-02-27 11:52:13.348
206.0, 6.61611635877089, -2513.8112919105643, -1840.4426384499836, -8960.300262010129, 436.79779014561063, 764.4743638604122, -4338.026563885995, -1257.4197360777541, -2064.608283592258, -3920.4736257164036, -3353.163999696255, -2290.472661313136, -2764.575512954654, -1655.7501740157813, -7583.701024496678, -14607.98258876593, 0.014750000000000001, -0.10350000000000001, 0.9864999999999999, 192.0, 0.0, 0.0, 0.0, 0.0, 0.0, 0.0, 0.0, 0.0, 0.0, 1.64592313335498E9, 0.0, 2022-02-27 11:52:13.354
208.0, -283.2860092265617, -2805.322743096679, -2097.3982927081934, -9220.698084914457, 171.01319682755434, 513.1737009493949, -4584.588656972487, -1502.5960210080173, -2271.8760099263204, -4050.8289993797544, -3421.873262151869, -2356.0303278005517, -2826.221624162391, -1725.5993754386159, -7640.966193791175, -14776.760611147954, 0.014750000000000001, -0.10350000000000001, 0.9864999999999999, 192.0, 0.0, 0.0, 0.0, 0.0, 0.0, 0.0, 0.0, 0.0, 0.0, 1.645923133370373E9, 0.0, 2022-02-27 11:52:13.370
210.0, -155.45638268666062, -2689.5854103070988, -1926.295688902818, -9039.559547848648, 358.8796089744102, 696.6591711830106, -4399.605619860366, -1313.6343733828514, -2213.4932534090585, -4157.089192520284, -3546.4842374902055, -2486.1845357638044, -2953.5148088353644, -1862.5708654607374, -7755.831808546997, -14760.510892928945, 0.014750000000000001, -0.10350000000000001, 0.9864999999999999, 192.0, 0.0, 0.0, 0.0, 0.0, 0.0, 0.0, 0.0, 0.0, 0.0, 1.645923133378437E9, 0.0, 2022-02-27 11:52:13.378
212.0, -216.0966653939087, -2743.7213353778525, -1946.8592938017005, -9072.751888364779, 343.61336751143546, 667.5124964132901, -4451.528722230044, -1378.0521009030463, -2150.886017189743, -3951.9225301650204, -3321.7597987365484, -2238.795428132466, -2698.973142978328, -1606.5539844696505, -7521.607878399835, -14631.295458232817, 0.014750000000000001, -0.10350000000000001, 0.9864999999999999, 192.0, 0.0, 0.0, 0.0, 0.0, 0.0, 0.0, 0.0, 0.0, 0.0, 1.645923133384941E9, 0.0, 2022-02-27 11:52:13.384
214.0, -448.3312902845491, -2965.182419441035, -2119.258298785484, -9226.44248323947, 169.78385088251244, 526.6294511114897, -4567.847200375462, -1478.567895718562, -2358.623130157367, -4228.12303639925, -3589.176069399842, -2517.16405357886, -2964.3554048961887, -1861.3191677712402, -7767.3206051970255, -14841.781835768443, 0.015375, -0.10275000000000001, 0.98425, 192.0, 0.0, 64.0, 126.0, 104.0, 15.0, 88.0, 0.0, 0.0, 0.0, 1.645923133393017E9, 0.0, 2022-02-27 11:52:13.393
216.0, -211.26868859156235, -2736.5911288966095, -1852.4902287113941, -8967.72104116929, 457.11552585548475, 778.0642244892389, -4317.954697365129, -1260.7948494905054, -2143.8675694307767, -4012.831033805732, -3425.2483755646203, -2340.0935340039177, -2776.444289260422, -1680.3817964055297, -7580.594132017391, -14604.160440464073, 0.015375, -0.10275000000000001, 0.98425, 192.0, 0.0, 0.0, 0.0, 0.0, 0.0, 0.0, 0.0, 0.0, 0.0, 1.645923133401182E9, 0.0, 2022-02-27 11:52:13.401
218.0, -485.1669651468951, -3005.1249867826687, -2106.4283974681375, -9233.349172276161, 182.5466969664928, 527.7917418231657, -4575.200924301258, -1476.3327212730314, -2336.3160891909706, -4114.620878055201, -3481.373605891896, -2389.334427038959, -2822.1983101604355, -1734.8977011320235, -7633.210138465183, -14768.266948254937, 0.015375, -0.10275000000000001, 0.98425, 192.0, 0.0, 0.0, 0.0, 0.0, 0.0, 0.0, 0.0, 0.0, 0.0, 1.645923133407645E9, 0.0, 2022-02-27 11:52:13.407
220.0, -309.8622333839218, -2827.540377085254, -1940.8913780321334, -9051.338917176596, 350.5871117814913, 703.4988049863344, -4395.91758202524, -1301.2738586990665, -2283.9459519321863, -4197.031759861918, -3609.985543487733, -2546.511894048678, -2966.7246898084513, -1868.427022508028, -7762.716145839232, -14756.82285509382, 0.015375, -0.10275000000000001, 0.98425, 192.0, 0.0, 0.0, 0.0, 0.0, 0.0, 0.0, 0.0, 0.0, 0.0, 1.645923133415732E9, 0.0, 2022-02-27 11:52:13.415
222.0, -312.79031190756706, -2830.8484352646396, -1961.0750032752758, -9082.27373150274, 333.5103790176367, 667.5124964132901, -4430.3616202308685, -1346.9384726212588, -2200.8868695362653, -3971.5697135412356, -3369.5031248930845, -2272.8371349378986, -2711.1324919620147, -1608.7444554262706, -7524.379494712293, -14624.433472685037, 0.015375, -0.10275000000000001, 0.98425, 192.0, 0.0, 0.0, 0.0, 0.0, 0.0, 0.0, 0.0, 0.0, 0.0, 1.645923133422754E9, 0.0, 2022-02-27 11:52:13.422
224.0, -466.9055899269092, -2972.983178255937, -2121.1134935752743, -9235.49493974387, 157.9150745767444, 514.0230672386965, -4573.435136489289, -1482.8817823984364, -2379.0079211006073, -4238.203673148593, -3611.684276066336, -2535.112504376472, -2971.083279977236, -1869.522257986338, -7770.226331976215, -14836.640934543722, 0.0146875, -0.10237500000000001, 0.983125, 192.0, 0.0, 56.0, 126.0, 104.0, 15.0, 88.0, 0.0, 0.0, 0.0, 1.645923133430761E9, 0.0, 2022-02-27 11:52:13.430
226.0, -160.55258042247064, -2674.7215002443195, -1850.8809031106118, -8966.58110220207, 448.21953156227255, 771.671625575021, -4336.260776074026, -1250.647157507796, -2134.122208848263, -3993.452071362981, -3417.7158376831817, -2346.262615473582, -2776.6007514716093, -1681.1864592059208, -7586.78556523151, -14601.210010195973, 0.0146875, -0.10237500000000001, 0.983125, 192.0, 0.0, 0.0, 0.0, 0.0, 0.0, 0.0, 0.0, 0.0, 0.0, 1.645923133437221E9, 0.0, 2022-02-27 11:52:13.437
228.0, -401.3479234394936, -2928.43615155651, -2105.7801968789336, -9223.804977393744, 178.92571436473304, 520.8179975531099, -4587.159107584847, -1496.6281052384502, -2313.1596819352726, -4115.939630978064, -3464.6992045282373, -2365.887447105342, -2820.119597926092, -1728.952137106912, -7637.8369495674315, -14764.087172041794, 0.0146875, -0.10237500000000001, 0.983125, 192.0, 0.0, 0.0, 0.0, 0.0, 0.0, 0.0, 0.0, 0.0, 0.0, 1.645923133445241E9, 0.0, 2022-02-27 11:52:13.445
230.0, -221.61754627436952, -2744.213073755869, -1942.1430757216306, -9049.684888086902, 348.84367571397735, 696.5697642051892, -4393.794166301986, -1302.8831842998486, -2257.1238585858177, -4188.314579524348, -3589.4889938222163, -2517.1193500899494, -2960.5779600832416, -1857.8769991251231, -7761.8667795499305, -14755.213529493038, 0.0146875, -0.10237500000000001, 0.983125, 192.0, 0.0, 0.0, 0.0, 0.0, 0.0, 0.0, 0.0, 0.0, 0.0, 1.64592313345331E9, 0.0, 2022-02-27 11:52:13.453
232.0, -204.0937786214088, -2728.6339078705205, -1950.1897037255412, -9071.433135441916, 338.9418529202763, 668.2724557247706, -4440.039925580016, -1367.1220978644012, -2158.5079620490033, -3944.8593789171437, -3336.847226243881, -2240.8070851334437, -2698.6602185559536, -1604.1846995573878, -7519.126834765296, -14615.626885369646, 0.0146875, -0.10237500000000001, 0.983125, 192.0, 0.0, 0.0, 0.0, 0.0, 0.0, 0.0, 0.0, 0.0, 0.0, 1.64592313346065E9, 0.0, 2022-02-27 11:52:13.460
234.0, -368.3120451345498, -2875.417813708522, -2123.549833720903, -9232.030419353297, 149.46611517263833, 507.5634130911128, -4613.020075919638, -1503.0430558971234, -2340.7417345931217, -4173.338910739292, -3577.3072930940743, -2490.5878294215, -2962.5896170842193, -1858.8828276256118, -7769.958111042752, -14836.350361865803, 0.01534375, -0.1051875, 0.9845625, 192.0, 0.0, 64.0, 126.0, 80.0, 15.0, 104.0, 0.0, 0.0, 0.0, 1.645923133467952E9, 0.0, 2022-02-27 11:52:13.467
236.0, -71.03384387896584, -2598.546755140633, -1853.1384293005979, -8960.702593410326, 434.495560466714, 771.4704598749232, -4334.584395239877, -1252.3458900863993, -2099.745225876001, -3969.289835606794, -3390.7819856145366, -2309.851623755887, -2777.2042485719026, -1678.2807324267308, -7596.843850236399, -14603.132260219129, 0.01534375, -0.1051875, 0.9845625, 192.0, 0.0, 0.0, 0.0, 0.0, 0.0, 0.0, 0.0, 0.0, 0.0, 1.645923133476053E9, 0.0, 2022-02-27 11:52:13.476
238.0, -315.02548635309773, -2838.5597871017203, -2103.0756357998416, -9222.843852382166, 174.72358640713531, 516.8170352956099, -4581.615874959931, -1507.245183854721, -2279.542658274491, -4077.2487613259273, -3430.612794233894, -2332.695106589211, -2815.5821938016647, -1710.24372699782, -7632.092551242417, -14759.505064428457, 0.01534375, -0.1051875, 0.9845625, 192.0, 0.0, 0.0, 0.0, 0.0, 0.0, 0.0, 0.0, 0.0, 0.0, 1.645923133490177E9, 0.0, 2022-02-27 11:52:13.490
240.0, -140.57012087942613, -2658.740002958775, -1947.9321775355552, -9055.272824200729, 338.83009419799976, 685.192726277438, -4423.052599793983, -1335.3826207378652, -2226.6807826376894, -4154.406983185647, -3563.0692318760434, -2506.5693267070446, -2960.6226635721523, -1859.262807281352, -7765.465410407235, -14763.72954413051, 0.01534375, -0.1051875, 0.9845625, 192.0, 0.0, 0.0, 0.0, 0.0, 0.0, 0.0, 0.0, 0.0, 0.0, 1.645923133497553E9, 0.0, 2022-02-27 11:52:13.497
242.0, -132.72465857561335, -2656.5048285132443, -1950.5696833812815, -9072.12603952003, 342.4734285442148, 665.3220254566701, -4448.578291961943, -1368.9549409097363, -2134.4574850150925, -3938.7350009363895, -3317.7811882235037, -2226.7478378710557, -2704.158747691959, -1594.5734494416058, -7523.910108078731, -14620.700731361001, 0.01534375, -0.1051875, 0.9845625, 192.0, 0.0, 0.0, 0.0, 0.0, 0.0, 0.0, 0.0, 0.0, 0.0, 1.645923133505638E9, 0.0, 2022-02-27 11:52:13.505
244.0, -299.4239687232934, -2815.135158912559, -2120.0853133303303, -9235.606698466147, 146.09100175988695, 499.9638199763084, -4587.874363407417, -1499.8467564400146, -2315.0595802139737, -4183.754823655466, -3558.5541794960714, -2476.5732856480226, -2959.5721315827527, -1852.199656033475, -7762.514980139134, -14839.054922944895, 0.014671875000000001, -0.10659375, 0.98728125, 192.0, 0.0, 56.0, 126.0, 80.0, 15.0, 120.0, 0.0, 0.0, 0.0, 1.64592313351356E9, 0.0, 2022-02-27 11:52:13.513
