%OpenBCI Raw EEG Data
%Number of channels = 16
%Sample Rate = 125 Hz
%Board = OpenBCI_GUI$BoardCytonSerialDaisy
Sample Index, EXG Channel 0, EXG Channel 1, EXG Channel 2, EXG Channel 3, EXG Channel 4, EXG Channel 5, EXG Channel 6, EXG Channel 7, EXG Channel 8, EXG Channel 9, EXG Channel 10, EXG Channel 11, EXG Channel 12, EXG Channel 13, EXG Channel 14, EXG Channel 15, Accel Channel 0, Accel Channel 1, Accel Channel 2, Other, Other, Other, Other, Other, Other, Other, Analog Channel 0, Analog Channel 1, Analog Channel 2, Timestamp, Other, Timestamp (Formatted)
40.0, -386.0816819765189, -2941.735439507418, -2303.5484318194904, -9503.045320873896, 118.66541131322519, 276.826355078978, -4769.5269905956975, -1776.5837045411713, -3632.896081554423, -4736.155836123924, -3468.2084284077205, -2665.5572850176436, -2862.1408775020695, -1938.0303547418541, -8140.862958534117, -15369.66298456943, 0.0, 0.0, 0.0, 192.0, 0.0, 0.0, 0.0, 0.0, 0.0, 0.0, 0.0, 0.0, 0.0, 1.645922964277069E9, 0.0, 2022-02-27 11:49:24.277
42.0, -427.74533364121123, -2948.642128544108, -2260.297806298471, -9487.242637543994, 110.81994900941241, 379.08558596200777, -4611.075474152026, -1510.4191315673747, -1309.745169847628, -4194.438957505102, -3674.850305897034, -2610.996676802239, -3114.6485346136733, -2037.3615071012387, -7895.239638714748, -14621.952429050498, 0.0, 0.0, 0.0, 192.0, 0.0, 0.0, 0.0, 0.0, 0.0, 0.0, 0.0, 0.0, 0.0, 1.645922964277071E9, 0.0, 2022-02-27 11:49:24.277
0.0, -218.91298519527737, -1461.3794042324312, -1173.131307736791, -4751.243263631256, 22.552910155404827, 117.77134153501291, -2411.2614883496153, -915.9297842895728, -1642.629700020516, -2215.706076110134, -1661.8074967631694, -1284.1077189573907, -1360.7294989501834, -894.3603508902015, -4003.9573912569754, -7540.696268164667, 0.014, -0.108, 1.004, 192.0, 0.0, 56.0, 126.0, 80.0, 15.5, 48.0, 0.0, 0.0, 0.0, 1.645922964377508E9, 0.0, 2022-02-27 11:49:24.377
2.0, -592.9023734214751, -3024.213376547501, -2385.624037459378, -9590.977083561074, -61.154372829720124, 249.91485475478828, -4685.0597482990925, -1614.1982810733655, -2132.736400692034, -4466.705556715197, -3778.048310047187, -2656.7954011911634, -3221.4675213655855, -2125.4273802551484, -8069.605597210598, -15010.984541295116, 0.014, -0.108, 1.004, 192.0, 0.0, 0.0, 0.0, 0.0, 0.0, 0.0, 0.0, 0.0, 0.0, 1.645922964383634E9, 0.0, 2022-02-27 11:49:24.383
4.0, 17.03202927494398, -2551.36222259548, -1962.9525498095215, -9075.925836077433, 513.1289974604842, 569.3883382544922, -4461.676414212753, -1365.6021792414404, -1809.686638079481, -3872.551485604225, -3409.780968401548, -2472.1029367569613, -2855.0106710208265, -1789.9500477254448, -7830.486635027723, -14499.017834546308, 0.014, -0.108, 1.004, 192.0, 0.0, 0.0, 0.0, 0.0, 0.0, 0.0, 0.0, 0.0, 0.0, 1.645922964391403E9, 0.0, 2022-02-27 11:49:24.391
6.0, -588.2308588303159, -3032.014135362403, -2427.041819935062, -9621.442511253657, -78.76754746050209, 184.8489266453894, -4817.471482452332, -1797.169661184509, -3607.213927175275, -4794.203316474356, -3632.0243635206657, -2688.6242852955206, -3044.978147146481, -2037.383858845694, -8222.603288007174, -15489.714204038884, 0.013000000000000001, -0.107, 1.0030000000000001, 192.0, 0.0, 48.0, 126.0, 88.0, 15.5, 40.0, 0.0, 0.0, 0.0, 1.645922964399434E9, 0.0, 2022-02-27 11:49:24.399
8.0, -254.8098867905005, -2758.4287832294444, -2130.8812059022434, -9296.448146873492, 265.91870378478814, 454.9027031544093, -4502.22247865468, -1388.356255096943, -1107.663048227197, -3872.171505948485, -3589.3772350999398, -2510.8608616424635, -3055.885798440671, -1945.8534653012116, -7822.730579701732, -14416.584600995136, 0.013000000000000001, -0.107, 1.0030000000000001, 192.0, 0.0, 0.0, 0.0, 0.0, 0.0, 0.0, 0.0, 0.0, 0.0, 1.645922964406089E9, 0.0, 2022-02-27 11:49:24.406
10.0, -164.06180430195383, -2705.6563145704645, -2130.545929735414, -9253.756314963855, 323.8991289018546, 419.6540021483901, -4646.882968769428, -1615.472330507318, -3244.8250943213816, -4369.609578801344, -3405.556488699495, -2557.620711042966, -2818.867900236595, -1831.2113679899417, -8043.297593986702, -15104.683054051764, 0.013000000000000001, -0.107, 1.0030000000000001, 192.0, 0.0, 0.0, 0.0, 0.0, 0.0, 0.0, 0.0, 0.0, 0.0, 1.645922964414084E9, 0.0, 2022-02-27 11:49:24.414
12.0, -592.3882832990031, -3025.308612025811, -2387.635694460356, -9593.525182428979, -53.91240762620063, 255.18986644624073, -4683.383367464944, -1621.9766881438122, -2127.5954994673134, -4459.642405467321, -3779.791746114701, -2663.389165805479, -3223.613288833295, -2140.067772873375, -8072.801896667707, -15017.667712887254, 0.013000000000000001, -0.107, 1.0030000000000001, 192.0, 0.0, 0.0, 0.0, 0.0, 0.0, 0.0, 0.0, 0.0, 0.0, 1.64592296442217E9, 0.0, 2022-02-27 11:49:24.422
14.0, 14.08159900684345, -2557.7548215096976, -1964.450116688027, -9077.535161678215, 511.0949887150513, 555.7090706478442, -4461.274082812558, -1367.2785600755883, -1810.8265770467017, -3881.693349086446, -3404.7518258991036, -2472.594675134978, -2848.2380924508684, -1796.0520739617436, -7834.577004263045, -14505.790413116267, 0.013000000000000001, -0.107, 1.0030000000000001, 192.0, 0.0, 0.0, 0.0, 0.0, 0.0, 0.0, 0.0, 0.0, 0.0, 1.645922964428819E9, 0.0, 2022-02-27 11:49:24.428
16.0, -592.745911210288, -3036.663298209107, -2429.366401358414, -9623.007133365529, -75.0348061364658, 176.37761549682804, -4818.276145252722, -1798.6001728296487, -3618.7027238253027, -4805.647409635474, -3634.9747937887664, -2691.8205847526297, -3046.1851413470677, -2045.6987077830684, -8221.351590317678, -15490.988253472837, 0.0125, -0.1065, 0.9995, 192.0, 0.0, 48.0, 126.0, 88.0, 15.5, 16.0, 0.0, 0.0, 0.0, 1.645922964443683E9, 0.0, 2022-02-27 11:49:24.443
18.0, -264.51054388410375, -2768.0400333452267, -2133.8092844258886, -9304.31596092176, 265.4269654067714, 460.60239799051266, -4507.296324646035, -1388.4903655636747, -1110.2558505840125, -3890.075253257186, -3597.5132700816716, -2515.6664867003547, -3063.1948188775564, -1946.7028315905134, -7825.233975080726, -14418.484499273838, 0.0125, -0.1065, 0.9995, 192.0, 0.0, 0.0, 0.0, 0.0, 0.0, 0.0, 0.0, 0.0, 0.0, 1.645922964451512E9, 0.0, 2022-02-27 11:49:24.451
20.0, -160.7760978670237, -2700.9177447459397, -2122.6781156871457, -9256.505579531859, 326.8719109144105, 400.5432606391026, -4649.922806015349, -1601.0778070781002, -3239.8853587967587, -4372.425898602713, -3405.0423985770226, -2563.9462547238177, -2820.611336304109, -1819.3202399397185, -8043.722277131353, -15100.592684816444, 0.0125, -0.1065, 0.9995, 192.0, 0.0, 0.0, 0.0, 0.0, 0.0, 0.0, 0.0, 0.0, 0.0, 1.645922964458246E9, 0.0, 2022-02-27 11:49:24.458
22.0, -597.7750537127321, -3030.181292317068, -2382.3159792799925, -9600.320112743391, -70.16212584520888, 238.56016857149228, -4702.203536296312, -1624.6812492229044, -2150.0813543893523, -4477.277931842557, -3769.331129709617, -2665.087898384082, -3219.9923062315356, -2141.5206362629697, -8077.719280447875, -15032.062236316471, 0.0125, -0.1065, 0.9995, 192.0, 0.0, 0.0, 0.0, 0.0, 0.0, 0.0, 0.0, 0.0, 0.0, 1.645922964466368E9, 0.0, 2022-02-27 11:49:24.466
24.0, 0.9834767560335107, -2567.813106514586, -1965.7241661219796, -9085.157106537474, 496.34283737454865, 554.8373526140872, -4463.553960746999, -1365.4010135413425, -1800.0306844747884, -3885.3813869215714, -3407.3222765114638, -2479.076681027017, -2860.1962757344577, -1809.5525276127491, -7836.2310333527375, -14504.091680537664, 0.0125, -0.1065, 0.9995, 192.0, 0.0, 0.0, 0.0, 0.0, 0.0, 0.0, 0.0, 0.0, 0.0, 1.645922964474319E9, 0.0, 2022-02-27 11:49:24.474
26.0, -584.3863587840032, -3029.778960916872, -2420.470407065202, -9619.609668208323, -69.40216653372843, 185.22890630112963, -4830.770770403239, -1816.0568852492436, -3637.9028723124115, -4804.641581134985, -3629.185691974842, -2692.044102197183, -3040.0160598774028, -2044.2458443934734, -8225.352552575177, -15497.49261110933, 0.01125, -0.10525000000000001, 0.99475, 192.0, 0.0, 40.0, 126.0, 96.0, 15.0, 120.0, 0.0, 0.0, 0.0, 1.645922964481465E9, 0.0, 2022-02-27 11:49:24.481
28.0, -271.37252943188304, -2773.6279694590535, -2139.9113106621876, -9315.648295360601, 241.10826743939728, 442.69865068181167, -4524.596574854443, -1403.9801244712025, -1113.429798296666, -3894.8585265706215, -3599.3908166159176, -2519.466283257757, -3068.3133683578217, -1960.225636985974, -7832.922975173352, -14432.81196746969, 0.01125, -0.10525000000000001, 0.99475, 192.0, 0.0, 0.0, 0.0, 0.0, 0.0, 0.0, 0.0, 0.0, 0.0, 1.645922964488982E9, 0.0, 2022-02-27 11:49:24.488
30.0, -149.3990599392724, -2695.2404016542914, -2121.158197064185, -9250.69412597348, 323.02741086809766, 400.40915017237074, -4633.896605240894, -1592.0253505737007, -3210.6269253047617, -4365.049822932461, -3400.5944014304164, -2563.6333303014435, -2821.348943871134, -1837.8945395820786, -8038.447265439901, -15088.03100443256, 0.01125, -0.10525000000000001, 0.99475, 192.0, 0.0, 0.0, 0.0, 0.0, 0.0, 0.0, 0.0, 0.0, 0.0, 1.645922964495889E9, 0.0, 2022-02-27 11:49:24.495
32.0, -608.0568561621733, -3039.0325831213695, -2394.497680008135, -9610.356046003824, -58.114535583798364, 244.77395353006764, -4684.970341321271, -1621.2614323212424, -2185.017130972997, -4502.825975754974, -3777.824792602634, -2672.843953710074, -3232.397524404231, -2150.5283892784582, -8080.7144142048855, -15044.35569576689, 0.01125, -0.10525000000000001, 0.99475, 192.0, 0.0, 0.0, 0.0, 0.0, 0.0, 0.0, 0.0, 0.0, 0.0, 1.645922964503888E9, 0.0, 2022-02-27 11:49:24.503
34.0, -4.068017490865885, -2566.583760569544, -1970.7309568799685, -9087.593446683102, 497.03574145266316, 567.9131231204418, -4458.860094411385, -1352.414650012809, -1782.2610476328193, -3876.0607094837083, -3413.2454887921203, -2482.787070606598, -2861.962063546427, -1809.7313415683916, -7832.140664117416, -14496.335625211672, 0.01125, -0.10525000000000001, 0.99475, 192.0, 0.0, 0.0, 0.0, 0.0, 0.0, 0.0, 0.0, 0.0, 0.0, 1.645922964510971E9, 0.0, 2022-02-27 11:49:24.510
36.0, -592.455338532369, -3031.947080129037, -2429.4558083362353, -9618.782653663475, -70.13977410075356, 178.23281028661853, -4820.62307842053, -1798.6001728296487, -3649.1905032623417, -4811.391807960487, -3634.3489449440176, -2696.514451088244, -3042.340641300755, -2047.352736872761, -8223.117378129647, -15495.59271283063, 0.012625, -0.105625, 0.991375, 192.0, 0.0, 56.0, 126.0, 88.0, 15.0, 112.0, 0.0, 0.0, 0.0, 1.645922964518632E9, 0.0, 2022-02-27 11:49:24.518
38.0, -280.82731733647796, -2776.287827049235, -2146.1027438763076, -9313.837804059722, 256.7321368136569, 449.7618019296887, -4508.123339190882, -1397.2075459012444, -1112.401618051722, -3896.0878725156635, -3608.2644591646745, -2522.707286203776, -3068.469830569009, -1952.9166165490888, -7834.085265885028, -14426.24055459983, 0.012625, -0.105625, 0.991375, 192.0, 0.0, 0.0, 0.0, 0.0, 0.0, 0.0, 0.0, 0.0, 0.0, 1.645922964526499E9, 0.0, 2022-02-27 11:49:24.526
40.0, -151.67893787371372, -2698.9507912338727, -2119.258298785484, -9240.524082246315, 346.5190942906254, 419.94457482630906, -4632.555500573576, -1590.6842459063823, -3215.1196259402786, -4365.183933399193, -3406.249392777609, -2562.8286675010527, -2822.645345049542, -1836.4193244480282, -8045.30925098768, -15083.359489841401, 0.012625, -0.105625, 0.991375, 192.0, 0.0, 0.0, 0.0, 0.0, 0.0, 0.0, 0.0, 0.0, 0.0, 1.645922964533705E9, 0.0, 2022-02-27 11:49:24.533
42.0, -624.3736296145474, -3052.4436297945535, -2400.9349824112633, -9614.826394894886, -65.26709380949663, 257.42504089177146, -4693.016969325182, -1609.3703042710192, -2254.6875184401893, -4528.329316178479, -3779.791746114701, -2676.353177589557, -3220.7075620541054, -2139.352517050805, -8094.304274833713, -15068.249710589615, 0.012625, -0.105625, 0.991375, 192.0, 0.0, 0.0, 0.0, 0.0, 0.0, 0.0, 0.0, 0.0, 0.0, 1.645922964541245E9, 0.0, 2022-02-27 11:49:24.541
44.0, -7.2643169479747955, -2575.256237418203, -1974.9107330931108, -9087.347577494094, 502.84719501104297, 578.3737395255256, -4464.738603203131, -1338.7577341506164, -1715.8093113671914, -3871.0986222146303, -3424.9578028867013, -2482.652960139866, -2870.835706095184, -1797.3037716512408, -7828.631440237933, -14469.826456287678, 0.012625, -0.105625, 0.991375, 192.0, 0.0, 0.0, 0.0, 0.0, 0.0, 0.0, 0.0, 0.0, 0.0, 1.645922964549138E9, 0.0, 2022-02-27 11:49:24.549
46.0, -597.5962397570896, -3046.69923146954, -2428.919366469308, -9615.921630373196, -60.79674491843521, 197.23179307362952, -4804.194546245879, -1770.9287131939786, -3660.634596423459, -4805.692113124384, -3630.1691687308753, -2696.626209810521, -3037.1326848426684, -2035.2157396335292, -8225.441959553, -15484.394488858521, 0.013312500000000001, -0.1078125, 0.9896875, 192.0, 0.0, 56.0, 126.0, 72.0, 15.0, 112.0, 0.0, 0.0, 0.0, 1.645922964563278E9, 0.0, 2022-02-27 11:49:24.563
48.0, -305.48129147068164, -2806.797958230729, -2158.217389371084, -9320.096292507207, 250.11602045488604, 447.2137030617837, -4502.915382732795, -1375.1687258683116, -1119.8671006997945, -3926.0839135746855, -3628.693953596825, -2535.69364973231, -3076.069423683813, -1962.8631428317003, -7826.440969281312, -14427.983990667342, 0.013312500000000001, -0.1078125, 0.9896875, 192.0, 0.0, 0.0, 0.0, 0.0, 0.0, 0.0, 0.0, 0.0, 0.0, 1.645922964570946E9, 0.0, 2022-02-27 11:49:24.570
50.0, -163.9500455796773, -2716.0275239977273, -2126.5226157334587, -9239.562957234735, 349.0001379251645, 414.71426662376723, -4626.699343526286, -1575.7085771213267, -3200.6356955332394, -4370.593055557377, -3418.3416865279305, -2569.6012460710103, -2826.9815834738715, -1839.526216927316, -8034.602765393587, -15067.042716389027, 0.013312500000000001, -0.1078125, 0.9896875, 192.0, 0.0, 0.0, 0.0, 0.0, 0.0, 0.0, 0.0, 0.0, 0.0, 1.645922964578813E9, 0.0, 2022-02-27 11:49:24.578
52.0, -643.1937984459161, -3074.661263783129, -2402.5443080120453, -9618.313267029915, -74.99010264755519, 240.8847499948442, -4682.176373264358, -1615.047647362667, -2248.0937538258736, -4535.66068835982, -3799.617743446558, -2687.3725876060234, -3231.8163790483927, -2148.248511344017, -8089.386891053545, -15067.377992555857, 0.013312500000000001, -0.1078125, 0.9896875, 192.0, 0.0, 0.0, 0.0, 0.0, 0.0, 0.0, 0.0, 0.0, 0.0, 1.645922964586912E9, 0.0, 2022-02-27 11:49:24.586
54.0, -28.721991625069574, -2599.552583641122, -1976.2294860159739, -9093.360196752572, 492.4089303504146, 554.971463080819, -4447.348946016901, -1340.0988388179348, -1753.8966839190346, -3885.6943113439456, -3436.3348408144525, -2494.4770329567236, -2880.826935866706, -1815.8110160602353, -7831.403056550391, -14485.606787873125, 0.013312500000000001, -0.1078125, 0.9896875, 192.0, 0.0, 0.0, 0.0, 0.0, 0.0, 0.0, 0.0, 0.0, 0.0, 1.645922964593578E9, 0.0, 2022-02-27 11:49:24.593
56.0, -611.230803874827, -3059.46207755352, -2423.6667065223105, -9613.775862905486, -64.59654147583741, 191.75561568207928, -4811.749435871772, -1775.1531928960317, -3690.8988584159447, -4827.418008734943, -3634.5948141330264, -2704.874003514529, -3041.2230540779897, -2049.587911318292, -8228.906479943571, -15498.610198332097, 0.014656250000000001, -0.10990625000000001, 0.98884375, 192.0, 0.0, 64.0, 126.0, 64.0, 15.0, 112.0, 0.0, 0.0, 0.0, 1.645922964601586E9, 0.0, 2022-02-27 11:49:24.601
58.0, -330.1352656048853, -2827.2945078962457, -2161.6595580172016, -9332.903842080099, 232.83812199093367, 442.31867102607146, -4501.3284088764685, -1381.6954352492614, -1136.3403363633558, -3938.042096858275, -3641.4567996808055, -2542.8909114469184, -3095.269572170922, -1953.743631093935, -7834.174672862849, -14438.846938472623, 0.014656250000000001, -0.10990625000000001, 0.98884375, 192.0, 0.0, 0.0, 0.0, 0.0, 0.0, 0.0, 0.0, 0.0, 0.0, 1.645922964609416E9, 0.0, 2022-02-27 11:49:24.609
60.0, -177.15992655276378, -2728.7233148483415, -2120.6888104306236, -9238.043038611775, 347.7931437245779, 419.0505050480968, -4630.454436594777, -1590.147804039455, -3196.9923611870245, -4378.527924839011, -3430.836311678447, -2583.4816793777563, -2841.5549208587317, -1840.6438041500812, -8036.346201461101, -15067.959137911696, 0.014656250000000001, -0.10990625000000001, 0.98884375, 192.0, 0.0, 0.0, 0.0, 0.0, 0.0, 0.0, 0.0, 0.0, 0.0, 1.645922964616568E9, 0.0, 2022-02-27 11:49:24.616
62.0, -657.0295282637511, -3084.3395691322767, -2409.2945348375483, -9619.542612974956, -81.6509224952367, 243.3657936293833, -4697.59907693852, -1617.5733944861167, -2287.4998793005802, -4556.559569425532, -3806.2562115497844, -2692.2005644083697, -3236.554948872918, -2154.2611306024946, -8099.0875481471485, -15083.73946949714, 0.014656250000000001, -0.10990625000000001, 0.98884375, 192.0, 0.0, 0.0, 0.0, 0.0, 0.0, 0.0, 0.0, 0.0, 0.0, 1.645922964623281E9, 0.0, 2022-02-27 11:49:24.623
64.0, -48.30211976791856, -2619.4679879508008, -1981.6162564297028, -9092.935513607921, 490.44197683834756, 564.8956376189753, -4458.033079866538, -1335.1143998044015, -1725.7111341608925, -3887.840078811655, -3443.1074193844106, -2491.6383614108995, -2884.76084289084, -1811.1395014690759, -7829.234937338226, -14474.72148832339, 0.014656250000000001, -0.10990625000000001, 0.98884375, 192.0, 0.0, 0.0, 0.0, 0.0, 0.0, 0.0, 0.0, 0.0, 0.0, 1.645922964631095E9, 0.0, 2022-02-27 11:49:24.631
66.0, -625.4465133484023, -3077.4775835844976, -2416.692962252255, -9607.360912246813, -56.259340794007876, 197.1647378402636, -4789.978836772303, -1771.4204515719953, -3702.857041699534, -4829.317907013644, -3636.2711949671743, -2705.9468872483835, -3039.0102313769144, -2040.0884199247862, -8228.30298284328, -15493.603407574108, 0.013328125, -0.10895312500000001, 0.990421875, 192.0, 0.0, 48.0, 126.0, 80.0, 15.5, 0.0, 0.0, 0.0, 0.0, 1.645922964639159E9, 0.0, 2022-02-27 11:49:24.639
68.0, -374.7269957932229, -2870.9698165619156, -2168.1639156536958, -9341.33044973975, 227.80897948848957, 449.58298797404626, -4511.99019098165, -1401.3649703699316, -1153.1935516826572, -3964.7300797379116, -3649.369317217984, -2550.6693185173654, -3095.940124504581, -1966.1041457777199, -7844.635289267932, -14456.14718868103, 0.013328125, -0.10895312500000001, 0.990421875, 192.0, 0.0, 0.0, 0.0, 0.0, 0.0, 0.0, 0.0, 0.0, 0.0, 1.645922964646244E9, 0.0, 2022-02-27 11:49:24.646
70.0, -215.02378166005394, -2770.878704891051, -2112.5527754488917, -9234.511462987837, 346.40733556834886, 427.3877057299263, -4641.071515211048, -1551.3004721761313, -3153.495866476997, -4363.440497331679, -3430.8586634229023, -2581.4029671434128, -2828.836778263662, -1824.6399551200814, -8033.842806082107, -15047.194367312715, 0.013328125, -0.10895312500000001, 0.990421875, 192.0, 0.0, 0.0, 0.0, 0.0, 0.0, 0.0, 0.0, 0.0, 0.0, 1.645922964653815E9, 0.0, 2022-02-27 11:49:24.653
72.0, -737.0711251582057, -3169.5667707403627, -2419.1293023978833, -9630.874947413797, -84.95898067462214, 232.86047373538898, -4681.371710463966, -1620.277955565209, -2330.4599321436804, -4589.237819819191, -3821.701266968402, -2715.6922478308975, -3238.298384940432, -2154.5517032804137, -8105.837774972651, -15089.059184677504, 0.013328125, -0.10895312500000001, 0.990421875, 192.0, 0.0, 0.0, 0.0, 0.0, 0.0, 0.0, 0.0, 0.0, 0.0, 1.64592296466165E9, 0.0, 2022-02-27 11:49:24.661
74.0, -139.78780982349036, -2708.003247738272, -1986.421881487594, -9095.573019453648, 490.75490126072185, 581.9500186383747, -4465.856190425896, -1329.101780545924, -1749.4263350279732, -3912.4493494569483, -3466.35323361793, -2515.0629896000614, -2884.4926219573763, -1811.2736119358078, -7830.106655371983, -14474.207398200919, 0.013328125, -0.10895312500000001, 0.990421875, 192.0, 0.0, 0.0, 0.0, 0.0, 0.0, 0.0, 0.0, 0.0, 0.0, 1.645922964668935E9, 0.0, 2022-02-27 11:49:24.668
76.0, -730.902043688541, -3191.6726460066616, -2437.748305529154, -9615.988685606562, -47.38569824525097, 194.3037145499843, -4779.249999433756, -1749.8733699170793, -3742.97842299681, -4861.929102173937, -3668.2341895382633, -2734.9818032958274, -3040.7760191888833, -2035.774533244912, -8224.927869430527, -15491.144715684024, 0.0126640625, -0.10747656250000001, 0.9922109375, 192.0, 0.0, 48.0, 126.0, 88.0, 15.5, 8.0, 0.0, 0.0, 0.0, 1.645922964676458E9, 0.0, 2022-02-27 11:49:24.676
78.0, -479.6013807775236, -2979.085204492236, -2184.078357705874, -9345.08554280824, 220.9469939407103, 442.0504500926078, -4481.4577080557, -1361.645920472851, -1206.52481395302, -4010.0147140043637, -3691.3905967939613, -2588.2873044356475, -3114.3579619357542, -1982.2421052744514, -7840.187292121326, -14445.977144953866, 0.0126640625, -0.10747656250000001, 0.9922109375, 192.0, 0.0, 0.0, 0.0, 0.0, 0.0, 0.0, 0.0, 0.0, 0.0, 1.645922964692035E9, 0.0, 2022-02-27 11:49:24.692
80.0, -303.00024783614253, -2854.474229153899, -2114.5197289609587, -9224.8778611276, 373.7435190371894, 449.49358099622503, -4576.787898157585, -1549.3335186640643, -3187.4705180490637, -4398.242163448592, -3465.9509022177344, -2606.5710314000885, -2831.407228876022, -1821.8906905520787, -8022.823396065641, -15036.30906776298, 0.0126640625, -0.10747656250000001, 0.9922109375, 192.0, 0.0, 0.0, 0.0, 0.0, 0.0, 0.0, 0.0, 0.0, 0.0, 1.645922964698719E9, 0.0, 2022-02-27 11:49:24.698
82.0, -820.6442976765989, -3252.804667091926, -2429.925194969797, -9637.33460156138, -78.02993989347695, 236.79438075952302, -4681.148193019413, -1608.923269381913, -2440.1846456747826, -4638.478712854232, -3847.070496925175, -2743.1178382775593, -3234.7891610609486, -2152.0483079014193, -8104.764891238796, -15118.60819084742, 0.0126640625, -0.10747656250000001, 0.9922109375, 192.0, 0.0, 0.0, 0.0, 0.0, 0.0, 0.0, 0.0, 0.0, 0.0, 1.645922964705988E9, 0.0, 2022-02-27 11:49:24.705
84.0, -209.8381769464227, -2780.087623606637, -1992.456852490527, -9105.072510847152, 492.654799539423, 579.5583819816568, -4428.148797529793, -1299.0386842535358, -1704.8793083285461, -3919.5572041937357, -3493.3541409199406, -2536.878292188441, -2893.656837184052, -1812.7711788143133, -7820.629515722932, -14446.357124609605, 0.0126640625, -0.10747656250000001, 0.9922109375, 192.0, 0.0, 0.0, 0.0, 0.0, 0.0, 0.0, 0.0, 0.0, 0.0, 1.645922964713992E9, 0.0, 2022-02-27 11:49:24.713
86.0, -766.3072069057473, -3215.2760881514655, -2434.0155642051177, -9615.541650717456, -36.187474273142136, 217.9965636726098, -4777.171287199412, -1749.6722042169815, -3754.0872399910977, -4860.856218440083, -3676.72785243128, -2766.4530594888997, -3032.461170251509, -2016.1049981242418, -8212.321485557733, -15476.414916087977, 0.008, -0.098, 0.986, 192.0, 0.0, 32.0, 126.0, 120.0, 15.0, 104.0, 0.0, 0.0, 0.0, 1.645922964722163E9, 0.0, 2022-02-27 11:49:24.722
88.0, -511.36320964851495, -3007.918954839582, -2193.890773521754, -9341.173987528562, 220.09762765140866, 451.1029065970071, -4496.679246029764, -1348.0784115884796, -1209.6093546878524, -4003.9350395125202, -3696.039759640665, -2607.5098046672115, -3107.563031621341, -1984.611390186714, -7849.93265270384, -14441.931479207455, 0.008, -0.098, 0.986, 192.0, 0.0, 0.0, 0.0, 0.0, 0.0, 0.0, 0.0, 0.0, 0.0, 1.645922964728576E9, 0.0, 2022-02-27 11:49:24.728
90.0, -320.99340212266475, -2883.4197382235216, -2124.198034310107, -9215.713645900923, 367.820306756533, 451.23701706373896, -4586.28738955109, -1522.667887528883, -3173.455974275586, -4396.588134358899, -3471.002396464634, -2594.7916620721417, -2834.2459004218463, -1828.104475510654, -8022.77869257673, -15016.751291364586, 0.008, -0.098, 0.986, 192.0, 0.0, 0.0, 0.0, 0.0, 0.0, 0.0, 0.0, 0.0, 0.0, 1.645922964736738E9, 0.0, 2022-02-27 11:49:24.736
92.0, -805.735684124909, -3243.26047220951, -2437.301270640048, -9624.504700244033, -74.92304741418927, 246.76325878658997, -4685.685597143841, -1602.150690811955, -2416.3576860854255, -4634.321288385545, -3850.8255899936667, -2731.450227671889, -3243.0816582538678, -2157.5915405263354, -8117.594792556142, -15099.318635382491, 0.008, -0.098, 0.986, 192.0, 0.0, 0.0, 0.0, 0.0, 0.0, 0.0, 0.0, 0.0, 0.0, 1.645922964743895E9, 0.0, 2022-02-27 11:49:24.743
94.0, -176.0423393299984, -2743.319003977657, -1996.480166492482, -9096.288275276218, 494.6441047959453, 589.5272600087238, -4430.0710475529495, -1310.0580942700024, -1720.5925846806272, -3922.261765272828, -3481.6641785698152, -2518.192233823804, -2887.532459203298, -1819.5661091287268, -7828.430274537835, -14452.950889223921, 0.008, -0.098, 0.986, 192.0, 0.0, 0.0, 0.0, 0.0, 0.0, 0.0, 0.0, 0.0, 0.0, 1.645922964751769E9, 0.0, 2022-02-27 11:49:24.751
96.0, -718.4744737713902, -3162.525971236941, -2430.461636836724, -9600.118947043295, -46.98336684505544, 214.64380200431373, -4778.534743611186, -1752.756744951814, -3754.310757435651, -4846.327584544133, -3660.120506300987, -2725.1246839910373, -3026.8732341376826, -2027.0797046517976, -8222.62563975163, -15485.936759225937, 0.008, -0.098, 0.986, 192.0, 0.0, 32.0, 126.0, 120.0, 15.0, 104.0, 0.0, 0.0, 0.0, 1.645922964758489E9, 0.0, 2022-02-27 11:49:24.758
98.0, -460.31182531259367, -2939.7014307619847, -2182.536087338458, -9346.739571897933, 215.35905782688354, 444.6432524494234, -4489.504336059611, -1373.5370485230744, -1199.1487382827686, -4001.2528301778834, -3683.8133554236124, -2585.918019523385, -3107.250107198967, -1984.7902041423565, -7850.782018993142, -14457.130665437064, 0.008, -0.098, 0.986, 192.0, 0.0, 0.0, 0.0, 0.0, 0.0, 0.0, 0.0, 0.0, 0.0, 1.645922964766343E9, 0.0, 2022-02-27 11:49:24.766
100.0, -251.97121524467653, -2788.9165626664835, -2100.639295654213, -9212.58440167718, 374.50347834866983, 448.28658679563847, -4594.043444877082, -1553.3344809215644, -3135.1003807902794, -4346.207302356637, -3447.7342304866593, -2615.9587640713175, -2822.935917727461, -1831.0325540342992, -8016.453148895878, -15022.629800156332, 0.008, -0.098, 0.986, 192.0, 0.0, 0.0, 0.0, 0.0, 0.0, 0.0, 0.0, 0.0, 0.0, 1.645922964774311E9, 0.0, 2022-02-27 11:49:24.774
102.0, -758.8640760021301, -3194.265448363477, -2431.579224059489, -9625.6222874668, -110.95405947614425, 244.37162212987212, -4702.516460718687, -1615.7181996963263, -2438.083581695984, -4622.854843479972, -3826.4398367929266, -2727.248099714291, -3230.676440081172, -2144.8510461868104, -8118.466510589899, -15125.648990350843, 0.008, -0.098, 0.986, 192.0, 0.0, 0.0, 0.0, 0.0, 0.0, 0.0, 0.0, 0.0, 0.0, 1.645922964781385E9, 0.0, 2022-02-27 11:49:24.781
104.0, -142.4029639247613, -2710.350180906079, -1996.6366287036692, -9088.532219950226, 473.27583709667175, 593.1929460993941, -4432.462684209667, -1308.426416924765, -1672.8939620130018, -3892.8021660807335, -3474.3998616218405, -2492.174803277827, -2895.0426453402815, -1810.2901351797743, -7825.032809380628, -14438.33284835015, 0.008, -0.098, 0.986, 192.0, 0.0, 0.0, 0.0, 0.0, 0.0, 0.0, 0.0, 0.0, 0.0, 1.645922964788837E9, 0.0, 2022-02-27 11:49:24.788
106.0, -667.8924760690303, -3100.2316594400004, -2420.470407065202, -9591.357063216814, -42.17774178716443, 229.55241555600352, -4786.961351270837, -1768.0676899036994, -3745.7723910537234, -4818.499662697275, -3644.1613607598974, -2725.415256668956, -3015.764417143395, -2008.6171637317138, -8217.216517593446, -15479.700622522907, 0.01, -0.094, 0.986, 192.0, 0.0, 40.0, 126.5, 8.0, 15.0, 104.0, 0.0, 0.0, 0.0, 1.64592296479704E9, 0.0, 2022-02-27 11:49:24.797
108.0, -446.69961293931163, -2946.786933754317, -2197.399997401237, -9351.746362655922, 185.25125804558493, 436.9989558457084, -4516.639353828354, -1387.6409992743731, -1198.679351649207, -3992.379187629126, -3681.466422255805, -2594.8810690499627, -3103.495014130475, -1971.3121022358064, -7858.180446407849, -14469.357069654116, 0.01, -0.094, 0.986, 192.0, 0.0, 0.0, 0.0, 0.0, 0.0, 0.0, 0.0, 0.0, 0.0, 1.645922964810623E9, 0.0, 2022-02-27 11:49:24.810
110.0, -234.29098538052864, -2804.8757082075726, -2106.182528279129, -9201.207363749429, 364.69106253279006, 462.0329096356523, -4596.792709445084, -1540.7280970487711, -3097.3482844052655, -4359.216017629626, -3445.901387441324, -2564.0580134460943, -2821.6171648045975, -1830.1608360005423, -8018.464805896856, -15001.663863857255, 0.01, -0.094, 0.986, 192.0, 0.0, 0.0, 0.0, 0.0, 0.0, 0.0, 0.0, 0.0, 0.0, 1.64592296481861E9, 0.0, 2022-02-27 11:49:24.818
112.0, -756.4724393454122, -3190.8679832062703, -2430.573395559001, -9628.14803459025, -100.85107098234546, 262.20831420520716, -4697.1520420494135, -1616.0981793520666, -2458.5130761281343, -4640.982108233226, -3832.3406973291276, -2715.804006553174, -3231.1905302036444, -2151.3330520788495, -8126.043751960248, -15130.700484597743, 0.01, -0.094, 0.986, 192.0, 0.0, 0.0, 0.0, 0.0, 0.0, 0.0, 0.0, 0.0, 0.0, 1.645922964826538E9, 0.0, 2022-02-27 11:49:24.826
114.0, -151.2989582179735, -2717.122759476037, -1995.4519862475381, -9093.494307219304, 484.98815119125265, 587.5156030077461, -4433.133236543326, -1302.9949430221252, -1662.4780490968287, -3889.404700923527, -3475.83037326698, -2506.0552365845724, -2881.0951568001697, -1815.1181119821206, -7822.305896557081, -14443.429046085961, 0.01, -0.094, 0.986, 192.0, 0.0, 0.0, 0.0, 0.0, 0.0, 0.0, 0.0, 0.0, 0.0, 1.645922964833806E9, 0.0, 2022-02-27 11:49:24.833
116.0, -705.0857788426613, -3164.1576485821784, -2414.1448633843497, -9581.812868334398, -33.5499684274159, 234.536854569537, -4786.335502426088, -1757.2270938428753, -3770.2251994878293, -4841.477255997331, -3643.6472706374257, -2719.1120647325597, -3008.88007985116, -2013.7804167008899, -8218.289401327302, -15480.237064389834, 0.012, -0.098, 0.988, 192.0, 0.0, 48.0, 126.0, 120.0, 15.0, 112.0, 0.0, 0.0, 0.0, 1.645922964841231E9, 0.0, 2022-02-27 11:49:24.841
118.0, -520.3486109195484, -3012.3893037306434, -2199.635171846768, -9350.47231322197, 188.46990924714916, 461.89879916892045, -4514.918269505295, -1382.3436358384654, -1212.0456948334809, -4016.228498962939, -3699.4148730534166, -2575.2115339292927, -3100.6339908401956, -1971.2226952579852, -7853.307766116592, -14469.66999407649, 0.012, -0.098, 0.988, 192.0, 0.0, 0.0, 0.0, 0.0, 0.0, 0.0, 0.0, 0.0, 0.0, 1.645922964849137E9, 0.0, 2022-02-27 11:49:24.849
120.0, -327.72127720371213, -2890.415834238033, -2109.825862625344, -9203.375482961594, 368.02147245663076, 466.30209282661593, -4588.835488418995, -1523.0478671846233, -3125.6679446301396, -4372.358843369347, -3473.5057918436282, -2605.5652028995996, -2828.0544672077262, -1823.365905686129, -8017.749550074286, -14993.885456786807, 0.012, -0.098, 0.988, 192.0, 0.0, 0.0, 0.0, 0.0, 0.0, 0.0, 0.0, 0.0, 0.0, 1.645922964857304E9, 0.0, 2022-02-27 11:49:24.857
122.0, -878.0659291822826, -3299.095129858867, -2442.4198201203135, -9634.183005593182, -99.26409712601867, 256.3298054134614, -4688.412509967388, -1624.9047666674576, -2516.4040942673796, -4673.101565015503, -3865.4436308674376, -2758.9875768408274, -3228.843597035837, -2151.176589867662, -8127.384856627567, -15143.32922021499, 0.012, -0.098, 0.988, 192.0, 0.0, 0.0, 0.0, 0.0, 0.0, 0.0, 0.0, 0.0, 0.0, 1.645922964863325E9, 0.0, 2022-02-27 11:49:24.863
124.0, -283.2636574821064, -2835.2740806667903, -2005.5773264857921, -9100.222182300351, 477.4779650542695, 589.907239664464, -4431.546262686999, -1306.5488703905191, -1684.8744970410464, -3921.077122816697, -3515.1470917638653, -2542.0191934131617, -2888.694749914974, -1810.401893902051, -7814.192213319804, -14434.66716225948, 0.012, -0.098, 0.988, 192.0, 0.0, 0.0, 0.0, 0.0, 0.0, 0.0, 0.0, 0.0, 0.0, 1.645922964870871E9, 0.0, 2022-02-27 11:49:24.870
126.0, -801.3323904672135, -3247.395544933742, -2417.3635145859143, -9576.671967109676, -26.486817179538868, 241.39884011731627, -4785.642598347974, -1754.723698463881, -3817.499139010804, -4873.619064524062, -3676.526686731182, -2751.969129081861, -3006.667257150085, -2016.5296812688925, -8214.91428791455, -15477.823075988661, 0.002, -0.10400000000000001, 0.986, 192.0, 0.0, 8.0, 126.0, 96.0, 15.0, 104.0, 0.0, 0.0, 0.0, 1.645922964878845E9, 0.0, 2022-02-27 11:49:24.878
128.0, -610.9625829413633, -3079.46688884102, -2218.4329889336814, -9371.95233964352, 179.73037716512408, 450.3429472855267, -4522.987249253661, -1399.8227000025154, -1263.0300239360363, -4064.8882466421423, -3737.8151700276344, -2609.968496557295, -3115.073217758324, -1988.3441315107505, -7863.2319406547485, -14493.25108447684, 0.002, -0.10400000000000001, 0.986, 192.0, 0.0, 0.0, 0.0, 0.0, 0.0, 0.0, 0.0, 0.0, 0.0, 1.645922964887268E9, 0.0, 2022-02-27 11:49:24.887
130.0, -359.01371944114203, -2886.437223724988, -2110.675228914646, -9195.217096235407, 384.07002497554123, 468.9843021612528, -4593.171726843325, -1528.4569893428074, -3105.596078109274, -4366.122706666316, -3489.9119722738237, -2620.764389129208, -2830.3119933977123, -1820.5942893736708, -8009.144128458993, -14976.16052343375, 0.002, -0.10400000000000001, 0.986, 192.0, 0.0, 0.0, 0.0, 0.0, 0.0, 0.0, 0.0, 0.0, 0.0, 1.645922964893493E9, 0.0, 2022-02-27 11:49:24.893
132.0, -868.3429203442241, -3274.619969680306, -2445.0573259660396, -9633.490101515068, -104.71792277311359, 259.39199440383845, -4704.975152608771, -1636.1700458729324, -2541.7956759686085, -4668.742974846718, -3871.7915262927445, -2755.523056450255, -3235.1244372277783, -2153.5682265243804, -8128.971830483893, -15145.318525471512, 0.002, -0.10400000000000001, 0.986, 192.0, 0.0, 0.0, 0.0, 0.0, 0.0, 0.0, 0.0, 0.0, 0.0, 1.645922964901507E9, 0.0, 2022-02-27 11:49:24.901
134.0, -222.7798369860455, -2780.020568373271, -2003.1856898290744, -9105.296028291707, 463.8210491920769, 575.0209778572295, -4450.142914073815, -1329.8170363684937, -1655.0572699376667, -3909.320105233205, -3511.9731440512114, -2531.916204919363, -2898.149537819569, -1814.9392980264781, -7819.914259900363, -14431.403807569004, 0.002, -0.10400000000000001, 0.986, 192.0, 0.0, 0.0, 0.0, 0.0, 0.0, 0.0, 0.0, 0.0, 0.0, 1.645922964909495E9, 0.0, 2022-02-27 11:49:24.909
136.0, -705.0187236092954, -3158.457953746075, -2409.406293559825, -9579.331824699859, -29.571357914371244, 216.7672177275679, -4811.369456216033, -1784.9209052230008, -3771.298083221684, -4844.67355545444, -3640.5403781581376, -2723.5600618791655, -2997.860669834694, -2019.2342423479847, -8219.429340294522, -15486.026166203757, 0.014, -0.10400000000000001, 0.986, 192.0, 0.0, 56.0, 126.0, 96.0, 15.0, 104.0, 0.0, 0.0, 0.0, 1.645922964916124E9, 0.0, 2022-02-27 11:49:24.916
138.0, -504.23300316727205, -2975.2854079348335, -2208.5535178844357, -9369.09131635324, 174.0753858179314, 433.35562149949334, -4540.1310372508815, -1417.547633355574, -1207.3518284978663, -4039.3625544741817, -3702.879393443989, -2590.544830625633, -3115.3861421806982, -1995.228468802985, -7871.166809936382, -14500.135421769075, 0.014, -0.10400000000000001, 0.986, 192.0, 0.0, 0.0, 0.0, 0.0, 0.0, 0.0, 0.0, 0.0, 0.0, 1.645922964924183E9, 0.0, 2022-02-27 11:49:24.924
140.0, -231.80994174598953, -2773.225638058858, -2089.4410716821044, -9184.711776341412, 368.2226381567286, 464.1786771033618, -4614.3388288425, -1541.4210011268856, -3023.9675073584926, -4314.467825230101, -3445.4543525522176, -2578.3407781530354, -2822.6900485384526, -1813.9111177815341, -8008.473576125333, -14979.848561268875, 0.014, -0.10400000000000001, 0.986, 192.0, 0.0, 0.0, 0.0, 0.0, 0.0, 0.0, 0.0, 0.0, 0.0, 1.645922964939097E9, 0.0, 2022-02-27 11:49:24.939
142.0, -775.3596634101467, -3188.096366893812, -2447.3372039004807, -9637.28989807247, -127.78492305099047, 228.30071786650635, -4742.883711204971, -1664.243836908798, -2544.3437748365136, -4657.678861341341, -3830.396095561516, -2724.7894078242075, -3235.0797337388676, -2164.4982295630252, -8149.647194105053, -15179.539046232589, 0.014, -0.10400000000000001, 0.986, 192.0, 0.0, 0.0, 0.0, 0.0, 0.0, 0.0, 0.0, 0.0, 0.0, 1.645922964945658E9, 0.0, 2022-02-27 11:49:24.945
144.0, -143.16292323624174, -2691.753529519264, -2000.4364252610715, -9103.7984614132, 460.64710147942327, 574.0598528456513, -4467.845495682418, -1357.6002547264404, -1593.6793796633935, -3878.8546775406217, -3483.362911148419, -2502.4342539828126, -2910.0630176142477, -1828.752676099858, -7827.245632081704, -14436.52235704927, 0.014, -0.10400000000000001, 0.986, 192.0, 0.0, 0.0, 0.0, 0.0, 0.0, 0.0, 0.0, 0.0, 0.0, 1.645922964953779E9, 0.0, 2022-02-27 11:49:24.953
146.0, -634.9460047419077, -3086.2841708998885, -2402.656066734322, -9568.5582838724, -39.85316036381249, 213.88384269283327, -4813.671685894929, -1780.0035214428333, -3752.433210901405, -4814.252831250767, -3622.994258760722, -2705.2539831702693, -3006.2202222609785, -2015.5909080017698, -8218.691732727497, -15488.417802860477, 0.01, -0.1, 0.988, 192.0, 0.0, 40.0, 126.0, 112.0, 15.0, 112.0, 0.0, 0.0, 0.0, 1.645922964962214E9, 0.0, 2022-02-27 11:49:24.962
148.0, -456.5343804996468, -2928.860834701161, -2214.7449510985557, -9377.227351334972, 144.8840075593004, 410.71330436626727, -4561.298139250057, -1418.8216827895264, -1225.9931833735923, -4041.7318393864443, -3699.280762586685, -2576.3514728965133, -3141.0012413264803, -2014.8756521792, -7881.090984474538, -14521.34722725716, 0.01, -0.1, 0.988, 192.0, 0.0, 0.0, 0.0, 0.0, 0.0, 0.0, 0.0, 0.0, 0.0, 1.645922964968789E9, 0.0, 2022-02-27 11:49:24.968
150.0, -189.07340634744244, -2734.668878873453, -2088.7928710929004, -9186.25404670883, 365.33926312199395, 461.0494328796188, -4606.381607816411, -1539.3199371480869, -2987.243591218423, -4299.08982504485, -3438.9052914268127, -2565.2426559022256, -2836.570481845198, -1824.6623068645367, -8004.1149859565485, -14968.717392530132, 0.01, -0.1, 0.988, 192.0, 0.0, 0.0, 0.0, 0.0, 0.0, 0.0, 0.0, 0.0, 0.0, 1.645922964976427E9, 0.0, 2022-02-27 11:49:24.976
152.0, -733.4501425564459, -3143.8622646167596, -2443.000965476151, -9640.106217873838, -143.96758603663278, 229.19478764471862, -4741.632013515475, -1666.3225491431415, -2542.935614935829, -4651.3980211494, -3828.1832728604404, -2717.6592013429645, -3243.6404518652503, -2159.960825438598, -8142.740505068363, -15184.724650946218, 0.01, -0.1, 0.988, 192.0, 0.0, 0.0, 0.0, 0.0, 0.0, 0.0, 0.0, 0.0, 0.0, 1.645922964984432E9, 0.0, 2022-02-27 11:49:24.984
154.0, -109.88117574228951, -2660.9975291487613, -2004.191518329563, -9104.871345147056, 445.9620053722865, 551.9986810682632, -4477.948484176217, -1365.0433856300576, -1575.5521149101396, -3870.6292355810688, -3478.6466930683487, -2496.8463178689863, -2918.2437560848903, -1827.4562749214501, -7823.915222157863, -14436.879984960555, 0.011, -0.10200000000000001, 0.99, 192.0, 0.0, 48.0, 126.0, 96.0, 15.5, 0.0, 0.0, 0.0, 0.0, 1.64592296499132E9, 0.0, 2022-02-27 11:49:24.991
156.0, -594.8916786779974, -3046.4533622805316, -2399.638581232856, -9558.097667467317, -34.824017861368404, 216.1637206272746, -4812.218822505334, -1785.4796988343835, -3760.144562738486, -4807.837880592094, -3617.607488346993, -2692.3123231306463, -3014.244498520434, -2022.6987627385574, -8224.637296752608, -15488.77543077176, 0.011, -0.10200000000000001, 0.99, 192.0, 0.0, 0.0, 0.0, 0.0, 0.0, 0.0, 0.0, 0.0, 0.0, 1.645922964998531E9, 0.0, 2022-02-27 11:49:24.998
158.0, -420.5480719266024, -2892.7180639169296, -2211.0345615189744, -9374.679252467067, 148.32617620541768, 412.5684991560578, -4541.785066340574, -1423.09086598049, -1203.6637906627407, -4022.0846560102295, -3696.5762015075925, -2562.6275018009546, -3136.9555755800698, -2006.4713962640044, -7873.9831297377505, -14517.97211384441, 0.011, -0.10200000000000001, 0.99, 192.0, 0.0, 0.0, 0.0, 0.0, 0.0, 0.0, 0.0, 0.0, 0.0, 1.645922965006001E9, 0.0, 2022-02-27 11:49:25.006
160.0, -132.07645798640942, -2682.3657968480347, -2072.6549115961684, -9169.758459300812, 389.38974015590435, 472.27000859618295, -4589.729558197208, -1550.2946436756426, -2950.8773029896383, -4280.604932380311, -3424.1754918307656, -2549.2164551277706, -2829.440275363955, -1809.5972311016599, -7996.873020753029, -14958.614404036332, 0.011, -0.10200000000000001, 0.99, 192.0, 0.0, 0.0, 0.0, 0.0, 0.0, 0.0, 0.0, 0.0, 0.0, 1.645922965013329E9, 0.0, 2022-02-27 11:49:25.013
162.0, -693.70874091491, -3108.0547699993576, -2430.7969130035535, -9634.250060826547, -122.1299317037978, 240.08008719445317, -4738.882748947472, -1673.2292381798313, -2551.295167362114, -4645.474808868744, -3804.6021824600916, -2694.413387109445, -3226.228442934566, -2147.019165398975, -8143.209891701925, -15199.610912753453, 0.011, -0.10200000000000001, 0.99, 192.0, 0.0, 0.0, 0.0, 0.0, 0.0, 0.0, 0.0, 0.0, 0.0, 1.645922965021423E9, 0.0, 2022-02-27 11:49:25.021
164.0, -79.14752711624232, -2635.136560813971, -1996.3684077702055, -9104.446662002405, 447.83955190653234, 561.6322829285006, -4464.559789247488, -1332.5663009364964, -1528.9487277208243, -3860.3697848760826, -3467.4931725851507, -2484.3740444629248, -2912.6111164821527, -1825.042286520277, -7813.5440127306, -14427.805176711701, 0.0125, -0.10500000000000001, 0.992, 192.0, 0.0, 56.0, 126.0, 80.0, 15.5, 8.0, 0.0, 0.0, 0.0, 1.64592296502929E9, 0.0, 2022-02-27 11:49:25.029
166.0, -557.58661718209, -3016.2785072658667, -2391.0331596175624, -9554.36492614328, -34.33227948335165, 213.88384269283327, -4826.970973845837, -1789.1230331805984, -3741.7937805406787, -4796.505546153253, -3596.3286276255403, -2681.024692180716, -2996.899544823116, -2002.0457508618535, -8218.132939116114, -15485.892055737026, 0.0125, -0.10500000000000001, 0.992, 192.0, 0.0, 0.0, 0.0, 0.0, 0.0, 0.0, 0.0, 0.0, 0.0, 1.645922965036317E9, 0.0, 2022-02-27 11:49:25.036
168.0, -394.10595823597413, -2867.3935374490666, -2208.0394277619635, -9372.868761166186, 150.2707779730294, 408.8357578320215, -4559.554703182543, -1432.344488184987, -1192.2420492460788, -4022.4422839215144, -3686.0038263802326, -2554.3126528635803, -3135.323898234832, -1998.7153409380128, -7879.101679218016, -14524.856451136644, 0.0125, -0.10500000000000001, 0.992, 192.0, 0.0, 0.0, 0.0, 0.0, 0.0, 0.0, 0.0, 0.0, 0.0, 1.645922965044174E9, 0.0, 2022-02-27 11:49:25.044
170.0, -113.94919323315541, -2664.4620495393337, -2071.2243999510288, -9165.981014487865, 382.21483018575077, 468.82783995006565, -4605.331075827012, -1534.1790359233662, -2934.4487708149877, -4270.747813075521, -3416.911174882791, -2542.0862486465276, -2832.6589265655193, -1812.5700131142157, -8008.92061101444, -14959.240252881082, 0.0125, -0.10500000000000001, 0.992, 192.0, 0.0, 0.0, 0.0, 0.0, 0.0, 0.0, 0.0, 0.0, 0.0, 1.645922965058984E9, 0.0, 2022-02-27 11:49:25.058
172.0, -682.5105169428011, -3097.3482844052655, -2433.9038054828416, -9638.094560872862, -132.79171380897927, 217.23660436112934, -4739.776818725684, -1696.1621279909764, -2579.5030688647116, -4659.802277064595, -3806.390322016516, -2702.839994769096, -3230.743495314538, -2149.0755258888635, -8157.693822108963, -15211.703206503775, 0.0125, -0.10500000000000001, 0.992, 192.0, 0.0, 0.0, 0.0, 0.0, 0.0, 0.0, 0.0, 0.0, 0.0, 1.645922965065978E9, 0.0, 2022-02-27 11:49:25.065
174.0, -72.97844564657755, -2624.810054875619, -2000.0564456053312, -9107.41944401496, 440.37406925845977, 566.1920387973832, -4467.241998582125, -1347.966652866203, -1523.3831433514529, -3860.839171509644, -3467.5825795629717, -2482.0941665284836, -2912.9463926489825, -1818.426170161506, -7828.385571048924, -14435.829452971157, 0.01425, -0.10550000000000001, 0.991, 192.0, 0.0, 64.0, 126.0, 88.0, 15.0, 120.0, 0.0, 0.0, 0.0, 1.645922965073714E9, 0.0, 2022-02-27 11:49:25.073
176.0, -550.6575764009448, -3007.248402505923, -2387.3898252713475, -9552.085048208839, -15.713276352080864, 216.00725841608747, -4818.522014441731, -1797.9072687515343, -3752.1873417123966, -4795.320903697122, -3598.2955811376073, -2683.326921859613, -3000.5205274248756, -1999.6541142051358, -8225.084331641714, -15482.941625468926, 0.01425, -0.10550000000000001, 0.991, 192.0, 0.0, 0.0, 0.0, 0.0, 0.0, 0.0, 0.0, 0.0, 0.0, 1.645922965081735E9, 0.0, 2022-02-27 11:49:25.081
178.0, -406.6229351309461, -2884.827898124206, -2213.6273638757903, -9376.825019934777, 144.54873139247078, 412.81436834506616, -4552.2233310012025, -1414.2172234317331, -1210.1234448103244, -4043.5870341762347, -3698.3196375751068, -2566.717871036276, -3143.7058024055723, -1998.2012508155408, -7884.42139439838, -14525.191727303474, 0.01425, -0.10550000000000001, 0.991, 192.0, 0.0, 0.0, 0.0, 0.0, 0.0, 0.0, 0.0, 0.0, 0.0, 1.645922965088774E9, 0.0, 2022-02-27 11:49:25.088
180.0, -111.89283274326715, -2671.7263664873085, -2064.451821381071, -9164.639909820546, 385.90286802087644, 482.0824244120627, -4581.884095893395, -1513.2354513687435, -2936.996869682893, -4285.924647560674, -3427.1706255877766, -2559.6994232773095, -2833.865920766106, -1799.2930769077632, -8001.544535344188, -14942.990534662073, 0.01425, -0.10550000000000001, 0.991, 192.0, 0.0, 0.0, 0.0, 0.0, 0.0, 0.0, 0.0, 0.0, 0.0, 1.645922965096354E9, 0.0, 2022-02-27 11:49:25.096
182.0, -686.8914588560414, -3103.115034474735, -2436.1613316728276, -9634.607688737833, -128.14255096227538, 237.17436041526324, -4739.553301281131, -1675.7326335588257, -2625.23473802027, -4678.287169729134, -3801.4058830029826, -2710.7301605618195, -3224.172082444678, -2147.287386332439, -8155.793923830262, -15216.464128072756, 0.01425, -0.10550000000000001, 0.991, 192.0, 0.0, 0.0, 0.0, 0.0, 0.0, 0.0, 0.0, 0.0, 0.0, 1.645922965104223E9, 0.0, 2022-02-27 11:49:25.104
184.0, -74.76658520300212, -2622.9548600858284, -1999.6988176940463, -9100.892734634012, 449.6723949518675, 575.5127162352462, -4451.484018741134, -1311.9356408042481, -1503.1324628749446, -3857.6875755414458, -3471.583541820472, -2481.8035938505645, -2916.9026514175716, -1813.329972425696, -7820.584812234022, -14411.264885814773, 0.013125000000000001, -0.10475000000000001, 0.9884999999999999, 192.0, 0.0, 48.0, 126.0, 96.0, 15.0, 104.0, 0.0, 0.0, 0.0, 1.645922965111319E9, 0.0, 2022-02-27 11:49:25.111
186.0, -534.4749134153025, -2987.8917918076268, -2375.3869384988475, -9534.561280555878, -8.761883826480368, 237.3531743709057, -4797.399615931466, -1773.9685504399004, -3755.7859725697012, -4783.13920296898, -3585.3986245868955, -2670.586427520088, -2988.5623441412863, -1973.3461109812392, -8220.569279261743, -15466.58014852764, 0.013125000000000001, -0.10475000000000001, 0.9884999999999999, 192.0, 0.0, 0.0, 0.0, 0.0, 0.0, 0.0, 0.0, 0.0, 0.0, 1.645922965118335E9, 0.0, 2022-02-27 11:49:25.118
188.0, -400.16328098336237, -2868.444069438466, -2212.9121080532204, -9380.088374625251, 147.90149306076682, 413.48492067872536, -4537.404124427334, -1421.548595613074, -1221.8804623938158, -4039.4966649409134, -3686.562619991615, -2556.681937775843, -3137.0226308134356, -1989.3052565223286, -7888.042377000139, -14533.059541351742, 0.013125000000000001, -0.10475000000000001, 0.9884999999999999, 192.0, 0.0, 0.0, 0.0, 0.0, 0.0, 0.0, 0.0, 0.0, 0.0, 1.645922965126051E9, 0.0, 2022-02-27 11:49:25.126
190.0, -100.82871923789016, -2657.644767480465, -2060.942597501588, -9158.67199405098, 403.6725048628455, 480.718968000289, -4562.035746817082, -1510.3297245895535, -2899.602401209164, -4262.544722860423, -3408.8868986233356, -2542.622690513455, -2826.9815834738715, -1806.5350421112828, -7998.5941050760875, -14931.85936592333, 0.013125000000000001, -0.10475000000000001, 0.9884999999999999, 192.0, 0.0, 0.0, 0.0, 0.0, 0.0, 0.0, 0.0, 0.0, 0.0, 1.645922965133897E9, 0.0, 2022-02-27 11:49:25.133
192.0, -683.7175111433877, -3101.438653640587, -2439.357631129936, -9640.486197529579, -134.2669289430295, 223.763313742079, -4734.79237971215, -1683.3769301625407, -2651.587444733077, -4695.632123426452, -3797.8966591234994, -2708.0479512271827, -3230.654088336717, -2147.6897177326346, -8164.645214634564, -15229.830471257028, 0.013125000000000001, -0.10475000000000001, 0.9884999999999999, 192.0, 0.0, 0.0, 0.0, 0.0, 0.0, 0.0, 0.0, 0.0, 0.0, 1.645922965142003E9, 0.0, 2022-02-27 11:49:25.142
194.0, -73.738404958058, -2624.9888688312612, -1997.5754019707922, -9105.340731780618, 441.4022495034039, 569.7683179102323, -4470.058318383493, -1363.769336196105, -1498.9079831728916, -3867.030604723764, -3464.16276266131, -2479.590771149489, -2920.277764830323, -1817.7332660833915, -7825.345733803003, -14421.122005119563, 0.013562500000000002, -0.105375, 0.99125, 192.0, 0.0, 56.0, 126.0, 88.0, 15.5, 8.0, 0.0, 0.0, 0.0, 1.645922965148544E9, 0.0, 2022-02-27 11:49:25.148
196.0, -534.0055267817411, -2994.4632046774873, -2380.885467634853, -9539.277498635949, -16.562642641382535, 228.30071786650635, -4788.034235004692, -1773.5215155507942, -3756.7694493257345, -4795.499717652764, -3580.771813484647, -2672.0392909096827, -2979.1522597256017, -1982.3985674856388, -8216.43420653751, -15476.414916087977, 0.013562500000000002, -0.105375, 0.99125, 192.0, 0.0, 0.0, 0.0, 0.0, 0.0, 0.0, 0.0, 0.0, 0.0, 1.645922965156594E9, 0.0, 2022-02-27 11:49:25.156
198.0, -420.97275507125323, -2890.8405173826836, -2225.3620297148263, -9384.201095605027, 133.39521090927255, 406.26530721966117, -4545.316641964512, -1424.2308049477108, -1255.519837799053, -4065.067060597785, -3699.9960184092547, -2566.717871036276, -3156.9603868675695, -2008.7289224539904, -7901.408720184412, -14538.289849554283, 0.013562500000000002, -0.105375, 0.99125, 192.0, 0.0, 0.0, 0.0, 0.0, 0.0, 0.0, 0.0, 0.0, 0.0, 1.645922965164616E9, 0.0, 2022-02-27 11:49:25.164
200.0, -110.03763795347668, -2664.19382860587, -2061.5684463463363, -9154.894549238034, 402.5325658956249, 484.8316889800655, -4584.163973827836, -1517.7058002598048, -2904.1398053335915, -4278.794441079431, -3425.9412796427346, -2549.8870074614297, -2834.603528333131, -1810.0219142463106, -7995.174288174426, -14926.360836787324, 0.013562500000000002, -0.105375, 0.99125, 192.0, 0.0, 0.0, 0.0, 0.0, 0.0, 0.0, 0.0, 0.0, 0.0, 1.645922965171603E9, 0.0, 2022-02-27 11:49:25.171
202.0, -689.70777865741, -3109.887613044693, -2448.9018260123526, -9641.983764408084, -127.06966722842066, 220.34349684041703, -4759.580464313086, -1682.2593429397755, -2680.667064269431, -4700.124824061969, -3802.6575806924798, -2711.311305917657, -3233.939794771647, -2153.5905782688355, -8174.211761261436, -15233.518509092155, 0.013562500000000002, -0.105375, 0.99125, 192.0, 0.0, 0.0, 0.0, 0.0, 0.0, 0.0, 0.0, 0.0, 0.0, 1.645922965186201E9, 0.0, 2022-02-27 11:49:25.186
204.0, -89.04934990994333, -2634.6671741804093, -2005.286753807873, -9112.94032489542, 432.39449648791515, 571.8470301445759, -4432.820312120952, -1311.1533297483122, -1501.9031169299028, -3870.897456514532, -3474.288102899564, -2487.0562537975616, -2930.0007736683815, -1821.041324262777, -7822.417655279358, -14405.766356678769, 0.013781250000000002, -0.1046875, 0.993625, 192.0, 0.0, 56.0, 126.0, 96.0, 15.5, 16.0, 0.0, 0.0, 0.0, 1.645922965194206E9, 0.0, 2022-02-27 11:49:25.194
206.0, -529.0657912571181, -2993.3903209436326, -2374.984607098652, -9532.862547977275, -2.503395378994391, 226.64668877681362, -4776.970121499315, -1777.3213121081965, -3765.710147107857, -4794.76211008574, -3583.1858018858197, -2678.0519101681602, -2989.277599963856, -1970.0827562907646, -8212.165023346546, -15459.91932867996, 0.013781250000000002, -0.1046875, 0.993625, 192.0, 0.0, 0.0, 0.0, 0.0, 0.0, 0.0, 0.0, 0.0, 0.0, 1.645922965201234E9, 0.0, 2022-02-27 11:49:25.201
208.0, -413.5743276565466, -2882.592723678675, -2219.885852323276, -9387.777374717876, 140.2571964570518, 413.39551370090413, -4549.317604222012, -1431.2716044511324, -1255.6986517546954, -4073.873647913176, -3693.5140125172156, -2569.0871559485386, -3152.6912036766057, -2004.6385532186691, -7898.547696894133, -14542.760198445345, 0.013781250000000002, -0.1046875, 0.993625, 192.0, 0.0, 0.0, 0.0, 0.0, 0.0, 0.0, 0.0, 0.0, 0.0, 1.645922965208766E9, 0.0, 2022-02-27 11:49:25.208
210.0, -90.8598412108232, -2645.2395493077697, -2047.2409781504846, -9142.24346187633, 419.4081329593817, 502.73543628876644, -4561.4769532057, -1483.2394103097213, -2853.1107727421254, -4243.8810162402415, -3407.165814300277, -2535.8277601990417, -2825.1263886840807, -1789.9053442365343, -7986.859439237051, -14899.829316118876, 0.013781250000000002, -0.1046875, 0.993625, 192.0, 0.0, 0.0, 0.0, 0.0, 0.0, 0.0, 0.0, 0.0, 0.0, 1.645922965216884E9, 0.0, 2022-02-27 11:49:25.216
212.0, -686.1762030334716, -3099.337589661788, -2447.471314367213, -9640.352087062847, -125.3262311609067, 208.65353449029143, -4725.762274952206, -1678.8395260381135, -2713.322962918635, -4706.78564390965, -3792.8898683655107, -2705.969238992839, -3232.5092831265074, -2143.219368841573, -8168.6461768920635, -15241.274564418145, 0.013781250000000002, -0.1046875, 0.993625, 192.0, 0.0, 0.0, 0.0, 0.0, 0.0, 0.0, 0.0, 0.0, 0.0, 1.645922965223885E9, 0.0, 2022-02-27 11:49:25.223
214.0, -86.74712023104671, -2636.0529823366383, -2005.5326229968814, -9115.913106907978, 450.7452786857222, 558.7936113826765, -4446.611338449877, -1337.6401469278512, -1479.5290207301405, -3866.4047558790157, -3472.7905360210584, -2483.457622940257, -2937.3544975941777, -1810.9830392578888, -7823.35642854648, -14403.508830488781, 0.013890625, -0.10334375000000001, 0.9918125, 192.0, 0.0, 56.0, 126.0, 104.0, 15.0, 120.0, 0.0, 0.0, 0.0, 1.645922965231389E9, 0.0, 2022-02-27 11:49:25.231
216.0, -520.2368521972719, -2992.697416865518, -2367.8991041063196, -9530.157986898183, 5.342066924818388, 225.61850853186948, -4779.85349653405, -1763.977320668378, -3763.430269173416, -4789.844726305571, -3572.591075014004, -2678.163668890437, -2976.604160857697, -1979.8504686177337, -8207.202936077469, -15461.327488580644, 0.013890625, -0.10334375000000001, 0.9918125, 192.0, 0.0, 0.0, 0.0, 0.0, 0.0, 0.0, 0.0, 0.0, 0.0, 1.64592296523843E9, 0.0, 2022-02-27 11:49:25.238
218.0, -416.27888873563876, -2892.025159838815, -2226.6807826376894, -9394.885229454665, 131.74118181957982, 402.979600784731, -4546.635394887376, -1441.799276089582, -1276.3963671203098, -4097.85706971372, -3700.8677364430114, -2575.815031029586, -3157.72034617905, -2026.2079866180406, -7902.302789962625, -14555.07600964022, 0.013890625, -0.10334375000000001, 0.9918125, 192.0, 0.0, 0.0, 0.0, 0.0, 0.0, 0.0, 0.0, 0.0, 0.0, 1.6459229652465E9, 0.0, 2022-02-27 11:49:25.246
220.0, -86.07656789738749, -2646.0218603637054, -2045.385783360694, -9140.209453130896, 425.3760487289487, 500.299096143138, -4552.178627512291, -1492.604791236495, -2831.9883742318602, -4250.832408765842, -3410.160948057288, -2541.0580684015836, -2825.1710921729914, -1804.5680885992158, -7981.830296734607, -14894.308435238414, 0.013890625, -0.10334375000000001, 0.9918125, 192.0, 0.0, 0.0, 0.0, 0.0, 0.0, 0.0, 0.0, 0.0, 0.0, 1.645922965253557E9, 0.0, 2022-02-27 11:49:25.253
222.0, -683.6728076544771, -3105.2160984535335, -2448.588901589978, -9645.4259330542, -126.77909455050165, 213.28034559254, -4739.419190814399, -1683.9580755183788, -2756.1042018060925, -4726.701048219329, -3796.7343684118237, -2719.4026374104783, -3225.423780134175, -2144.247549086517, -8175.955197328949, -15255.043239002614, 0.013890625, -0.10334375000000001, 0.9918125, 192.0, 0.0, 0.0, 0.0, 0.0, 0.0, 0.0, 0.0, 0.0, 0.0, 1.645922965261342E9, 0.0, 2022-02-27 11:49:25.261
224.0, -92.29035285596287, -2643.6749271958984, -2012.1487393556524, -9114.102615607097, 434.9649471002754, 553.1833235243945, -4441.001050591594, -1330.8452166134377, -1466.8555816239814, -3871.232732681362, -3481.6194750809045, -2489.6490561543774, -2935.3428405932, -1826.5622051432379, -7820.0930738560055, -14394.165801306464, 0.014, -0.1, 0.99, 192.0, 0.0, 56.0, 126.0, 112.0, 15.0, 120.0, 0.0, 0.0, 0.0, 1.645922965268973E9, 0.0, 2022-02-27 11:49:25.268
226.0, -507.4293026243809, -2975.464221890476, -2365.0604325604954, -9515.74111172451, 5.47617739155023, 231.9440522127214, -4791.319941439622, -1783.266876133308, -3773.3767954560276, -4776.768955799217, -3574.245104103697, -2667.904218185451, -2975.754794568395, -1960.5609131528038, -8212.992037891394, -15448.698752963395, 0.014, -0.1, 0.99, 192.0, 0.0, 0.0, 0.0, 0.0, 0.0, 0.0, 0.0, 0.0, 0.0, 1.645922965277152E9, 0.0, 2022-02-27 11:49:25.277
228.0, -416.23418524672815, -2887.755976647851, -2229.765323372522, -9391.957150931019, 133.14934172026418, 403.5160426516584, -4552.6927176347635, -1443.0509737790792, -1282.364282889877, -4086.3235695747817, -3697.2914573301623, -2571.009405971695, -3155.5969304557957, -2013.5345475118813, -7909.701217377332, -14564.799018478278, 0.014, -0.1, 0.99, 192.0, 0.0, 0.0, 0.0, 0.0, 0.0, 0.0, 0.0, 0.0, 0.0, 1.645922965283758E9, 0.0, 2022-02-27 11:49:25.283
230.0, -78.8122509494127, -2637.036459092672, -2041.384821103194, -9132.453397804904, 433.78030464414417, 500.16498567640616, -4555.531389180588, -1489.0061603791905, -2814.5540135567207, -4235.74498125851, -3404.997695088112, -2540.387516067924, -2823.919394483494, -1788.072501191199, -7982.992587446283, -14886.194752001138, 0.014, -0.1, 0.99, 192.0, 0.0, 0.0, 0.0, 0.0, 0.0, 0.0, 0.0, 0.0, 0.0, 1.645922965291692E9, 0.0, 2022-02-27 11:49:25.291
232.0, -680.2976942417257, -3101.438653640587, -2448.588901589978, -9643.727200475598, -123.69455381566928, 210.01699090206517, -4741.341440837556, -1691.043578510711, -2770.3422630241234, -4728.399780797932, -3791.772281142745, -2709.0761314721267, -3215.8572335073036, -2134.0328018704417, -8173.138877527581, -15265.25798621869, 0.014, -0.1, 0.99, 192.0, 0.0, 0.0, 0.0, 0.0, 0.0, 0.0, 0.0, 0.0, 0.0, 1.645922965306847E9, 0.0, 2022-02-27 11:49:25.306
234.0, -78.96871316059985, -2625.1453310424486, -2004.616201474214, -9112.537993495225, 443.8385896490324, 557.877189860009, -4442.386858747824, -1322.3739054648765, -1432.769171329638, -3858.2910726417394, -3472.1646871763096, -2477.534410659601, -2924.3681340656444, -1823.5670713862266, -7811.219431307249, -14393.539952461715, 0.018000000000000002, -0.10400000000000001, 0.99, 192.0, 0.0, 72.0, 126.0, 96.0, 15.0, 120.0, 0.0, 0.0, 0.0, 1.645922965313425E9, 0.0, 2022-02-27 11:49:25.313
236.0, -483.91526745739793, -2951.369041367655, -2352.3199382209705, -9496.652721959677, 28.476122436061196, 254.58636934594745, -4783.362720413533, -1767.3300823366742, -3753.3496324240728, -4756.674737533896, -3550.373441025429, -2654.604930234543, -2962.4778583619427, -1957.744593351435, -8202.330255786212, -15445.72597095084, 0.018000000000000002, -0.10400000000000001, 0.99, 192.0, 0.0, 0.0, 0.0, 0.0, 0.0, 0.0, 0.0, 0.0, 0.0, 1.645922965321334E9, 0.0, 2022-02-27 11:49:25.321
238.0, -413.44021718981475, -2877.675339898508, -2230.8382071063766, -9394.460546310014, 131.20473995265246, 386.88634477690994, -4557.744211881663, -1456.640834407906, -1299.0163325090805, -4088.4022818091253, -3687.657855469925, -2556.167847653371, -3165.275235804944, -2011.0758556217977, -7914.640952901955, -14579.484114585413, 0.018000000000000002, -0.10400000000000001, 0.99, 192.0, 0.0, 0.0, 0.0, 0.0, 0.0, 0.0, 0.0, 0.0, 0.0, 1.645922965329456E9, 0.0, 2022-02-27 11:49:25.329
240.0, -52.41484074769506, -2613.0977407810383, -2022.3411348272725, -9117.99181914232, 444.6432524494234, 507.0269712241854, -4549.384659455378, -1498.7515209617045, -2751.7232598928526, -4201.54681224189, -3382.9588750551793, -2507.6422104408994, -2815.515138568299, -1779.7353005093696, -7969.156857628448, -14868.156894225705, 0.018000000000000002, -0.10400000000000001, 0.99, 192.0, 0.0, 0.0, 0.0, 0.0, 0.0, 0.0, 0.0, 0.0, 0.0, 1.645922965336002E9, 0.0, 2022-02-27 11:49:25.336
242.0, -670.1723540034717, -3087.424109867109, -2445.303195155048, -9640.5756045074, -129.7295248186022, 201.21040358667418, -4753.187865398868, -1710.266078742275, -2784.446213775422, -4717.335667292556, -3768.1017837645754, -2689.741872518286, -3209.039951448435, -2128.0425343564193, -8178.033909563293, -15275.472733434766, 0.018000000000000002, -0.10400000000000001, 0.99, 192.0, 0.0, 0.0, 0.0, 0.0, 0.0, 0.0, 0.0, 0.0, 0.0, 1.645922965344139E9, 0.0, 2022-02-27 11:49:25.344
244.0, -80.77920446147972, -2627.2463950212473, -2011.0088003884318, -9118.170633097963, 430.1369702979291, 554.3903177249811, -4460.268254312069, -1346.8937691323483, -1416.9441362552807, -3850.6020725491135, -3469.5718848194942, -2474.427518180313, -2935.409895826566, -1822.0024492743553, -7817.7461406881985, -14391.7965163942, 0.018000000000000002, -0.108, 0.988, 192.0, 0.0, 72.0, 126.0, 80.0, 15.0, 112.0, 0.0, 0.0, 0.0, 1.645922965352139E9, 0.0, 2022-02-27 11:49:25.352
246.0, -482.685921512356, -2953.850085002194, -2357.2596737455933, -9507.113338364761, 18.753113598002624, 242.13644768434142, -4797.980761287304, -1784.1162424226097, -3751.0026992562653, -4753.456086332332, -3552.4968567486835, -2657.1753808469034, -2965.4506403744986, -1948.5580263803038, -8204.05134010927, -15440.115683092557, 0.018000000000000002, -0.108, 0.988, 192.0, 0.0, 0.0, 0.0, 0.0, 0.0, 0.0, 0.0, 0.0, 0.0, 1.645922965359112E9, 0.0, 2022-02-27 11:49:25.359
248.0, -413.44021718981475, -2882.6150754231307, -2239.6447944217675, -9407.536316816368, 110.1046931868426, 381.723091807734, -4575.491496979177, -1469.1131078139674, -1300.6703615987733, -4105.81429073981, -3697.1573468634306, -2570.0259292156616, -3168.0915556063123, -2024.2633848504288, -7918.083121548072, -14580.26642564135, 0.018000000000000002, -0.108, 0.988, 192.0, 0.0, 0.0, 0.0, 0.0, 0.0, 0.0, 0.0, 0.0, 0.0, 1.645922965365591E9, 0.0, 2022-02-27 11:49:25.365
250.0, -43.51884645448285, -2605.140519754949, -2028.286698852384, -9123.020961644765, 443.2127408042837, 504.81414852311, -4558.906502593339, -1495.2870005711318, -2743.095486533104, -4203.513765753957, -3389.5079361805842, -2518.751027435187, -2823.7405805278518, -1786.9549139684336, -7973.068412908127, -14861.607833100301, 0.018000000000000002, -0.108, 0.988, 192.0, 0.0, 0.0, 0.0, 0.0, 0.0, 0.0, 0.0, 0.0, 0.0, 1.64592296537361E9, 0.0, 2022-02-27 11:49:25.373
252.0, -654.8837607960417, -3078.4387085960757, -2441.011660219629, -9646.543520276968, -124.56627184942626, 205.54664201100374, -4759.669871290907, -1714.5129101887835, -2819.404342103522, -4728.757408709217, -3766.9618447973544, -2703.0411604691935, -3206.3800938582535, -2127.863720400777, -8181.990168331882, -15289.397870230421, 0.018000000000000002, -0.108, 0.988, 192.0, 0.0, 0.0, 0.0, 0.0, 0.0, 0.0, 0.0, 0.0, 0.0, 1.645922965381665E9, 0.0, 2022-02-27 11:49:25.381
254.0, -60.97555887407767, -2608.13565351196, -1993.9544193690324, -9117.656542975492, 442.36337451498207, 561.7216899063218, -4460.581178734444, -1346.7820104100717, -1375.772222968605, -3829.166749616474, -3458.0160329361, -2469.264265211137, -2928.0785236452252, -1817.5768038722044, -7811.912335385363, -14387.594388436602, 0.018000000000000002, -0.108, 0.99, 192.0, 0.0, 72.0, 126.0, 80.0, 15.0, 120.0, 0.0, 0.0, 0.0, 1.645922965388707E9, 0.0, 2022-02-27 11:49:25.388
0.0, -448.26423505118316, -2924.4798927879206, -2327.2636326865713, -9491.243599801493, 51.34195701384032, 254.51931411258153, -4802.607572389552, -1782.104585421632, -3720.425512841405, -4738.569824525097, -3523.283126745597, -2637.61760444851, -2942.450695329988, -1937.8291890417563, -8194.037758593293, -15435.108892334569, 0.018000000000000002, -0.108, 0.99, 192.0, 0.0, 0.0, 0.0, 0.0, 0.0, 0.0, 0.0, 0.0, 0.0, 1.645922965396318E9, 0.0, 2022-02-27 11:49:25.396
2.0, -415.0048393016862, -2874.3225782302115, -2235.666183908723, -9411.023188951396, 110.37291412030628, 381.3207604075385, -4577.011415602138, -1480.4677939972632, -1308.5381756470413, -4100.807499981821, -3687.657855469925, -2552.725679007254, -3168.560942239874, -2013.2439748339625, -7919.401874470935, -14597.991358994408, 0.018000000000000002, -0.108, 0.99, 192.0, 0.0, 0.0, 0.0, 0.0, 0.0, 0.0, 0.0, 0.0, 0.0, 1.645922965404214E9, 0.0, 2022-02-27 11:49:25.404
4.0, -42.22244527607504, -2603.3747319429795, -2018.5636900143256, -9113.499118506805, 440.28466228063854, 512.1902241933614, -4560.694642149763, -1506.5969832655173, -2705.2092796813586, -4180.6032276872675, -3385.685787878727, -2506.144643562394, -2825.8192927621953, -1777.723643508392, -7962.071354636116, -14850.856644017298, 0.018000000000000002, -0.108, 0.99, 192.0, 0.0, 0.0, 0.0, 0.0, 0.0, 0.0, 0.0, 0.0, 0.0, 1.645922965412324E9, 0.0, 2022-02-27 11:49:25.412
6.0, -658.3035776977036, -3077.8128597513273, -2442.620985820411, -9643.928366175696, -131.47296088611614, 201.47862452013786, -4767.090650450069, -1732.3943057530291, -2831.161359687014, -4729.3162023206005, -3769.398184942983, -2701.9235732464285, -3206.9612392140916, -2122.253432542495, -8184.739432899885, -15294.494067966232, 0.018000000000000002, -0.108, 0.99, 192.0, 0.0, 0.0, 0.0, 0.0, 0.0, 0.0, 0.0, 0.0, 0.0, 1.645922965418982E9, 0.0, 2022-02-27 11:49:25.418
8.0, -79.92983817217805, -2622.9548600858284, -2002.4927857509597, -9126.306668079695, 436.19429304531735, 550.5905211675789, -4445.605509949388, -1371.5700950110072, -1369.8713624324039, -3837.23572936484, -3467.1355446738658, -2474.271055969126, -2932.012430669359, -1819.5437573842714, -7811.711169685265, -14384.509847701771, 0.014, -0.11, 0.99, 192.0, 0.0, 56.0, 126.0, 72.0, 15.0, 120.0, 0.0, 0.0, 0.0, 1.645922965434012E9, 0.0, 2022-02-27 11:49:25.434
10.0, -474.61694176399016, -2951.1902274120125, -2335.3549641793925, -9498.418509771647, 44.859951121801274, 249.57957858795865, -4780.524048867708, -1766.9277509364786, -3737.9269287499105, -4752.450257831843, -3540.672783931826, -2663.4338692943898, -2949.335032622222, -1941.7630960658905, -8190.997921347371, -15423.485985217809, 0.014, -0.11, 0.99, 192.0, 0.0, 0.0, 0.0, 0.0, 0.0, 0.0, 0.0, 0.0, 0.0, 1.645922965441074E9, 0.0, 2022-02-27 11:49:25.441
12.0, -432.10392380999616, -2893.5227267173204, -2238.2589862655386, -9418.91335474412, 109.79176876446829, 382.88538251941, -4576.072642335015, -1468.9119421138696, -1324.8102456105048, -4121.035828713873, -3706.120396390009, -2584.9568945118067, -3176.205238843589, -2031.7512192429567, -7919.223060515293, -14592.582236836224, 0.014, -0.11, 0.99, 192.0, 0.0, 0.0, 0.0, 0.0, 0.0, 0.0, 0.0, 0.0, 0.0, 1.645922965448696E9, 0.0, 2022-02-27 11:49:25.448
14.0, -47.89978836772303, -2606.5933831445436, -2013.7580649564345, -9119.735255209835, 441.044621592119, 514.6265643389899, -4555.598444413954, -1490.4366720243302, -2694.5922010650875, -4181.407890487658, -3395.520555439062, -2514.548899477589, -2826.3780863735783, -1778.327140608685, -7963.457162792345, -14834.919850220664, 0.014, -0.11, 0.99, 192.0, 0.0, 0.0, 0.0, 0.0, 0.0, 0.0, 0.0, 0.0, 0.0, 1.645922965456511E9, 0.0, 2022-02-27 11:49:25.456
16.0, -663.7350516003432, -3076.5388103173746, -2434.6861165387772, -9651.505607546045, -123.67220207121397, 196.4718337621491, -4762.84381900356, -1737.5575587222052, -2859.2798542117903, -4709.400798010922, -3768.4594116758603, -2703.4658436138448, -3206.6930182806277, -2131.8423309138216, -8183.353624743656, -15307.323969283578, 0.014, -0.11, 0.99, 192.0, 0.0, 0.0, 0.0, 0.0, 0.0, 0.0, 0.0, 0.0, 0.0, 1.64592296546459E9, 0.0, 2022-02-27 11:49:25.464
18.0, -83.2378963515635, -2621.837272863063, -1998.7376926824682, -9121.769263955268, 433.2215110327615, 564.940341107886, -4447.483056483634, -1338.1765887947786, -1361.2212373282, -3814.258136064784, -3466.375585362385, -2473.3769861909136, -2933.2194248699457, -1827.0762952657099, -7806.078530082528, -14382.632301167525, 0.012, -0.11, 0.988, 192.0, 0.0, 48.0, 126.0, 72.0, 15.0, 112.0, 0.0, 0.0, 0.0, 1.645922965471172E9, 0.0, 2022-02-27 11:49:25.471
20.0, -457.74137470023334, -2930.783084724317, -2322.79328379551, -9486.147402065684, 55.678195438169894, 260.37547115987195, -4777.238342432778, -1768.9841114263668, -3728.338030378584, -4755.51244682222, -3532.22382452772, -2652.8167906781187, -2945.15525640908, -1917.9808399654437, -8189.90268586906, -15420.312037505155, 0.012, -0.11, 0.988, 192.0, 0.0, 0.0, 0.0, 0.0, 0.0, 0.0, 0.0, 0.0, 0.0, 1.645922965479158E9, 0.0, 2022-02-27 11:49:25.479
22.0, -431.4557232207922, -2892.919229617027, -2233.766285630022, -9417.39343612116, 108.02598095249904, 385.3664261539491, -4564.628549173898, -1476.4891834842185, -1322.8879955873485, -4124.634459571178, -3693.11168111702, -2588.3990631579236, -3169.790288184916, -2031.348887842761, -7925.369790240502, -14597.700786316489, 0.012, -0.11, 0.988, 192.0, 0.0, 0.0, 0.0, 0.0, 0.0, 0.0, 0.0, 0.0, 0.0, 1.645922965486171E9, 0.0, 2022-02-27 11:49:25.486
24.0, -37.41682021818402, -2608.426226189879, -2011.0535038773423, -9109.699321949402, 456.5790839885574, 517.5099393737245, -4534.4983976481435, -1500.4949570292183, -2670.7428897312748, -4190.25918129196, -3380.120203509355, -2510.4361784978128, -2822.3994758605336, -1783.6021523001377, -7964.172418614915, -14833.51169031998, 0.012, -0.11, 0.988, 192.0, 0.0, 0.0, 0.0, 0.0, 0.0, 0.0, 0.0, 0.0, 0.0, 1.645922965494241E9, 0.0, 2022-02-27 11:49:25.494
26.0, -671.4464034374241, -3074.9294847165925, -2436.1613316728276, -9643.973069664606, -124.45451312714972, 210.0840461354311, -4749.589234541564, -1728.4156952399846, -2888.8512121261615, -4750.170379897401, -3762.178571483919, -2702.6164773245428, -3199.5628117993847, -2115.3020400168944, -8190.550886458264, -15309.961475129305, 0.012, -0.11, 0.988, 192.0, 0.0, 0.0, 0.0, 0.0, 0.0, 0.0, 0.0, 0.0, 0.0, 1.645922965500852E9, 0.0, 2022-02-27 11:49:25.500
28.0, -97.27479186949634, -2632.7225724127975, -2005.5549747413368, -9130.799368715212, 427.45476096329224, 544.48849493128, -4448.2653675395695, -1348.2795772885772, -1339.0706585729909, -3806.010342360776, -3478.490230857162, -2476.7744513481202, -2941.601329040686, -1823.3882574305842, -7805.765605660154, -14381.335899989117, 0.01, -0.11, 0.988, 192.0, 0.0, 40.0, 126.0, 72.0, 15.0, 112.0, 0.0, 0.0, 0.0, 1.645922965508833E9, 0.0, 2022-02-27 11:49:25.508
30.0, -458.2554648227054, -2939.3438028507, -2321.496882617102, -9480.738279907499, 61.10966934080951, 257.00035774712063, -4780.479345378798, -1784.138594167065, -3739.558606095148, -4736.22289135729, -3531.6873826607925, -2648.3687935315124, -2947.278672132334, -1945.875817045667, -8193.322502770723, -15422.748377650783, 0.01, -0.11, 0.988, 192.0, 0.0, 0.0, 0.0, 0.0, 0.0, 0.0, 0.0, 0.0, 0.0, 1.645922965516863E9, 0.0, 2022-02-27 11:49:25.516
32.0, -456.82495317756576, -2927.542081778298, -2247.7808294034994, -9433.86667178472, 99.55466980393766, 371.3518823804715, -4579.112479580936, -1478.4561369962857, -1348.1007633329348, -4171.573122927323, -3714.278783116196, -2588.8013945581192, -3177.0769568773458, -2041.2060071475516, -7926.956764096829, -14622.8017953398, 0.01, -0.11, 0.988, 192.0, 0.0, 0.0, 0.0, 0.0, 0.0, 0.0, 0.0, 0.0, 0.0, 1.64592296552387E9, 0.0, 2022-02-27 11:49:25.523
34.0, -42.11068655379851, -2612.3824849584685, -2007.96896314251, -9113.342656295617, 458.3448718005266, 520.9074045309311, -4549.429362944289, -1479.2607997966768, -2656.4154215354233, -4197.188222073105, -3395.6099624168833, -2533.391420053413, -2836.034039978271, -1788.944219224956, -7960.104401124049, -14820.905306447186, 0.01, -0.11, 0.988, 192.0, 0.0, 0.0, 0.0, 0.0, 0.0, 0.0, 0.0, 0.0, 0.0, 1.645922965531505E9, 0.0, 2022-02-27 11:49:25.531
36.0, -668.2948074692258, -3086.3288743887992, -2425.141921656361, -9648.19754936666, -118.30778340194028, 218.53300553953716, -4763.737888781773, -1749.4710385168837, -2910.6218112256306, -4742.771952482695, -3760.211617971852, -2707.779730293719, -3195.9865326865356, -2125.6508976997015, -8189.90268586906, -15317.896344410938, 0.011, -0.108, 0.986, 192.0, 0.0, 48.0, 126.0, 88.0, 15.0, 96.0, 0.0, 0.0, 0.0, 1.645922965539364E9, 0.0, 2022-02-27 11:49:25.539
38.0, -91.82096622240141, -2645.9995086192503, -1995.0943583362532, -9129.078284392153, 443.0562785930966, 559.5982741830676, -4437.1789022897365, -1329.2358910126557, -1320.5857659084518, -3848.2774911257616, -3472.5223150875945, -2478.719053115732, -2926.7374189779066, -1812.7041235809475, -7794.053291565573, -14374.004527807776, 0.011, -0.108, 0.986, 192.0, 0.0, 0.0, 0.0, 0.0, 0.0, 0.0, 0.0, 0.0, 0.0, 1.645922965553569E9, 0.0, 2022-02-27 11:49:25.553
40.0, -426.51598769616936, -2919.5848607522084, -2300.8215189959433, -9461.739297120488, 86.21067836411935, 275.7534713451232, -4744.425981572388, -1743.3243087916744, -3712.535347048682, -4738.346307080545, -3512.1072545179436, -2650.71572669932, -2922.669401487041, -1919.8807382441448, -8177.765688629829, -15403.503525674765, 0.011, -0.108, 0.986, 192.0, 0.0, 0.0, 0.0, 0.0, 0.0, 0.0, 0.0, 0.0, 0.0, 1.645922965561063E9, 0.0, 2022-02-27 11:49:25.561
42.0, -446.2749297946608, -2920.2330613414124, -2235.576776930902, -9427.071741470307, 111.33403913188448, 376.5374870941028, -4551.798647856552, -1464.0392618226126, -1337.6177951833959, -4164.957006568552, -3703.9746289222994, -2575.770327540675, -3164.1129450932676, -2013.06516087832, -7917.054941303128, -14617.325617948249, 0.011, -0.108, 0.986, 192.0, 0.0, 0.0, 0.0, 0.0, 0.0, 0.0, 0.0, 0.0, 0.0, 1.645922965569166E9, 0.0, 2022-02-27 11:49:25.569
44.0, -41.19426503113092, -2616.3834472159683, -2000.9952188724542, -9107.240630059317, 463.99986314771934, 515.073599228096, -4522.070827730993, -1475.282189283632, -2608.649743634432, -4183.486602722001, -3384.9258285672463, -2523.35548679298, -2822.086551438159, -1779.0200446867998, -7949.777895185697, -14808.20951559657, 0.011, -0.108, 0.986, 192.0, 0.0, 0.0, 0.0, 0.0, 0.0, 0.0, 0.0, 0.0, 0.0, 1.645922965577196E9, 0.0, 2022-02-27 11:49:25.577
46.0, -691.0265315802732, -3114.0003340244693, -2438.329450884992, -9656.24417737057, -132.27762368650718, 192.85085116038934, -4757.166475911913, -1741.8267419131687, -2957.247550159401, -4794.3597786855435, -3762.5361993952038, -2719.15676822147, -3196.522974553463, -2124.9356418771317, -8195.937656871994, -15338.527004543186, 0.0125, -0.10500000000000001, 0.985, 192.0, 0.0, 56.0, 126.0, 104.0, 15.0, 96.0, 0.0, 0.0, 0.0, 1.645922965583726E9, 0.0, 2022-02-27 11:49:25.583
48.0, -114.50798684453808, -2661.846895438063, -2011.6346492331804, -9143.741028754834, 424.19140627281746, 549.7635066227325, -4441.895120369807, -1333.8850538593597, -1305.1183587453793, -3868.4387646244486, -3488.9731990067007, -2486.7433293751874, -2951.950186723493, -1808.8372717901793, -7806.25734403817, -14375.233873752819, 0.0125, -0.10500000000000001, 0.985, 192.0, 0.0, 0.0, 0.0, 0.0, 0.0, 0.0, 0.0, 0.0, 0.0, 1.645922965591715E9, 0.0, 2022-02-27 11:49:25.591
50.0, -441.2234355477614, -2937.7568289943733, -2302.542603319002, -9460.420544197625, 100.24757388205218, 270.5008113981261, -4733.875958189483, -1749.627500728071, -3719.0397046851763, -4747.108190907024, -3520.131530777399, -2655.901331412951, -2934.538177792809, -1924.7534185354018, -8178.324482241212, -15398.76495585024, 0.0125, -0.10500000000000001, 0.985, 192.0, 0.0, 0.0, 0.0, 0.0, 0.0, 0.0, 0.0, 0.0, 0.0, 1.645922965599633E9, 0.0, 2022-02-27 11:49:25.599
52.0, -488.13974715945096, -2948.1727419105464, -2259.917826642731, -9445.713096346033, 91.50804180002712, 362.4111845983487, -4585.616837217431, -1499.891459928925, -1398.123967423912, -4203.02202737594, -3724.6052890545475, -2601.7877580866525, -3179.848573189804, -2040.0660681803308, -7931.3824094989795, -14649.266260774883, 0.0125, -0.10500000000000001, 0.985, 192.0, 0.0, 0.0, 0.0, 0.0, 0.0, 0.0, 0.0, 0.0, 0.0, 1.645922965605818E9, 0.0, 2022-02-27 11:49:25.605
54.0, -75.99593114804401, -2644.0549068516384, -2004.772663685401, -9109.207583571386, 462.25642708020536, 513.1066457160289, -4516.527595106077, -1483.641741709917, -2569.265969904181, -4182.480774221513, -3400.683808408238, -2534.3078415760806, -2823.4053043610224, -1780.7634807543136, -7941.977136370795, -14786.125992074729, 0.0125, -0.10500000000000001, 0.985, 192.0, 0.0, 0.0, 0.0, 0.0, 0.0, 0.0, 0.0, 0.0, 0.0, 1.64592296561339E9, 0.0, 2022-02-27 11:49:25.613
56.0, -750.3704131091134, -3170.7961166854047, -2457.7754685611094, -9659.999270439062, -141.4641906576384, 182.36788301085033, -4745.543568795153, -1719.698514902415, -2985.2989894508114, -4821.628906921018, -3780.7975746151897, -2740.63679464302, -3205.307210124399, -2138.480799017048, -8204.297209298278, -15332.536737029164, 0.013250000000000001, -0.10450000000000001, 0.9864999999999999, 192.0, 0.0, 56.0, 126.0, 96.0, 15.0, 112.0, 0.0, 0.0, 0.0, 1.645922965621285E9, 0.0, 2022-02-27 11:49:25.621
58.0, -211.7157234806685, -2749.9127685919725, -2016.9543644135433, -9145.126836911064, 414.13312126792925, 538.6323378839896, -4441.716306414164, -1333.6838881592619, -1346.4467342432422, -3898.971247550398, -3513.8506905854574, -2513.4313122548238, -2961.4943816059094, -1843.303661740263, -7809.475995239734, -14365.220292236841, 0.013250000000000001, -0.10450000000000001, 0.9864999999999999, 192.0, 0.0, 0.0, 0.0, 0.0, 0.0, 0.0, 0.0, 0.0, 0.0, 1.645922965629441E9, 0.0, 2022-02-27 11:49:25.629
60.0, -577.4349662584027, -3067.218132879512, -2307.9964289660966, -9465.896721589175, 98.63824828127007, 263.3259014279725, -4725.5611092521085, -1754.1425531080429, -3754.109591735553, -4780.971083756815, -3557.9730341402337, -2686.3444073610794, -2933.6441080145964, -1927.681497059047, -8177.922150841016, -15394.719290103829, 0.013250000000000001, -0.10450000000000001, 0.9864999999999999, 192.0, 0.0, 0.0, 0.0, 0.0, 0.0, 0.0, 0.0, 0.0, 0.0, 1.645922965636315E9, 0.0, 2022-02-27 11:49:25.636
62.0, -692.322932758681, -3129.780665609916, -2278.1344983738063, -9462.231035498506, 88.87053595430088, 351.10120190396333, -4564.002700329149, -1477.9420468738135, -1467.7720031466488, -4264.086993227839, -3775.7684321127454, -2651.2745203107024, -3190.5774105283513, -2051.420754363627, -7941.463046248323, -14656.821150400776, 0.013250000000000001, -0.10450000000000001, 0.9864999999999999, 192.0, 0.0, 0.0, 0.0, 0.0, 0.0, 0.0, 0.0, 0.0, 0.0, 1.645922965644033E9, 0.0, 2022-02-27 11:49:25.644
64.0, -323.4520940127485, -2860.75506934584, -2024.3304400837947, -9117.544784253214, 469.54309577263547, 510.35738114802615, -4484.877524957362, -1435.4290289198195, -2644.546645229655, -4239.991812705018, -3474.3328063884746, -2590.7012928368204, -2839.2079876909243, -1789.7041785364365, -7939.1384648249705, -14774.950119847075, 0.013250000000000001, -0.10450000000000001, 0.9864999999999999, 192.0, 0.0, 0.0, 0.0, 0.0, 0.0, 0.0, 0.0, 0.0, 0.0, 1.645922965651908E9, 0.0, 2022-02-27 11:49:25.651
66.0, -985.8460409457733, -3381.416604687763, -2481.356558961458, -9676.271340402525, -144.41462092573894, 169.56033343795937, -4745.5212170506975, -1721.5984131811158, -3120.7282091055167, -4886.49366933032, -3854.692441784435, -2796.583211014654, -3217.555966085907, -2137.474970516559, -8210.175718090024, -15345.836024980072, 0.013625000000000002, -0.10425000000000001, 0.98625, 192.0, 0.0, 56.0, 126.0, 96.0, 15.0, 104.0, 0.0, 0.0, 0.0, 1.645922965659178E9, 0.0, 2022-02-27 11:49:25.659
68.0, -431.65688892088997, -2942.0707156742474, -2053.9688532315317, -9169.020851733787, 405.59475488600197, 522.4496748983473, -4429.646364408299, -1337.3719259943875, -1417.346467655476, -3955.834085444699, -3597.2674008926633, -2569.6012460710103, -2983.5779051277527, -1857.0276328358214, -7818.707265699776, -14369.26595798325, 0.013625000000000002, -0.10425000000000001, 0.98625, 192.0, 0.0, 0.0, 0.0, 0.0, 0.0, 0.0, 0.0, 0.0, 0.0, 1.645922965666716E9, 0.0, 2022-02-27 11:49:25.666
70.0, -738.5686920367112, -3195.807718730893, -2333.3880106673255, -9474.524494948924, 100.53814655997117, 261.3589479159055, -4722.230699328268, -1728.2145295398868, -3825.0540286366977, -4804.932153812904, -3619.5520901146047, -2726.1305124915257, -2940.8413697292053, -1926.7427237919242, -8175.754031628851, -15383.543417876175, 0.013625000000000002, -0.10425000000000001, 0.98625, 192.0, 0.0, 0.0, 0.0, 0.0, 0.0, 0.0, 0.0, 0.0, 0.0, 1.64592296568155E9, 0.0, 2022-02-27 11:49:25.681
72.0, -778.220686700426, -3211.811567760893, -2295.814728237954, -9470.568236180334, 92.60327727833716, 346.854370457455, -4553.385621712879, -1469.5154392141628, -1551.4569343873186, -4303.2248977690815, -3835.2240723638624, -2693.8769452425176, -3211.5656985718847, -2063.4012893916715, -7944.882863149985, -14648.863929374687, 0.013625000000000002, -0.10425000000000001, 0.98625, 192.0, 0.0, 0.0, 0.0, 0.0, 0.0, 0.0, 0.0, 0.0, 0.0, 1.645922965688282E9, 0.0, 2022-02-27 11:49:25.688
74.0, -308.65523918333525, -2851.8143715637175, -2028.3090505968394, -9115.935458652433, 481.83655522305435, 518.1804917073837, -4484.519897046077, -1438.513569654652, -2672.5310292876998, -4249.938338987629, -3497.1315857328877, -2606.101644766527, -2843.834798793173, -1798.0637309627214, -7936.702124679342, -14768.512817443947, 0.013625000000000002, -0.10425000000000001, 0.98625, 192.0, 0.0, 0.0, 0.0, 0.0, 0.0, 0.0, 0.0, 0.0, 0.0, 1.645922965696294E9, 0.0, 2022-02-27 11:49:25.696
76.0, -936.2028165105363, -3337.450723344174, -2485.1787072633156, -9670.549293821967, -128.94721376266645, 180.46798473214923, -4741.453199559832, -1717.6645061569818, -3144.5328169504187, -4889.377044365054, -3855.5418080737363, -2797.0525976482154, -3209.5987450598177, -2133.4516565146037, -8207.96289538895, -15345.523100557699, 0.014812500000000001, -0.10412500000000001, 0.9881249999999999, 192.0, 0.0, 64.0, 126.0, 96.0, 15.0, 120.0, 0.0, 0.0, 0.0, 1.645922965704193E9, 0.0, 2022-02-27 11:49:25.704
78.0, -352.7328792492008, -2872.4003282070553, -2051.867789252733, -9162.695308052935, 427.43240921883694, 537.6265093835008, -4419.118692769849, -1322.6868298872507, -1401.7449500256719, -3934.0858380896857, -3584.728072253236, -2555.36318485298, -2977.0958992357137, -1829.8702633226233, -7814.371027275447, -14358.537120644703, 0.014812500000000001, -0.10412500000000001, 0.9881249999999999, 192.0, 0.0, 0.0, 0.0, 0.0, 0.0, 0.0, 0.0, 0.0, 0.0, 1.64592296571226E9, 0.0, 2022-02-27 11:49:25.712
80.0, -618.9421557119078, -3092.0285692249026, -2317.250051170594, -9461.180503509106, 107.84716699685657, 271.8866195543551, -4724.93526040736, -1731.567291208183, -3792.107557309575, -4780.2781796787, -3594.026397946644, -2705.7233698038303, -2926.9385846780046, -1917.3102876317846, -8176.581046173698, -15376.033231739191, 0.014812500000000001, -0.10412500000000001, 0.9881249999999999, 192.0, 0.0, 0.0, 0.0, 0.0, 0.0, 0.0, 0.0, 0.0, 0.0, 1.645922965718835E9, 0.0, 2022-02-27 11:49:25.718
82.0, -657.6330253640444, -3109.105301988757, -2283.49891704308, -9466.835494856297, 85.24955335254114, 340.61823375442435, -4555.821961858507, -1479.8419451525147, -1500.3384948180312, -4272.468897398579, -3787.2572287627736, -2659.142334358971, -3189.4151198166755, -2059.1097544562526, -7954.248244076758, -14661.224444058473, 0.014812500000000001, -0.10412500000000001, 0.9881249999999999, 192.0, 0.0, 0.0, 0.0, 0.0, 0.0, 0.0, 0.0, 0.0, 0.0, 1.645922965726993E9, 0.0, 2022-02-27 11:49:25.726
84.0, -193.61081047186977, -2755.1430767945144, -2009.1089021097307, -9112.627400473048, 491.3136948721045, 515.8559102840317, -4482.821164467474, -1441.8886830674032, -2582.5652578550885, -4199.35634128527, -3452.3386898444523, -2573.6692635618765, -2825.886347995561, -1783.5350970667719, -7938.3114502801245, -14759.795637106376, 0.014812500000000001, -0.10412500000000001, 0.9881249999999999, 192.0, 0.0, 0.0, 0.0, 0.0, 0.0, 0.0, 0.0, 0.0, 0.0, 1.645922965733888E9, 0.0, 2022-02-27 11:49:25.733
86.0, -839.7773909303417, -3256.649167138239, -2471.8570675679525, -9673.34326187888, -129.4166003962279, 153.44472568568298, -4753.009051443226, -1738.4739802448728, -3125.533834163408, -4861.526770773741, -3815.6886477099238, -2771.7504229248075, -3193.1255093962563, -2139.1066478617963, -8212.790872191295, -15361.482246098787, 0.01540625, -0.1040625, 0.9880625, 192.0, 0.0, 64.0, 126.0, 96.0, 15.0, 112.0, 0.0, 0.0, 0.0, 1.645922965740879E9, 0.0, 2022-02-27 11:49:25.740
88.0, -268.8691340528887, -2797.5219842817764, -2045.9892804609872, -9171.881875024066, 402.8231385735439, 509.41860788090327, -4429.802826619485, -1339.1824172952674, -1336.0755248159796, -3921.367695494616, -3554.374403282929, -2541.259234101681, -2973.2961026783114, -1866.7282899294246, -7817.030884865629, -14364.952071303376, 0.01540625, -0.1040625, 0.9880625, 192.0, 0.0, 0.0, 0.0, 0.0, 0.0, 0.0, 0.0, 0.0, 0.0, 1.645922965748689E9, 0.0, 2022-02-27 11:49:25.748
90.0, -528.5740528791014, -3016.077341565769, -2304.21898415315, -9452.932709805096, 116.60905082333694, 251.14420069983015, -4731.059638388114, -1746.0065181263112, -3734.9094432484444, -4745.70003100634, -3548.3841357689066, -2678.811869479641, -2918.981363651915, -1931.5707005942704, -8177.944502585471, -15373.395725893466, 0.01540625, -0.1040625, 0.9880625, 192.0, 0.0, 0.0, 0.0, 0.0, 0.0, 0.0, 0.0, 0.0, 0.0, 1.645922965756508E9, 0.0, 2022-02-27 11:49:25.756
92.0, -586.0627396181512, -3039.3231557992885, -2288.371597334337, -9469.87533210222, 79.50515502752722, 325.6872684582792, -4572.876342877906, -1502.7077797302939, -1504.4512157978077, -4274.614664866289, -3768.4594116758603, -2642.4232295064007, -3197.528803053952, -2075.1806587196184, -7958.0927441230715, -14684.224389102983, 0.01540625, -0.1040625, 0.9880625, 192.0, 0.0, 0.0, 0.0, 0.0, 0.0, 0.0, 0.0, 0.0, 0.0, 1.645922965764625E9, 0.0, 2022-02-27 11:49:25.764
94.0, -123.35927764883968, -2688.5572300621548, -2008.7289224539904, -9100.8480311451, 487.6256570369789, 504.3224101450933, -4496.120452418381, -1449.935311071314, -2532.1173706194604, -4177.384576485703, -3431.059829123, -2553.038603429628, -2833.6871068104633, -1795.7615012838248, -7939.76431366972, -14754.25240448146, 0.01540625, -0.1040625, 0.9880625, 192.0, 0.0, 0.0, 0.0, 0.0, 0.0, 0.0, 0.0, 0.0, 0.0, 1.645922965771261E9, 0.0, 2022-02-27 11:49:25.771
96.0, -766.5977795836664, -3184.654198247695, -2469.666596611333, -9668.291767631981, -137.84320805587865, 156.73043212061313, -4756.920606722904, -1757.2941490762412, -3117.1966334815784, -4855.804724193183, -3787.458394462871, -2747.096448790604, -3191.940866940125, -2129.4283425126487, -8225.10668338617, -15374.625071838507, 0.017703125, -0.10603125, 0.98703125, 192.0, 0.0, 80.0, 126.0, 80.0, 15.0, 104.0, 0.0, 0.0, 0.0, 1.645922965779163E9, 0.0, 2022-02-27 11:49:25.779
98.0, -193.20847907167425, -2720.9225560334394, -2037.741486756979, -9165.891607510044, 389.99323725619763, 506.490529357258, -4443.504445970589, -1342.0881440744572, -1302.1455767328237, -3889.9187910459987, -3531.955603594256, -2512.492538987701, -2977.7440998249176, -1856.5805979467152, -7824.988105891718, -14367.254300982273, 0.017703125, -0.10603125, 0.98703125, 192.0, 0.0, 0.0, 0.0, 0.0, 0.0, 0.0, 0.0, 0.0, 0.0, 1.64592296578714E9, 0.0, 2022-02-27 11:49:25.787
100.0, -424.75019988420013, -2917.081465373214, -2276.949855917675, -9424.791863535866, 133.77519056501276, 274.85940156691095, -4727.304545319623, -1725.3311545051522, -3695.9056491739334, -4701.465928729288, -3515.5270714196054, -2652.414459277923, -2912.7452269488845, -1905.2850491148292, -8175.3964037175665, -15369.171246191412, 0.017703125, -0.10603125, 0.98703125, 192.0, 0.0, 0.0, 0.0, 0.0, 0.0, 0.0, 0.0, 0.0, 0.0, 1.645922965800871E9, 0.0, 2022-02-27 11:49:25.800
102.0, -523.9695935213082, -2982.7508905829063, -2288.3268938454266, -9478.391346739692, 59.00860536201065, 316.90303288734356, -4586.4438517622775, -1510.6873525008384, -1513.704838002305, -4244.015126706973, -3741.7490770517684, -2616.830482105074, -3190.4433000616195, -2059.0426992228868, -7971.4814390518, -14710.66650279361, 0.017703125, -0.10603125, 0.98703125, 192.0, 0.0, 0.0, 0.0, 0.0, 0.0, 0.0, 0.0, 0.0, 0.0, 1.645922965808807E9, 0.0, 2022-02-27 11:49:25.808
104.0, -45.66461392219233, -2619.646801906443, -1991.7863001568676, -9093.695472919402, 478.5061452992136, 504.85885201202063, -4495.248734384624, -1454.2939012400986, -2434.7308200276875, -4123.33805839277, -3399.119186296366, -2521.5002920031898, -2822.4888828383546, -1775.7119865074144, -7932.768217655208, -14731.051293736851, 0.017703125, -0.10603125, 0.98703125, 192.0, 0.0, 0.0, 0.0, 0.0, 0.0, 0.0, 0.0, 0.0, 0.0, 1.645922965817386E9, 0.0, 2022-02-27 11:49:25.817
106.0, -700.1460433180384, -3134.362773223254, -2455.0262039931067, -9664.5813780524, -133.2611004425407, 148.48263841660483, -4773.907932508938, -1762.4350503009618, -3116.2802119589105, -4831.3966192479875, -3757.4847051483043, -2731.383172438523, -3179.53564876743, -2110.22819402554, -8225.888994442104, -15385.219798710323, 0.018000000000000002, -0.106, 0.992, 192.0, 0.0, 72.0, 126.0, 88.0, 15.5, 0.0, 0.0, 0.0, 0.0, 1.645922965823523E9, 0.0, 2022-02-27 11:49:25.823
108.0, -151.83540008490087, -2692.3123231306463, -2031.6618122651355, -9166.29393891024, 384.24883893118374, 492.4312820948699, -4472.3381963179345, -1356.6838332037728, -1246.8920644393045, -3873.780831549267, -3512.017847540122, -2499.30500975907, -2972.022053244359, -1865.3871852621062, -7825.4351407808235, -14374.563321419158, 0.018000000000000002, -0.106, 0.992, 192.0, 0.0, 0.0, 0.0, 0.0, 0.0, 0.0, 0.0, 0.0, 0.0, 1.64592296583139E9, 0.0, 2022-02-27 11:49:25.831
110.0, -396.8328710595216, -2897.903668630561, -2271.719547715133, -9426.602354836745, 122.01817298152126, 252.37354664487205, -4722.521272006187, -1754.589587997149, -3664.0097098362103, -4688.3454547340225, -3501.6913416017705, -2640.657441694432, -2904.989171622893, -1915.2986306308069, -8175.485810695388, -15365.393801378466, 0.018000000000000002, -0.106, 0.992, 192.0, 0.0, 0.0, 0.0, 0.0, 0.0, 0.0, 0.0, 0.0, 0.0, 1.64592296583948E9, 0.0, 2022-02-27 11:49:25.839
112.0, -499.8967647429425, -2957.828695515239, -2286.0693676554406, -9480.87239037423, 60.84144840734582, 310.0410473395643, -4599.877250179917, -1528.926375976369, -1511.5814222790507, -4265.204580450604, -3740.5197311067263, -2617.389275716457, -3199.3169426103764, -2073.906609285666, -7983.327863613113, -14728.011456490929, 0.018000000000000002, -0.106, 0.992, 192.0, 0.0, 0.0, 0.0, 0.0, 0.0, 0.0, 0.0, 0.0, 0.0, 1.645922965846706E9, 0.0, 2022-02-27 11:49:25.846
114.0, -20.47419792106127, -2586.3427026680356, -1987.6288756881806, -9090.856801373578, 475.33219758655997, 490.2408111382498, -4526.742342322153, -1452.6845756393166, -2414.726008740188, -4113.637401299167, -3390.804337358992, -2511.5761174650333, -2823.98644971686, -1785.3455883676515, -7946.022802117205, -14739.902584541152, 0.018000000000000002, -0.106, 0.992, 192.0, 0.0, 0.0, 0.0, 0.0, 0.0, 0.0, 0.0, 0.0, 0.0, 1.645922965853169E9, 0.0, 2022-02-27 11:49:25.853
116.0, -688.903115857019, -3112.592174123785, -2456.881398782897, -9665.453096086156, -148.92967330571096, 132.94817602016641, -4750.6844700198735, -1770.884009705068, -3128.5066161759637, -4822.634735421507, -3754.5119231357485, -2724.8117595686626, -3177.7698609554604, -2125.2709180439615, -8235.76846549135, -15396.149801748968, 0.016, -0.10400000000000001, 0.99, 192.0, 0.0, 64.0, 126.0, 96.0, 15.0, 120.0, 0.0, 0.0, 0.0, 1.645922965861089E9, 0.0, 2022-02-27 11:49:25.861
118.0, -146.71685060463557, -2679.4377183243896, -2035.2157396335292, -9175.301691925728, 379.01853072864185, 481.47892731176944, -4445.203178549192, -1364.8869234188705, -1235.3138608114555, -3876.4406891394488, -3514.40948419684, -2497.695684158288, -2976.5147538798756, -1863.2190660499414, -7829.659620482877, -14376.865551098055, 0.016, -0.10400000000000001, 0.99, 192.0, 0.0, 0.0, 0.0, 0.0, 0.0, 0.0, 0.0, 0.0, 0.0, 1.64592296586937E9, 0.0, 2022-02-27 11:49:25.869
120.0, -384.94174300929825, -2875.641331153075, -2272.7700797045327, -9423.62957282419, 124.49921661606034, 241.37648837286096, -4727.729228464274, -1760.3116345777078, -3653.5714451755816, -4680.701158130308, -3496.1928124657647, -2640.9256626278952, -2903.737473933396, -1909.7330462614354, -8176.022252562315, -15364.812656022628, 0.016, -0.10400000000000001, 0.99, 192.0, 0.0, 0.0, 0.0, 0.0, 0.0, 0.0, 0.0, 0.0, 0.0, 1.645922965876192E9, 0.0, 2022-02-27 11:49:25.876
122.0, -499.80735776512125, -2948.4633145884654, -2289.3550740903706, -9481.49823921898, 46.93866335614483, 290.6173814079024, -4586.108575595448, -1531.697992288827, -1510.955573434302, -4263.371737405269, -3744.855969531056, -2617.9927728167504, -3202.0885589228346, -2072.051414495875, -7994.459032351856, -14728.123215213207, 0.016, -0.10400000000000001, 0.99, 192.0, 0.0, 0.0, 0.0, 0.0, 0.0, 0.0, 0.0, 0.0, 0.0, 1.6459229658837E9, 0.0, 2022-02-27 11:49:25.883
124.0, -19.71423860958083, -2586.65562709041, -1988.5676489553034, -9090.119193806553, 481.6353895229566, 494.9793809627749, -4501.909554232306, -1472.376462504442, -2411.8873371943637, -4111.62574429819, -3401.644933419816, -2522.170844336849, -2836.3916678895557, -1780.6293702875819, -7943.385296271479, -14736.616878106222, 0.016, -0.10400000000000001, 0.99, 192.0, 0.0, 0.0, 0.0, 0.0, 0.0, 0.0, 0.0, 0.0, 0.0, 1.645922965891752E9, 0.0, 2022-02-27 11:49:25.891
126.0, -678.129575029561, -3092.3861971361875, -2454.556817359545, -9660.043973927972, -150.6284058843143, 131.2941469304737, -4776.053699976647, -1784.4291668449841, -3169.097384106801, -4835.688154183406, -3748.6781178329134, -2725.5270153912325, -3176.965198155069, -2127.5731477228583, -8241.915195216561, -15413.472403701831, 0.018000000000000002, -0.106, 0.99, 192.0, 0.0, 72.0, 126.0, 88.0, 15.0, 120.0, 0.0, 0.0, 0.0, 1.645922965899772E9, 0.0, 2022-02-27 11:49:25.899
128.0, -146.2251122266188, -2674.0509479106604, -2043.3741263597165, -9174.698194825434, 371.39658586938214, 480.78602323365493, -4442.588024447921, -1361.1765338392895, -1217.4995204805757, -3866.5388663457475, -3520.6679726443263, -2495.2146405237486, -2987.154184240602, -1868.359967274662, -7828.609088493477, -14375.300928986184, 0.018000000000000002, -0.106, 0.99, 192.0, 0.0, 0.0, 0.0, 0.0, 0.0, 0.0, 0.0, 0.0, 0.0, 1.645922965906327E9, 0.0, 2022-02-27 11:49:25.906
130.0, -352.19643738227336, -2853.3566419311337, -2258.375556275315, -9399.936723701563, 143.0064610250546, 269.2267619641736, -4722.364809795, -1730.7179249188812, -3647.9835090617553, -4668.005367279693, -3490.873097285402, -2626.70995315432, -2903.2010320664685, -1902.356970591184, -8178.257427007846, -15346.059542424626, 0.018000000000000002, -0.106, 0.99, 192.0, 0.0, 0.0, 0.0, 0.0, 0.0, 0.0, 0.0, 0.0, 0.0, 1.645922965914308E9, 0.0, 2022-02-27 11:49:25.914
132.0, -506.7587502907217, -2954.6994512914957, -2288.7739287345325, -9490.103660834273, 28.83375034734611, 291.73496863066777, -4601.151299613869, -1546.4948471182404, -1538.314108647598, -4265.316339172881, -3741.860835774045, -2616.584612916066, -3198.9146112101807, -2071.6937865845903, -7992.760299773253, -14744.797616576865, 0.018000000000000002, -0.106, 0.99, 192.0, 0.0, 0.0, 0.0, 0.0, 0.0, 0.0, 0.0, 0.0, 0.0, 1.645922965928445E9, 0.0, 2022-02-27 11:49:25.928
134.0, -13.656915862192616, -2585.0239497451726, -1985.6842739205688, -9088.353405994583, 471.7112149848003, 492.7889100061548, -4527.0999702334375, -1475.0139683501684, -2360.1654005247833, -4110.306991375326, -3395.38644497233, -2513.7889401661087, -2833.664755066008, -1784.8762017340903, -7941.261880548225, -14716.701473796544, 0.018000000000000002, -0.106, 0.99, 192.0, 0.0, 0.0, 0.0, 0.0, 0.0, 0.0, 0.0, 0.0, 0.0, 1.64592296593608E9, 0.0, 2022-02-27 11:49:25.936
136.0, -680.9235430864744, -3095.783662293394, -2458.8036488060534, -9666.593035053378, -150.9636820511439, 142.89470230277806, -4774.08674646458, -1771.2863411052635, -3174.1488783537006, -4841.141979830501, -3747.1581992099527, -2729.5279776487328, -3173.5453812534074, -2113.2456795270064, -8246.58670980772, -15405.023444297725, 0.018000000000000002, -0.1, 0.986, 192.0, 0.0, 72.0, 126.0, 112.0, 15.0, 104.0, 0.0, 0.0, 0.0, 1.645922965943957E9, 0.0, 2022-02-27 11:49:25.943
138.0, -154.1376297637975, -2681.1588026474483, -2051.3760508747164, -9188.735090343367, 364.60165555496883, 475.1757353753728, -4447.125428572349, -1373.6488072453508, -1207.1953662866792, -3873.6690728269905, -3531.1732925383203, -2502.3895504939023, -2990.5069459088977, -1876.6301127231256, -7833.839396696019, -14371.545835917692, 0.018000000000000002, -0.1, 0.986, 192.0, 0.0, 0.0, 0.0, 0.0, 0.0, 0.0, 0.0, 0.0, 0.0, 1.645922965952132E9, 0.0, 2022-02-27 11:49:25.952
140.0, -367.03799570059726, -2868.578179905198, -2266.466887768136, -9419.29333439986, 127.51670211752679, 255.4580873797044, -4721.068408616592, -1742.363183780096, -3637.858168823501, -4675.292035972123, -3496.6174956104155, -2636.5670724591105, -2909.906555403061, -1918.293764387818, -8173.876485094605, -15346.640687780464, 0.018000000000000002, -0.1, 0.986, 192.0, 0.0, 0.0, 0.0, 0.0, 0.0, 0.0, 0.0, 0.0, 0.0, 1.64592296595866E9, 0.0, 2022-02-27 11:49:25.958
142.0, -514.5818608500792, -2970.9491695105044, -2298.8769172283314, -9504.632294730221, 24.676325878658997, 288.49396568464823, -4588.880191907906, -1540.281062159665, -1540.795152282137, -4286.729310361065, -3758.9375685378996, -2634.0860288245713, -3210.6716287936724, -2075.2700656974393, -7988.893447982485, -14744.708209599044, 0.018000000000000002, -0.1, 0.986, 192.0, 0.0, 0.0, 0.0, 0.0, 0.0, 0.0, 0.0, 0.0, 0.0, 1.645922965966705E9, 0.0, 2022-02-27 11:49:25.966
144.0, -23.89401482272325, -2600.9607435418066, -1992.0545210903313, -9097.629379943535, 463.0834416250517, 484.92109595788673, -4519.969763752194, -1473.829325894037, -2381.6230752018782, -4125.282660160382, -3413.2007853032096, -2535.514835776667, -2845.533531371776, -1811.206556702442, -7943.139427082471, -14724.524584355902, 0.018000000000000002, -0.1, 0.986, 192.0, 0.0, 0.0, 0.0, 0.0, 0.0, 0.0, 0.0, 0.0, 0.0, 1.645922965974635E9, 0.0, 2022-02-27 11:49:25.974
146.0, -698.0896828281502, -3112.6145258682404, -2466.0009105206623, -9674.550256079467, -164.5758944244259, 133.12698997580887, -4761.860342247527, -1773.7673847398025, -3221.4004661322197, -4856.765849204761, -3761.6644813614466, -2740.6591463874756, -3182.173154613156, -2141.0065461404974, -8248.844235997705, -15419.52972644922, 0.014, -0.10400000000000001, 0.988, 192.0, 0.0, 56.0, 126.0, 96.0, 15.0, 112.0, 0.0, 0.0, 0.0, 1.645922965981746E9, 0.0, 2022-02-27 11:49:25.981
148.0, -165.67112990273594, -2697.386169122001, -2054.7288125430123, -9196.28997996926, 352.531713549103, 474.59459001953485, -4453.205103064192, -1363.9928536406583, -1214.7726076570282, -3865.018947722787, -3549.8146474140462, -2514.884175644419, -3001.5487076698196, -1890.1082146296758, -7828.184405348827, -14369.735344616813, 0.014, -0.10400000000000001, 0.988, 192.0, 0.0, 0.0, 0.0, 0.0, 0.0, 0.0, 0.0, 0.0, 0.0, 1.645922965988212E9, 0.0, 2022-02-27 11:49:25.988
150.0, -357.2702833736281, -2863.8843135695834, -2253.9275591287087, -9400.786089990866, 138.5808156229038, 264.3317299284613, -4733.69714423384, -1740.686802945948, -3629.0292297636547, -4674.912056316382, -3494.40467290934, -2633.460179979823, -2905.2350408119014, -1919.2548893993962, -8172.4012699605555, -15334.682504496874, 0.014, -0.10400000000000001, 0.988, 192.0, 0.0, 0.0, 0.0, 0.0, 0.0, 0.0, 0.0, 0.0, 0.0, 1.645922965996278E9, 0.0, 2022-02-27 11:49:25.996
152.0, -531.3680209360148, -2984.3378644392333, -2300.1509666622837, -9511.337818066815, 14.68509610713674, 278.1227562573858, -4598.044407134582, -1545.377259895475, -1589.2537342612427, -4316.524185719989, -3762.9608825398545, -2627.492264210256, -3212.727989283561, -2088.926981559632, -8000.158727187959, -14767.81991336583, 0.014, -0.10400000000000001, 0.988, 192.0, 0.0, 0.0, 0.0, 0.0, 0.0, 0.0, 0.0, 0.0, 0.0, 1.645922966004252E9, 0.0, 2022-02-27 11:49:26.004
154.0, -16.316773452374157, -2589.2484294472256, -1978.777584883879, -9095.125984564542, 472.7617469741997, 486.8656977254984, -4507.743359535141, -1447.6330813924171, -2321.5862895949235, -4106.328380862282, -3407.746959656115, -2520.6062222249775, -2837.665717323508, -1798.0190274738106, -7929.147235053449, -14699.37887184368, 0.014, -0.10400000000000001, 0.988, 192.0, 0.0, 0.0, 0.0, 0.0, 0.0, 0.0, 0.0, 0.0, 0.0, 1.645922966011251E9, 0.0, 2022-02-27 11:49:26.011
156.0, -691.9429531029407, -3118.2918689598882, -2456.8143435495313, -9677.858314258852, -155.3669757088394, 123.56044334893744, -4801.646447377974, -1786.5749343126936, -3232.643393593239, -4858.889264928015, -3748.1863794548967, -2737.0158120412602, -3164.336462537821, -2135.284499559939, -8244.709163273474, -15425.855270130072, 0.01, -0.106, 0.99, 192.0, 0.0, 40.0, 126.0, 88.0, 15.0, 120.0, 0.0, 0.0, 0.0, 1.645922966018914E9, 0.0, 2022-02-27 11:49:26.018
158.0, -185.5194789790486, -2718.0391809987045, -2053.320652642328, -9210.01395106482, 345.177989623307, 459.70832821230033, -4455.328518787446, -1388.4009585858535, -1200.0204563165255, -3903.8662795861105, -3545.3219467785298, -2520.0921321025053, -3000.766396613884, -1897.9983804223991, -7832.632402495433, -14378.407821465473, 0.01, -0.106, 0.99, 192.0, 0.0, 0.0, 0.0, 0.0, 0.0, 0.0, 0.0, 0.0, 0.0, 1.645922966026838E9, 0.0, 2022-02-27 11:49:26.026
160.0, -371.8883242473989, -2884.7384911463846, -2248.496085226069, -9409.257401139426, 148.6838041167026, 264.15291597281885, -4716.4639492587985, -1745.2242070703755, -3613.606526089493, -4668.832381824539, -3498.092710744466, -2640.970366116806, -2895.8473081406723, -1910.4930055729158, -8161.359508199634, -15333.207289362825, 0.01, -0.106, 0.99, 192.0, 0.0, 0.0, 0.0, 0.0, 0.0, 0.0, 0.0, 0.0, 0.0, 1.645922966034981E9, 0.0, 2022-02-27 11:49:26.034
162.0, -535.100762260051, -2996.49721342292, -2294.0265886815296, -9508.387387798713, 20.340087454329428, 281.11789001439695, -4610.896660196383, -1546.83012328507, -1589.0972720500556, -4312.23265078457, -3762.7373650953014, -2622.9325083413733, -3213.711466039594, -2095.6772083851347, -7999.666988809942, -14767.574044176823, 0.01, -0.106, 0.99, 192.0, 0.0, 0.0, 0.0, 0.0, 0.0, 0.0, 0.0, 0.0, 0.0, 1.645922966048492E9, 0.0, 2022-02-27 11:49:26.048
164.0, -39.49553245252758, -2617.23281350527, -1970.3733289686834, -9093.583714197126, 475.80158422012147, 504.27770665618266, -4494.1758506507695, -1442.6933458677943, -2310.0080859670743, -4104.272020372394, -3405.556488699495, -2515.7782454226312, -2834.402362633033, -1795.3591698836292, -7922.017028572206, -14690.14760138364, 0.01, -0.106, 0.99, 192.0, 0.0, 0.0, 0.0, 0.0, 0.0, 0.0, 0.0, 0.0, 0.0, 1.645922966056566E9, 0.0, 2022-02-27 11:49:26.056
166.0, -726.319936075203, -3152.780610654427, -2453.1486574588607, -9677.38892762529, -152.46124892964949, 119.73829504707993, -4780.412290145432, -1807.5855741006822, -3259.778411361982, -4878.335282604133, -3755.2271789583183, -2748.5716639246543, -3165.655215460684, -2125.740304677523, -8240.842311482706, -15428.738645164805, 0.01, -0.10200000000000001, 0.992, 192.0, 0.0, 40.0, 126.0, 104.0, 15.5, 0.0, 0.0, 0.0, 0.0, 1.645922966063743E9, 0.0, 2022-02-27 11:49:26.063
168.0, -234.8497789919113, -2768.4200130009667, -2060.696728312579, -9211.53386968778, 345.3121000900388, 456.46732526628085, -4458.457763011189, -1390.9043539648478, -1212.3362675113997, -3916.852643114644, -3561.6834237198145, -2525.9259374053404, -3008.634210662152, -1895.942019932511, -7828.296164071103, -14377.536103431716, 0.01, -0.10200000000000001, 0.992, 192.0, 0.0, 0.0, 0.0, 0.0, 0.0, 0.0, 0.0, 0.0, 0.0, 1.645922966071103E9, 0.0, 2022-02-27 11:49:26.071
170.0, -432.9532900992978, -2940.4166865845546, -2259.4260882647145, -9405.14468015965, 148.79556283897912, 264.13056422836354, -4707.009161354204, -1732.5507679642164, -3633.6113373769927, -4684.903286087905, -3524.378362223907, -2657.220084335814, -2907.045532112781, -1908.2131276384746, -8157.112676753125, -15318.656303722419, 0.01, -0.10200000000000001, 0.992, 192.0, 0.0, 0.0, 0.0, 0.0, 0.0, 0.0, 0.0, 0.0, 0.0, 1.645922966079166E9, 0.0, 2022-02-27 11:49:26.079
172.0, -624.0383534477179, -3058.813876964316, -2318.0100104820744, -9516.769291969455, 12.896956550712176, 279.888544069355, -4597.709130967753, -1534.536663834651, -1648.9775954458232, -4346.296709334459, -3796.980237600832, -2655.7895726906745, -3231.8834342817586, -2098.381769464227, -8007.981837747317, -14775.911244858653, 0.01, -0.10200000000000001, 0.992, 192.0, 0.0, 0.0, 0.0, 0.0, 0.0, 0.0, 0.0, 0.0, 0.0, 1.64592296608729E9, 0.0, 2022-02-27 11:49:26.087
174.0, -136.23388245509653, -2702.6164773245428, -1985.617218687203, -9092.779051396734, 484.02702617967446, 506.4234741238921, -4482.0835569004485, -1427.896491038381, -2324.8719960298536, -4119.113578690717, -3440.6040240054162, -2543.136780635927, -2851.99318551936, -1793.9957134718554, -7924.229851273281, -14676.177761099072, 0.01, -0.10200000000000001, 0.992, 192.0, 0.0, 0.0, 0.0, 0.0, 0.0, 0.0, 0.0, 0.0, 0.0, 1.645922966093728E9, 0.0, 2022-02-27 11:49:26.093
176.0, -839.2185973189589, -3263.332338730376, -2471.208866978749, -9679.95937823765, -140.34660343487306, 131.56236786393737, -4791.386996672988, -1793.4369198604727, -3319.0552376574565, -4901.625800326562, -3782.719824638346, -2763.9049606209946, -3171.1984480856, -2112.575127193347, -8245.625584796142, -15434.52774697873, 0.016, -0.098, 0.992, 192.0, 0.0, 64.0, 126.0, 120.0, 15.5, 0.0, 0.0, 0.0, 0.0, 1.64592296610074E9, 0.0, 2022-02-27 11:49:26.100
178.0, -383.2206586862396, -2895.243811040379, -2079.3380831883055, -9220.54162270327, 351.6152920264354, 478.34968308802644, -4454.635614709332, -1384.6235137729066, -1248.9037214402822, -3929.4366752429814, -3602.408302117384, -2559.498257577212, -3020.145359056635, -1898.3113048447735, -7836.946289175307, -14375.993833064298, 0.016, -0.098, 0.992, 192.0, 0.0, 0.0, 0.0, 0.0, 0.0, 0.0, 0.0, 0.0, 0.0, 1.645922966108954E9, 0.0, 2022-02-27 11:49:26.108
180.0, -589.3037425641708, -3085.1889354215787, -2266.2880738124936, -9407.178688905084, 151.6342343848031, 258.65438683681333, -4716.866280658994, -1727.8345498841466, -3682.2040298228303, -4725.024667385182, -3568.634816245415, -2700.6718755569314, -2912.3875990375996, -1924.8875290021335, -8156.956214541939, -15315.88468740996, 0.016, -0.098, 0.992, 192.0, 0.0, 0.0, 0.0, 0.0, 0.0, 0.0, 0.0, 0.0, 0.0, 1.645922966116967E9, 0.0, 2022-02-27 11:49:26.116
182.0, -784.2780094478143, -3207.6317915477507, -2331.2869466885268, -9528.392199086215, 21.636488632737237, 273.20537247721825, -4611.522509041132, -1545.9360535068577, -1728.7062679179035, -4405.372369929835, -3848.098677170119, -2708.8526140275735, -3232.933966271158, -2084.8142605798557, -8011.133433715515, -14786.863599641752, 0.016, -0.098, 0.992, 192.0, 0.0, 0.0, 0.0, 0.0, 0.0, 0.0, 0.0, 0.0, 0.0, 1.645922966123838E9, 0.0, 2022-02-27 11:49:26.123
184.0, -274.18884923325174, -2830.781380031274, -1995.4743379919933, -9090.722690906847, 500.9696484767972, 510.2456224257496, -4457.317824043968, -1422.219147946733, -2347.5813683964457, -4141.9794132684965, -3483.8770012708906, -2565.063841946583, -2849.288624440268, -1802.5117281093274, -7916.6526099029315, -14666.365345283193, 0.015, -0.10200000000000001, 0.991, 192.0, 0.0, 56.0, 126.0, 88.0, 15.0, 120.0, 0.0, 0.0, 0.0, 1.645922966131489E9, 0.0, 2022-02-27 11:49:26.131
186.0, -928.6702786290979, -3333.315650619942, -2480.2613234831483, -9677.232465414103, -133.46226614263847, 137.93261503369988, -4755.825371244594, -1788.564239569216, -3401.5108229530842, -4938.997917055835, -3813.788749431223, -2778.053614861204, -3163.241227059511, -2122.6781156871457, -8239.590613793209, -15442.037933115715, 0.015, -0.10200000000000001, 0.991, 192.0, 0.0, 0.0, 0.0, 0.0, 0.0, 0.0, 0.0, 0.0, 0.0, 1.645922966139474E9, 0.0, 2022-02-27 11:49:26.139
188.0, -417.1059032804851, -2926.7821224668173, -2086.1777169916295, -9219.982829091887, 342.96516692223156, 482.90943895690907, -4441.135161058326, -1352.3028912905327, -1261.6218640353518, -3948.1897888409844, -3627.8669390519785, -2562.6275018009546, -3026.0015161039255, -1897.4842902999271, -7831.671277483854, -14370.361193461562, 0.015, -0.10200000000000001, 0.991, 192.0, 0.0, 0.0, 0.0, 0.0, 0.0, 0.0, 0.0, 0.0, 0.0, 1.645922966146498E9, 0.0, 2022-02-27 11:49:26.146
190.0, -548.6459193999672, -3041.8041994338278, -2256.1627335742396, -9387.598560762235, 165.44761245818287, 285.4988319276371, -4698.448443227821, -1707.5168141742724, -3648.5870061620485, -4689.664207656885, -3556.7436881951917, -2685.517392816233, -2899.535345975798, -1891.7622437193686, -8152.307051695235, -15291.007195831204, 0.015, -0.10200000000000001, 0.991, 192.0, 0.0, 0.0, 0.0, 0.0, 0.0, 0.0, 0.0, 0.0, 0.0, 1.645922966154143E9, 0.0, 2022-02-27 11:49:26.154
192.0, -732.578424522689, -3165.5434567384073, -2332.538644378024, -9520.859661204775, 8.538366381927299, 275.0158637780981, -4608.52737528412, -1550.5852163535615, -1720.212605024887, -4398.890364037796, -3835.5369967862366, -2687.3725876060234, -3233.135131971256, -2103.187394522118, -8021.102311742582, -14793.636178211711, 0.015, -0.10200000000000001, 0.991, 192.0, 0.0, 0.0, 0.0, 0.0, 0.0, 0.0, 0.0, 0.0, 0.0, 1.645922966162112E9, 0.0, 2022-02-27 11:49:26.162
194.0, -188.022874358043, -2746.537655179221, -1982.3762157411834, -9082.810173369668, 489.03381693766323, 510.1785671923837, -4480.295417344024, -1438.7594388436603, -2296.082949171418, -4120.879366502687, -3466.867323740402, -2547.9647574382734, -2847.2099122059244, -1794.3086378942298, -7921.480586705278, -14660.352726024716, 0.0155, -0.10200000000000001, 0.9884999999999999, 192.0, 0.0, 64.0, 126.0, 104.0, 15.0, 104.0, 0.0, 0.0, 0.0, 1.645922966175723E9, 0.0, 2022-02-27 11:49:26.175
196.0, -835.217635061459, -3255.2186554930995, -2462.3799279189025, -9665.944834464173, -140.07838250140935, 133.2163969536301, -4785.486136136787, -1794.465100105417, -3356.4050026422747, -4914.500405132819, -3775.231990245818, -2759.255797774291, -3145.940976851103, -2107.523632946448, -8248.86658774216, -15446.798854684694, 0.0155, -0.10200000000000001, 0.9884999999999999, 192.0, 0.0, 0.0, 0.0, 0.0, 0.0, 0.0, 0.0, 0.0, 0.0, 1.645922966183917E9, 0.0, 2022-02-27 11:49:26.183
198.0, -336.7066784747456, -2854.0048425203377, -2075.962969775554, -9219.669904669512, 335.34322206297185, 463.53047651415784, -4457.004899621595, -1376.7109962357279, -1206.7259796531177, -3937.4833032468923, -3591.3218368675516, -2538.0852863890277, -3012.478710708465, -1897.171365877553, -7836.767475219664, -14375.770315619746, 0.0155, -0.10200000000000001, 0.9884999999999999, 192.0, 0.0, 0.0, 0.0, 0.0, 0.0, 0.0, 0.0, 0.0, 0.0, 1.645922966191821E9, 0.0, 2022-02-27 11:49:26.191
200.0, -463.19520034732824, -2959.6391868161186, -2239.734201399589, -9382.748232215434, 184.71481617865757, 289.1868697627628, -4699.4989752172205, -1723.0736283151662, -3597.088586937021, -4663.043280010615, -3524.8924523463793, -2654.6943372123646, -2887.778328392307, -1889.7282349739355, -8150.407153416533, -15292.393003987432, 0.0155, -0.10200000000000001, 0.9884999999999999, 192.0, 0.0, 0.0, 0.0, 0.0, 0.0, 0.0, 0.0, 0.0, 0.0, 1.645922966198858E9, 0.0, 2022-02-27 11:49:26.198
202.0, -661.3434149436254, -3094.219040181523, -2331.7339815776327, -9527.967515941562, 0.5811453558379837, 268.533857886059, -4612.2154131192465, -1565.7844025831703, -1716.5469189342166, -4397.750425070575, -3815.398075032005, -2681.4717270698225, -3228.2400999355436, -2103.7461881335007, -8026.086750756115, -14813.283361587926, 0.0155, -0.10200000000000001, 0.9884999999999999, 192.0, 0.0, 0.0, 0.0, 0.0, 0.0, 0.0, 0.0, 0.0, 0.0, 1.645922966206368E9, 0.0, 2022-02-27 11:49:26.206
204.0, -114.86561475582299, -2686.6349800389985, -1981.1245180516862, -9088.219295527852, 478.9531801883197, 508.4574828693251, -4473.992225407627, -1432.5233021406295, -2237.499026954058, -4102.372122093692, -3444.292061840542, -2549.7976004836087, -2844.6618133380193, -1790.8664692481125, -7915.915002335907, -14653.267223032382, 0.01475, -0.10400000000000001, 0.98725, 192.0, 0.0, 56.0, 126.0, 88.0, 15.0, 104.0, 0.0, 0.0, 0.0, 1.645922966214492E9, 0.0, 2022-02-27 11:49:26.214
206.0, -766.8436487726747, -3189.5045267944965, -2463.3410529304806, -9670.370479866324, -156.3057489759623, 123.33692590438437, -4791.878735051005, -1809.910155524034, -3366.195066713699, -4904.129195705556, -3757.238835959296, -2763.1673530539697, -3141.783552382416, -2109.6917521586124, -8253.336936633223, -15456.119532122557, 0.01475, -0.10400000000000001, 0.98725, 192.0, 0.0, 0.0, 0.0, 0.0, 0.0, 0.0, 0.0, 0.0, 0.0, 1.645922966223866E9, 0.0, 2022-02-27 11:49:26.223
208.0, -277.7427766016456, -2789.3412458111343, -2078.93575178811, -9224.96726810542, 315.76309392012286, 460.53534275714674, -4466.727908459653, -1388.2444963746664, -1175.7911653269728, -3918.7972448822557, -3581.8670489629567, -2526.596489739, -3014.490367709442, -1894.8244327097457, -7841.729562488743, -14381.402955222484, 0.01475, -0.10400000000000001, 0.98725, 192.0, 0.0, 0.0, 0.0, 0.0, 0.0, 0.0, 0.0, 0.0, 0.0, 1.645922966229973E9, 0.0, 2022-02-27 11:49:26.229
210.0, -381.9242575078318, -2890.035854582293, -2229.541805927969, -9367.571397730278, 193.11907209385302, 299.22280302319564, -4694.738053648241, -1714.7587793777918, -3551.7145456927474, -4636.064724453059, -3500.7972718235583, -2642.1550085729373, -2877.5412294317757, -1877.5912377347038, -8144.886272536072, -15279.4066404589, 0.01475, -0.10400000000000001, 0.98725, 192.0, 0.0, 0.0, 0.0, 0.0, 0.0, 0.0, 0.0, 0.0, 0.0, 1.645922966236068E9, 0.0, 2022-02-27 11:49:26.236
212.0, -612.2589841197711, -3054.6564524956293, -2340.0935340039177, -9537.578766057344, -12.56168038388257, 255.77101180207873, -4620.798482990084, -1577.8990480779469, -1755.4166025419954, -4406.042922263494, -3804.803348160189, -2663.322110572113, -3229.8941290252365, -2102.4944904440035, -8034.602765393587, -14843.279402646947, 0.01475, -0.10400000000000001, 0.98725, 192.0, 0.0, 0.0, 0.0, 0.0, 0.0, 0.0, 0.0, 0.0, 0.0, 1.64592296624437E9, 0.0, 2022-02-27 11:49:26.244
214.0, -56.21463730509726, -2622.0160868187054, -1970.7086051355132, -9077.13283027802, 485.7704622471884, 510.06680847010716, -4467.376109048857, -1429.0364300056017, -2173.371872111782, -4064.552970475313, -3429.651669222316, -2510.8608616424635, -2840.3032231692346, -1797.2814199067857, -7903.174507996382, -14636.704580391, 0.014374999999999999, -0.10300000000000001, 0.987625, 192.0, 0.0, 56.0, 126.0, 104.0, 15.0, 112.0, 0.0, 0.0, 0.0, 1.645922966252009E9, 0.0, 2022-02-27 11:49:26.252
216.0, -714.0041248803288, -3134.2510145009774, -2453.729802814699, -9662.860293729342, -136.21153071064123, 127.69551607316924, -4779.965255256326, -1806.3115246667296, -3364.3845754128192, -4883.699701273406, -3738.686888061391, -2732.791332339207, -3132.7981511113826, -2104.1261677892408, -8243.412762095066, -15458.377058312542, 0.014374999999999999, -0.10300000000000001, 0.987625, 192.0, 0.0, 0.0, 0.0, 0.0, 0.0, 0.0, 0.0, 0.0, 0.0, 1.645922966258596E9, 0.0, 2022-02-27 11:49:26.258
218.0, -234.827427247456, -2750.672727903453, -2072.7890220629006, -9225.503709972347, 330.0905621159747, 462.815220691588, -4458.591873477921, -1390.4573190757417, -1163.363595409822, -3910.907079089532, -3570.400604057384, -2522.5955274814996, -3011.3164199967887, -1895.3832263211284, -7827.625611737444, -14380.263016255263, 0.014374999999999999, -0.10300000000000001, 0.987625, 192.0, 0.0, 0.0, 0.0, 0.0, 0.0, 0.0, 0.0, 0.0, 0.0, 1.645922966266774E9, 0.0, 2022-02-27 11:49:26.266
220.0, -339.21007385373997, -2846.5840633611756, -2219.215299989617, -9364.285691295348, 186.50295573508214, 283.5318784155701, -4700.571858951075, -1731.6566981860042, -3542.215054299242, -4616.574003288031, -3485.9110100163234, -2625.011220575717, -2872.601493907153, -1880.8098889362682, -8137.2419759323575, -15282.02179456017, 0.014374999999999999, -0.10300000000000001, 0.987625, 192.0, 0.0, 0.0, 0.0, 0.0, 0.0, 0.0, 0.0, 0.0, 0.0, 1.645922966274707E9, 0.0, 2022-02-27 11:49:26.274
222.0, -573.3893005119921, -3010.176481029568, -2328.7388478206217, -9529.107454908784, -15.243889718519418, 256.19569494672953, -4621.826663235029, -1583.665798147416, -1741.8714454020794, -4390.173183700226, -3786.854897362578, -2648.704069698342, -3225.6696493231834, -2110.9434498481096, -8035.16155900497, -14844.396989869714, 0.014374999999999999, -0.10300000000000001, 0.987625, 192.0, 0.0, 0.0, 0.0, 0.0, 0.0, 0.0, 0.0, 0.0, 0.0, 1.645922966281174E9, 0.0, 2022-02-27 11:49:26.281
224.0, -19.71423860958083, -2579.681882820354, -1966.5288289223706, -9073.467144187349, 486.8880494699537, 512.5031486157357, -4471.332367817446, -1427.9411945272916, -2175.8529157463213, -4051.030165079852, -3411.122073068866, -2496.8239661245307, -2840.280871424779, -1783.8703732336014, -7908.270705732192, -14639.543251936824, 0.0131875, -0.1015, 0.9868125, 192.0, 0.0, 48.0, 126.0, 112.0, 15.0, 104.0, 0.0, 0.0, 0.0, 1.645922966296371E9, 0.0, 2022-02-27 11:49:26.296
226.0, -678.0178163072844, -3097.214173938534, -2451.6287388358996, -9655.931252948196, -140.2124929681412, 128.03079223999885, -4798.964238043337, -1808.9043270235452, -3393.151270526799, -4875.563666291674, -3718.436207584883, -2716.0722274866375, -3130.1606452656565, -2092.0338740389197, -8253.113419188669, -15467.496570050309, 0.0131875, -0.1015, 0.9868125, 192.0, 0.0, 0.0, 0.0, 0.0, 0.0, 0.0, 0.0, 0.0, 0.0, 1.645922966304314E9, 0.0, 2022-02-27 11:49:26.304
228.0, -216.85662470538912, -2731.182006738425, -2081.8861820562106, -9229.415265252026, 315.42781775329325, 449.2924152961273, -4461.095268856915, -1385.7187492512167, -1152.3218336489003, -3909.3424569776607, -3564.9467784102894, -2513.073684343539, -3023.3640102581994, -1900.3229618457513, -7839.449684554302, -14384.867475613055, 0.0131875, -0.1015, 0.9868125, 192.0, 0.0, 0.0, 0.0, 0.0, 0.0, 0.0, 0.0, 0.0, 0.0, 1.645922966310952E9, 0.0, 2022-02-27 11:49:26.310
230.0, -298.28402975607275, -2812.7882257447513, -2207.3241719393936, -9345.309060252794, 205.61369724436966, 295.2218407656957, -4693.195783280824, -1710.7131136313812, -3511.481405673195, -4589.930723897305, -3466.2861783845638, -2614.908232081918, -2872.6909008849743, -1854.6136444346482, -8136.012629987315, -15258.753628582195, 0.0131875, -0.1015, 0.9868125, 192.0, 0.0, 0.0, 0.0, 0.0, 0.0, 0.0, 0.0, 0.0, 0.0, 1.64592296631921E9, 0.0, 2022-02-27 11:49:26.319
232.0, -558.972425338319, -2995.0443500333254, -2331.689278088722, -9533.756617755487, -11.757017583491516, 248.59610183192515, -4626.006439448171, -1579.8660015900139, -1773.297998106241, -4402.444291406189, -3775.9919495572985, -2642.289119039669, -3229.5141493694964, -2116.7772551509447, -8045.35395447659, -14860.892577277731, 0.0131875, -0.1015, 0.9868125, 192.0, 0.0, 0.0, 0.0, 0.0, 0.0, 0.0, 0.0, 0.0, 0.0, 1.64592296632698E9, 0.0, 2022-02-27 11:49:26.326
234.0, -6.727875081047426, -2574.9880164847395, -1961.1197067641863, -9075.009414554765, 497.70629378632236, 507.27284041319376, -4470.751222461608, -1425.2813369371102, -2124.0415720989195, -4042.4023917201034, -3403.924811354257, -2490.163146276849, -2844.70651682693, -1794.9344867389784, -7903.286266718658, -14623.092368017718, 0.01259375, -0.10275000000000001, 0.9864062499999999, 192.0, 0.0, 48.0, 126.0, 96.0, 15.0, 104.0, 0.0, 0.0, 0.0, 1.645922966333981E9, 0.0, 2022-02-27 11:49:26.333
236.0, -668.9206563139745, -3093.9955227369696, -2452.813381292031, -9657.33941284888, -134.2445771985742, 125.03565848298771, -4794.583296130097, -1812.4806061363945, -3406.249392777609, -4885.554896063197, -3711.4177598259166, -2711.9818582513167, -3130.4512179435756, -2105.869603856755, -8252.889901744116, -15471.251663118801, 0.01259375, -0.10275000000000001, 0.9864062499999999, 192.0, 0.0, 0.0, 0.0, 0.0, 0.0, 0.0, 0.0, 0.0, 0.0, 1.645922966341426E9, 0.0, 2022-02-27 11:49:26.341
238.0, -218.82357821745615, -2731.740800349808, -2084.0095977794645, -9232.343343775672, 310.4210269953045, 453.5168949981803, -4471.377071306357, -1390.613781286929, -1147.069173701903, -3909.029532555286, -3568.8359819455127, -2503.5071377166673, -3033.1987778185344, -1901.7981769798014, -7839.36027757648, -14381.559417433671, 0.01259375, -0.10275000000000001, 0.9864062499999999, 192.0, 0.0, 0.0, 0.0, 0.0, 0.0, 0.0, 0.0, 0.0, 0.0, 1.645922966348675E9, 0.0, 2022-02-27 11:49:26.348
240.0, -296.13826228836325, -2814.4646065788993, -2209.380532429282, -9344.012659074386, 200.11516810836414, 292.02554130858675, -4705.511594475698, -1719.430293968951, -3513.962449307734, -4599.027883890615, -3469.348367374941, -2611.7342843692645, -2884.7831946352953, -1882.7768424483352, -8141.6452695900525, -15255.646736102908, 0.01259375, -0.10275000000000001, 0.9864062499999999, 192.0, 0.0, 0.0, 0.0, 0.0, 0.0, 0.0, 0.0, 0.0, 0.0, 1.645922966356495E9, 0.0, 2022-02-27 11:49:26.356
242.0, -570.8188498996318, -3007.248402505923, -2338.1265804918507, -9539.657478291689, -28.31966022487405, 243.47755235165982, -4649.118143214959, -1602.441263489874, -1783.043358688755, -4417.107035768871, -3788.9336095969215, -2654.2473023232583, -3236.7561145730156, -2114.4973772165035, -8041.844730597107, -14867.218120958581, 0.01259375, -0.10275000000000001, 0.9864062499999999, 192.0, 0.0, 0.0, 0.0, 0.0, 0.0, 0.0, 0.0, 0.0, 0.0, 1.645922966363591E9, 0.0, 2022-02-27 11:49:26.363
244.0, -23.4246281891618, -2591.2377347037477, -1977.9282185945772, -9085.22416177084, 476.8521162095209, 498.8685844979983, -4457.094306599415, -1443.6991743682831, -2144.024031641964, -4051.23133077995, -3425.6954104537263, -2514.526547733134, -2867.6170548936198, -1802.623486831604, -7906.728435364776, -14629.328504720748, 0.014296875, -0.10337500000000001, 0.987203125, 192.0, 0.0, 64.0, 126.0, 96.0, 15.0, 112.0, 0.0, 0.0, 0.0, 1.64592296637122E9, 0.0, 2022-02-27 11:49:26.371
