%OpenBCI Raw EEG Data
%Number of channels = 16
%Sample Rate = 125 Hz
%Board = OpenBCI_GUI$BoardCytonSerialDaisy
Sample Index, EXG Channel 0, EXG Channel 1, EXG Channel 2, EXG Channel 3, EXG Channel 4, EXG Channel 5, EXG Channel 6, EXG Channel 7, EXG Channel 8, EXG Channel 9, EXG Channel 10, EXG Channel 11, EXG Channel 12, EXG Channel 13, EXG Channel 14, EXG Channel 15, Accel Channel 0, Accel Channel 1, Accel Channel 2, Other, Other, Other, Other, Other, Other, Other, Analog Channel 0, Analog Channel 1, Analog Channel 2, Timestamp, Other, Timestamp (Formatted)
0.0, 113.72567578860233, -2394.8329561749647, -1949.1168199916865, -8936.518005909682, 487.4244913368811, 650.5251706272568, -4219.718780484054, -1370.4748595326973, 0.0, 0.0, 0.0, 0.0, 0.0, 0.0, 0.0, 0.0, 0.0, 0.0, 0.0, 192.0, 0.0, 0.0, 0.0, 0.0, 0.0, 0.0, 0.0, 0.0, 0.0, 1.645923028878525E9, 0.0, 2022-02-27 11:50:28.878
180.0, -499.5838403205682, -2897.054302341259, -2439.1788171742937, -9467.215474512039, -86.94828593114447, 257.04506123603124, -4598.200869345769, -1815.3639811711291, -3573.8204209590463, -4586.6226657179195, -3639.5792531465595, -2620.8314443625745, -2954.207712913479, -1962.9301980650662, -8182.90658985455, -15338.147024887447, 0.0, 0.0, 0.0, 192.0, 0.0, 0.0, 0.0, 0.0, 0.0, 0.0, 0.0, 0.0, 0.0, 1.645923028878527E9, 0.0, 2022-02-27 11:50:28.878
0.0, 108.83064375289008, -1146.5327318349757, -928.5808716512767, -4414.156605500771, 295.15478553232975, 363.90875147685426, -2093.1067577727745, -628.3522401275922, -1212.0009913445701, -1895.8302612102345, -1683.1310609735324, -1211.911584366749, -1358.9860628826693, -849.925082913051, -3919.333686749183, -7280.410203982617, 0.016, -0.112, 0.996, 192.0, 0.0, 64.0, 126.0, 64.0, 15.5, 16.0, 0.0, 0.0, 0.0, 1.64592302898459E9, 0.0, 2022-02-27 11:50:28.984
2.0, -292.6066866644248, -2715.938117019906, -2298.765158506055, -9308.160460968073, 78.72284397159147, 358.1643531518404, -4574.932703367795, -1716.0328288117444, -3666.4236982373836, -4430.763951631064, -3503.0324462690887, -2544.4778853032453, -2780.087623606637, -1842.36488847314, -8112.3644843536, -15242.68272431883, 0.016, -0.112, 0.996, 192.0, 0.0, 0.0, 0.0, 0.0, 0.0, 0.0, 0.0, 0.0, 0.0, 1.645923028990802E9, 0.0, 2022-02-27 11:50:28.990
4.0, -325.84373066946637, -2722.040143256205, -2253.279358539505, -9264.820428469233, 89.78695747696847, 440.01644134717486, -4382.618294074332, -1436.3678021869425, -1260.7501460015949, -3900.0217795397975, -3694.8327654400787, -2486.8327363530084, -3055.5728740182967, -1996.9048496371329, -7829.011419893673, -14434.33188609265, 0.016, -0.112, 0.996, 192.0, 0.0, 0.0, 0.0, 0.0, 0.0, 0.0, 0.0, 0.0, 0.0, 1.645923028997188E9, 0.0, 2022-02-27 11:50:28.997
6.0, 113.18923392167497, -2387.009845615607, -1966.6629393891026, -8945.52575892517, 474.25931385270525, 617.8916237225085, -4315.5183572195, -1412.5184908531298, -2498.366236491947, -3856.972319718876, -3366.3738806693414, -2410.6803429937772, -2681.7846514921966, -1697.7491018473033, -7845.127027645949, -14601.7464520629, 0.015, -0.11, 0.994, 192.0, 0.0, 56.0, 126.0, 80.0, 15.5, 0.0, 0.0, 0.0, 0.0, 1.645923029005337E9, 0.0, 2022-02-27 11:50:29.005
8.0, -552.0433845571738, -2911.7841019373063, -2461.3517476739585, -9491.042434101395, -134.51279813203791, 263.88469503935517, -4575.670310934819, -1696.117424502066, -2877.4294707094996, -4488.69967325922, -3750.3544986670613, -2610.348476213035, -3049.962586160015, -2060.1379347011966, -8117.885365234061, -15150.906461585339, 0.015, -0.11, 0.994, 192.0, 0.0, 0.0, 0.0, 0.0, 0.0, 0.0, 0.0, 0.0, 0.0, 1.645923029013288E9, 0.0, 2022-02-27 11:50:29.013
10.0, 34.53344518344941, -2438.776485774098, -1986.6901024210576, -8973.085459838565, 435.00965058918604, 636.7788477872429, -4233.800379490898, -1280.5761433334521, -1187.4140724437325, -3568.768926712147, -3466.1967714067428, -2376.817450143987, -2825.0816851951704, -1769.878181204579, -7686.161421079805, -14157.32671705803, 0.015, -0.11, 0.994, 192.0, 0.0, 0.0, 0.0, 0.0, 0.0, 0.0, 0.0, 0.0, 0.0, 1.645923029020366E9, 0.0, 2022-02-27 11:50:29.020
12.0, -290.37151221889405, -2722.3977711674897, -2298.049902683485, -9311.736740080922, 88.9375911876668, 334.4938557736702, -4573.971578356216, -1716.4128084674846, -3658.4888289557493, -4437.983565090128, -3500.5290508900944, -2547.3165568490695, -2772.9574171253944, -1854.6583479235587, -8101.568591781687, -15235.664276559864, 0.015, -0.11, 0.994, 192.0, 0.0, 0.0, 0.0, 0.0, 0.0, 0.0, 0.0, 0.0, 0.0, 1.645923029027869E9, 0.0, 2022-02-27 11:50:29.027
14.0, -322.66978295681275, -2723.1353787345147, -2251.6253294498124, -9266.899140703576, 96.09014941336507, 438.9882611022307, -4399.359750671358, -1466.0732705680455, -1257.2856256110222, -3913.7904541242665, -3696.307980574129, -2489.3361317320027, -3047.950929159037, -1997.642457204158, -7822.596469235, -14441.350333851617, 0.015, -0.11, 0.994, 192.0, 0.0, 0.0, 0.0, 0.0, 0.0, 0.0, 0.0, 0.0, 0.0, 1.645923029035969E9, 0.0, 2022-02-27 11:50:29.035
16.0, 115.04442871146546, -2386.294589793037, -1969.2780934903735, -8944.72109612478, 475.0192731641857, 612.4154463309582, -4321.821549155897, -1408.7186942957276, -2476.819154837031, -3859.6545290535128, -3364.9433690242017, -2406.6570289918222, -2676.107308400549, -1697.659694869482, -7841.684858999832, -14603.378129408138, 0.014499999999999999, -0.109, 0.99, 192.0, 0.0, 56.0, 126.0, 80.0, 15.0, 104.0, 0.0, 0.0, 0.0, 1.645923029043927E9, 0.0, 2022-02-27 11:50:29.043
18.0, -554.2562072582492, -2917.1932240954907, -2467.006739021151, -9494.484602747512, -142.76059183604622, 246.60679657540283, -4606.426311305322, -1699.3807791925406, -2938.3826778391217, -4514.426531127278, -3749.1251527220197, -2618.126883283482, -3048.7779437038835, -2070.039757494898, -8123.853281003629, -15173.079392085005, 0.014499999999999999, -0.109, 0.99, 192.0, 0.0, 0.0, 0.0, 0.0, 0.0, 0.0, 0.0, 0.0, 0.0, 1.645923029049993E9, 0.0, 2022-02-27 11:50:29.049
20.0, 24.3634014562847, -2446.979575989196, -1994.647323447147, -8981.0203291202, 414.6919148793119, 628.3298883831368, -4265.316339172881, -1302.0561697550024, -1160.6143308418193, -3576.480278549228, -3476.21035292272, -2383.1653455692945, -2838.962118501916, -1790.911172737023, -7691.995226382641, -14166.535635773616, 0.014499999999999999, -0.109, 0.99, 192.0, 0.0, 0.0, 0.0, 0.0, 0.0, 0.0, 0.0, 0.0, 0.0, 1.645923029065608E9, 0.0, 2022-02-27 11:50:29.065
22.0, -279.7767853470785, -2708.7632070497525, -2291.7243590026333, -9300.382053897627, 95.30783835742932, 353.112858904941, -4574.172744056314, -1712.1212735320657, -3645.860093338501, -4408.30044845348, -3497.2433444551643, -2541.7733242241534, -2773.471507247866, -1849.495094954383, -8103.423786571478, -15227.327075878035, 0.014499999999999999, -0.109, 0.99, 192.0, 0.0, 0.0, 0.0, 0.0, 0.0, 0.0, 0.0, 0.0, 0.0, 1.64592302907352E9, 0.0, 2022-02-27 11:50:29.073
24.0, -339.81357095403325, -2734.154788750981, -2264.566989489435, -9277.78444025331, 81.94149517315569, 431.25455752069445, -4406.177032730226, -1457.1549245303781, -1291.0144079940806, -3921.3453437501603, -3703.3264283330955, -2494.2088120232597, -3062.2560456104334, -2003.7444834404569, -7835.895757185907, -14461.422200372483, 0.014499999999999999, -0.109, 0.99, 192.0, 0.0, 0.0, 0.0, 0.0, 0.0, 0.0, 0.0, 0.0, 0.0, 1.645923029080109E9, 0.0, 2022-02-27 11:50:29.080
26.0, 110.97641122059957, -2391.8378224179532, -1968.965169067999, -8946.95627057031, 481.23305812276107, 623.613670303067, -4315.652467686233, -1395.2405923891774, -2450.5111516131346, -3843.941252701432, -3369.5701801264504, -2416.8047209745314, -2690.8818114855067, -1693.502270400795, -7836.946289175307, -14583.105097187174, 0.014249999999999999, -0.1085, 0.99, 192.0, 0.0, 56.0, 126.0, 80.0, 15.0, 120.0, 0.0, 0.0, 0.0, 1.645923029088156E9, 0.0, 2022-02-27 11:50:29.088
28.0, -560.7605648947435, -2930.313698090756, -2469.331320444503, -9497.770309182442, -139.81016156794567, 252.03827047804245, -4595.898639666872, -1698.173784991954, -2933.5770527812306, -4522.316696920001, -3748.812228299645, -2624.675944408887, -3052.7118507280175, -2073.325463929828, -8120.478167590877, -15173.325261274013, 0.014249999999999999, -0.1085, 0.99, 192.0, 0.0, 0.0, 0.0, 0.0, 0.0, 0.0, 0.0, 0.0, 0.0, 1.645923029096139E9, 0.0, 2022-02-27 11:50:29.096
30.0, 19.378962442751224, -2455.1826662042936, -1998.9612101270213, -8978.382823274473, 414.5801561570354, 623.4572080918799, -4256.554455346401, -1299.3963121648208, -1157.0604034734254, -3587.477336821239, -3475.6515593113377, -2386.294589793037, -2838.2021591904354, -1785.9714372124001, -7683.054528600518, -14158.444304280794, 0.014249999999999999, -0.1085, 0.99, 192.0, 0.0, 0.0, 0.0, 0.0, 0.0, 0.0, 0.0, 0.0, 0.0, 1.645923029102793E9, 0.0, 2022-02-27 11:50:29.102
32.0, -283.39776794883824, -2715.3346199196126, -2295.9041352157756, -9294.861173017165, 94.21260287911927, 348.91073094734327, -4585.370968028423, -1713.305915988197, -3647.156494516909, -4425.8465678508965, -3498.6291526113932, -2538.845245700508, -2773.538562481232, -1831.725458112414, -8099.422824313978, -15220.196869396792, 0.014249999999999999, -0.1085, 0.99, 192.0, 0.0, 0.0, 0.0, 0.0, 0.0, 0.0, 0.0, 0.0, 0.0, 1.645923029111057E9, 0.0, 2022-02-27 11:50:29.111
34.0, -335.03029764059755, -2734.1100852620707, -2266.466887768136, -9271.525951805825, 83.32730332938473, 440.7540489142, -4391.424881389723, -1450.5164564271518, -1285.4041201357986, -3935.4045910125487, -3709.2496406137516, -2494.1864602788046, -3068.4474788245534, -2002.2692683064067, -7831.581870506034, -14454.71667703589, 0.014249999999999999, -0.1085, 0.99, 192.0, 0.0, 0.0, 0.0, 0.0, 0.0, 0.0, 0.0, 0.0, 0.0, 1.645923029117864E9, 0.0, 2022-02-27 11:50:29.117
36.0, 127.82962653990108, -2379.7455286676322, -1957.5657793957926, -8930.058351762098, 493.7053315288224, 635.3930396310138, -4297.301685488425, -1398.2133744017333, -2425.1195699119057, -3842.2872236117396, -3365.323348679942, -2405.0700551354953, -2679.258904368747, -1694.1281192455435, -7824.094036113505, -14575.46080058346, 0.014124999999999999, -0.10825, 0.988, 192.0, 0.0, 56.0, 126.0, 80.0, 15.0, 104.0, 0.0, 0.0, 0.0, 1.645923029125777E9, 0.0, 2022-02-27 11:50:29.125
38.0, -548.2882914886823, -2922.1329596201135, -2459.6306633509, -9487.510858477457, -129.66246958523627, 259.2355321926513, -4584.3874912723895, -1706.041599040222, -2962.4778583619427, -4526.094141732949, -3735.5352920931928, -2609.655572134921, -3030.5389202283527, -2056.1816759326075, -8115.694894277442, -15183.96469163474, 0.014124999999999999, -0.10825, 0.988, 192.0, 0.0, 0.0, 0.0, 0.0, 0.0, 0.0, 0.0, 0.0, 0.0, 1.645923029132383E9, 0.0, 2022-02-27 11:50:29.132
40.0, 24.408104945195312, -2452.9251400143075, -1994.0438263468536, -8975.499448239738, 416.7706271136555, 629.0898476946173, -4236.348478358803, -1295.5294603740526, -1120.5823565223643, -3571.4511360467836, -3469.437774352762, -2373.911723364797, -2832.055429465226, -1781.1211086655985, -7676.572522708479, -14156.343240301996, 0.014124999999999999, -0.10825, 0.988, 192.0, 0.0, 0.0, 0.0, 0.0, 0.0, 0.0, 0.0, 0.0, 0.0, 1.64592302914061E9, 0.0, 2022-02-27 11:50:29.140
42.0, -268.57856137496964, -2704.5610790921546, -2281.2190391086388, -9279.952559465475, 105.79080650696832, 365.38396661090457, -4559.018261315616, -1690.9318197884345, -3616.3781424019508, -4398.331570426413, -3483.608780337427, -2526.551786250089, -2755.54540819471, -1826.5398533987825, -8088.1128416195925, -15206.24938085668, 0.014124999999999999, -0.10825, 0.988, 192.0, 0.0, 0.0, 0.0, 0.0, 0.0, 0.0, 0.0, 0.0, 0.0, 1.64592302914851E9, 0.0, 2022-02-27 11:50:29.148
44.0, -338.338355819983, -2740.770905109752, -2257.1238585858177, -9268.575521537725, 92.89384995625615, 443.4362582488368, -4389.659093577754, -1437.574796387529, -1283.1465939458126, -3926.620355441613, -3699.727797475791, -2484.5752101630223, -3055.08113564028, -2000.2799630498844, -7828.45262628229, -14458.874101504578, 0.014124999999999999, -0.10825, 0.988, 192.0, 0.0, 0.0, 0.0, 0.0, 0.0, 0.0, 0.0, 0.0, 0.0, 1.645923029155453E9, 0.0, 2022-02-27 11:50:29.155
46.0, 110.21645190911913, -2401.3820173003696, -1948.3345089357508, -8926.52677613816, 499.76265427621064, 642.322080412159, -4299.693322145143, -1379.5720195260071, -2397.693979465244, -3834.9558514303985, -3362.127049222833, -2400.5773544999784, -2677.359006090046, -1689.3224941876524, -7822.64117272391, -14560.105152142663, 0.0150625, -0.106125, 0.988, 192.0, 0.0, 64.0, 126.0, 96.0, 15.0, 112.0, 0.0, 0.0, 0.0, 1.645923029163033E9, 0.0, 2022-02-27 11:50:29.163
48.0, -575.4009575129697, -2949.826771000239, -2461.82113430752, -9488.248466044482, -127.09201897287596, 264.91287528429933, -4581.437061004289, -1697.9726192918563, -2976.715919579973, -4530.430380157278, -3737.9269287499105, -2616.875185593985, -3028.3037457828223, -2050.7949055188783, -8119.762911768307, -15182.377717778412, 0.0150625, -0.106125, 0.988, 192.0, 0.0, 0.0, 0.0, 0.0, 0.0, 0.0, 0.0, 0.0, 0.0, 1.645923029171058E9, 0.0, 2022-02-27 11:50:29.171
50.0, -21.23415723254171, -2498.8579748699635, -2001.7998816728452, -8980.796811675646, 410.8921183219097, 637.292937909715, -4232.302812612393, -1276.9551607316926, -1125.0303536689703, -3574.3568628259736, -3482.2900274145636, -2381.2207438016826, -2841.666679581008, -1776.047262674244, -7674.6949761742335, -14147.89428089789, 0.0150625, -0.106125, 0.988, 192.0, 0.0, 0.0, 0.0, 0.0, 0.0, 0.0, 0.0, 0.0, 0.0, 1.645923029185115E9, 0.0, 2022-02-27 11:50:29.185
52.0, -303.71550365871235, -2747.074097046149, -2280.9955216640856, -9278.253826886872, 116.1396641897755, 369.2284666572174, -4554.816133358018, -1682.8404882956133, -3630.951479786811, -4416.30237296848, -3497.2656961996195, -2537.9511759222955, -2763.6590914319863, -1823.7011818529586, -8086.4588125299, -15199.007415653161, 0.0150625, -0.106125, 0.988, 192.0, 0.0, 0.0, 0.0, 0.0, 0.0, 0.0, 0.0, 0.0, 0.0, 1.645923029192875E9, 0.0, 2022-02-27 11:50:29.192
54.0, -399.1574524828735, -2802.864051206595, -2272.8818384268093, -9279.93020772102, 86.79182371995732, 435.32257501156033, -4386.82042203193, -1440.9052063113697, -1325.324335732977, -3963.8583617041545, -3721.5878035530814, -2499.550878948078, -3075.1306504166905, -2003.7221316960017, -7837.5497862756, -14470.519360365792, 0.0150625, -0.106125, 0.988, 192.0, 0.0, 0.0, 0.0, 0.0, 0.0, 0.0, 0.0, 0.0, 0.0, 1.645923029200729E9, 0.0, 2022-02-27 11:50:29.200
56.0, 50.06790757988782, -2465.48682039819, -1958.1245730071753, -8933.411113430395, 499.8744129984872, 633.7837140302317, -4286.975179550073, -1382.6342085163842, -2400.8455754334423, -3854.558331317703, -3381.6401221323163, -2415.7988924740425, -2686.970256205828, -1691.401206421996, -7818.081416855028, -14559.456951553459, 0.01553125, -0.1060625, 0.988, 192.0, 0.0, 64.0, 126.0, 88.0, 15.0, 112.0, 0.0, 0.0, 0.0, 1.645923029207731E9, 0.0, 2022-02-27 11:50:29.207
58.0, -659.0858887536393, -3038.6973069545397, -2473.913428057841, -9498.932599894119, -139.36312667883954, 256.4639158801932, -4593.350540798967, -1699.6490001260042, -3035.4116005196097, -4566.684909663786, -3763.3185104511394, -2637.7293631707867, -3043.3241180567884, -2061.322577157328, -8122.199251913936, -15195.520543518132, 0.01553125, -0.1060625, 0.988, 192.0, 0.0, 0.0, 0.0, 0.0, 0.0, 0.0, 0.0, 0.0, 0.0, 1.645923029215266E9, 0.0, 2022-02-27 11:50:29.215
60.0, -128.2319579400966, -2612.0919122805494, -2010.293544565862, -8992.777346703691, 409.4839584212254, 643.3726124015585, -4241.087048183328, -1282.6548555677957, -1143.0011562110374, -3609.091473709521, -3510.0285422836, -2405.539441769057, -2853.4460489089547, -1783.7586145113248, -7678.762993665099, -14148.363667531452, 0.01553125, -0.1060625, 0.988, 192.0, 0.0, 0.0, 0.0, 0.0, 0.0, 0.0, 0.0, 0.0, 0.0, 1.645923029223411E9, 0.0, 2022-02-27 11:50:29.223
62.0, -440.7540489142, -2881.341025989178, -2289.869164212843, -9282.12067867764, 134.57985336540384, 391.06612099005235, -4539.214615728213, -1673.9444940024011, -3660.0087475787104, -4437.491826712111, -3520.131530777399, -2565.9579117247954, -2763.8602571320844, -1811.497129380361, -8083.776603195263, -15189.306758559556, 0.01553125, -0.1060625, 0.988, 192.0, 0.0, 0.0, 0.0, 0.0, 0.0, 0.0, 0.0, 0.0, 0.0, 1.645923029231352E9, 0.0, 2022-02-27 11:50:29.231
64.0, -570.3047597771597, -2970.725652065951, -2291.7243590026333, -9299.465632374959, 87.28356209797408, 438.51887446866925, -4380.785451028997, -1444.6155958909508, -1413.7478367981716, -4004.8961645240984, -3774.919065823444, -2552.4127545848796, -3083.177278420601, -2013.6910097230686, -7845.372896834958, -14485.003290772831, 0.01553125, -0.1060625, 0.988, 192.0, 0.0, 0.0, 0.0, 0.0, 0.0, 0.0, 0.0, 0.0, 0.0, 1.64592302923745E9, 0.0, 2022-02-27 11:50:29.237
66.0, -108.47301584160518, -2613.6341826479656, -1966.037090544354, -8934.640459375436, 512.9948869937524, 659.6223306205667, -4269.496115386023, -1364.998682141147, -2423.107912910928, -3873.6243693380798, -3429.316393055486, -2456.3896604048805, -2691.127680674515, -1700.5207181597614, -7809.207774306271, -14540.189747832985, 0.012765625, -0.10903125, 0.986, 192.0, 0.0, 40.0, 126.0, 64.0, 15.0, 96.0, 0.0, 0.0, 0.0, 1.645923029245097E9, 0.0, 2022-02-27 11:50:29.245
68.0, -778.0195210003283, -3148.1314478077234, -2481.2224484947265, -9499.983131883519, -125.68385907219161, 279.8661923248997, -4579.380700514401, -1683.5780958626385, -3126.80788359736, -4613.064779408548, -3799.595391702103, -2671.838125209585, -3033.019963862892, -2043.8882164821885, -8118.600621056631, -15197.219276096735, 0.012765625, -0.10903125, 0.986, 192.0, 0.0, 0.0, 0.0, 0.0, 0.0, 0.0, 0.0, 0.0, 0.0, 1.6459230292531E9, 0.0, 2022-02-27 11:50:29.253
70.0, -216.4319415607383, -2686.7020352723644, -2025.000992417454, -8996.331274072085, 408.03109503163046, 657.5659701306785, -4225.440827064613, -1257.263273866567, -1172.3937001697661, -3627.531662885149, -3540.8515978874684, -2427.399447846347, -2857.84934256665, -1767.7771172257803, -7672.035118584052, -14139.17710056032, 0.012765625, -0.10903125, 0.986, 192.0, 0.0, 0.0, 0.0, 0.0, 0.0, 0.0, 0.0, 0.0, 0.0, 1.645923029261136E9, 0.0, 2022-02-27 11:50:29.261
72.0, -442.63159544844575, -2884.805546379751, -2274.6476262387787, -9264.909835447053, 143.96758603663278, 401.72790309523384, -4536.3759441823895, -1664.2885403977086, -3673.464497740805, -4428.931108585729, -3530.1674640378315, -2568.394251870424, -2758.9205216074615, -1814.1793387149978, -8073.2042280679025, -15173.951110118762, 0.012765625, -0.10903125, 0.986, 192.0, 0.0, 0.0, 0.0, 0.0, 0.0, 0.0, 0.0, 0.0, 0.0, 1.645923029267514E9, 0.0, 2022-02-27 11:50:29.267
74.0, -547.1483525214616, -2945.378773853633, -2293.3336846034153, -9298.929190508032, 70.5644572454044, 439.301185524605, -4395.515250625044, -1453.7351076287162, -1440.0781917665233, -4026.9573363014865, -3767.140658752997, -2545.6401760149215, -3084.808955765838, -2016.9767161579987, -7851.273757371159, -14502.34824447015, 0.012765625, -0.10903125, 0.986, 192.0, 0.0, 0.0, 0.0, 0.0, 0.0, 0.0, 0.0, 0.0, 0.0, 1.64592302927566E9, 0.0, 2022-02-27 11:50:29.275
76.0, -32.99117481603322, -2544.4108300698795, -1953.7883345828457, -8926.884404049446, 503.5177473447022, 657.5883218751338, -4274.547609632923, -1362.7858594400716, -2375.94573211023, -3852.680784783457, -3408.775139901059, -2437.167160173316, -2698.9507912338727, -1691.0212267662557, -7813.789881919609, -14527.471605237915, 0.012, -0.106, 0.988, 192.0, 0.0, 48.0, 126.0, 88.0, 15.0, 112.0, 0.0, 0.0, 0.0, 1.645923029283572E9, 0.0, 2022-02-27 11:50:29.283
78.0, -701.9565346189183, -3081.6350080531847, -2472.326454201514, -9501.011312128463, -134.4233911542167, 267.1704014742853, -4584.231029061202, -1705.013418795278, -3120.1023602607684, -4582.308779038046, -3763.1620482399526, -2647.5641307311216, -3028.88489113866, -2042.4577048370488, -8127.116635694103, -15209.53508729161, 0.012, -0.106, 0.988, 192.0, 0.0, 0.0, 0.0, 0.0, 0.0, 0.0, 0.0, 0.0, 0.0, 1.645923029290644E9, 0.0, 2022-02-27 11:50:29.290
80.0, -131.16003646374185, -2608.0238947896833, -2015.1662248571188, -9001.047492152155, 397.0563885040747, 629.6709930504553, -4232.459274823579, -1296.0435504965246, -1139.3131183759117, -3614.9699825012667, -3516.443492942273, -2411.2838400940705, -2862.7443746023628, -1786.68669303497, -7675.857266885909, -14148.698943698282, 0.012, -0.106, 0.988, 192.0, 0.0, 0.0, 0.0, 0.0, 0.0, 0.0, 0.0, 0.0, 0.0, 1.645923029297199E9, 0.0, 2022-02-27 11:50:29.297
82.0, -357.9855391961979, -2811.5588797997093, -2262.510628999547, -9267.033251170309, 133.574024864915, 389.1662227113513, -4539.952223295239, -1682.8404882956133, -3634.9747937887664, -4402.6007536173765, -3503.188908480276, -2550.803428984097, -2754.9866145833275, -1806.1103589666318, -8075.417050768978, -15179.047307854571, 0.012, -0.106, 0.988, 192.0, 0.0, 0.0, 0.0, 0.0, 0.0, 0.0, 0.0, 0.0, 0.0, 1.645923029313298E9, 0.0, 2022-02-27 11:50:29.313
84.0, -470.7277382287667, -2881.698653900463, -2284.1247658878287, -9308.875716790642, 54.82882914886822, 429.26525226417215, -4396.923410525729, -1460.4182792208528, -1420.6992293237722, -4018.418969919559, -3745.727687564813, -2531.0668386300613, -3087.2005924225564, -2015.7473702129569, -7856.1911411513265, -14515.133442298586, 0.012, -0.106, 0.988, 192.0, 0.0, 0.0, 0.0, 0.0, 0.0, 0.0, 0.0, 0.0, 0.0, 1.645923029320313E9, 0.0, 2022-02-27 11:50:29.320
86.0, 39.517884196982884, -2481.557724661556, -1938.3209274197732, -8930.326572695563, 504.7023898008335, 645.9654147583741, -4267.775031062964, -1370.2289903436888, -2322.5474146065017, -3838.1297991430524, -3382.578895399439, -2421.7444564991542, -2695.7544917767636, -1699.3584274480854, -7806.7714341606425, -14525.839927892677, 0.014, -0.10200000000000001, 0.984, 192.0, 0.0, 56.0, 126.0, 104.0, 15.0, 96.0, 0.0, 0.0, 0.0, 1.645923029327833E9, 0.0, 2022-02-27 11:50:29.327
88.0, -628.3522401275922, -3011.4505304635204, -2461.597616862967, -9498.999655127485, -135.1162952323312, 263.19179096124066, -4589.863668663939, -1700.1854419929318, -3117.5095579039526, -4577.391395257878, -3734.3506496370615, -2634.9130433694177, -3020.3912282456436, -2049.4538008515597, -8130.447045617944, -15226.343599122001, 0.014, -0.10200000000000001, 0.984, 192.0, 0.0, 0.0, 0.0, 0.0, 0.0, 0.0, 0.0, 0.0, 0.0, 1.645923029335824E9, 0.0, 2022-02-27 11:50:29.335
90.0, -77.33703581536244, -2562.9180744788737, -2013.422788789605, -9005.294323598662, 398.33043793802716, 634.9683564863631, -4242.9422429731185, -1292.646085339318, -1100.0187516234819, -3591.3888921009175, -3502.2948387020638, -2398.006903887618, -2869.159325261036, -1788.5418878247606, -7680.104098332417, -14149.570661732037, 0.014, -0.10200000000000001, 0.984, 192.0, 0.0, 0.0, 0.0, 0.0, 0.0, 0.0, 0.0, 0.0, 0.0, 1.645923029342968E9, 0.0, 2022-02-27 11:50:29.342
92.0, -285.3647214609053, -2749.644547658509, -2245.210378791139, -9253.957480663954, 141.66535635773616, 396.0058565146752, -4545.316641964512, -1681.5217353727503, -3594.9428194693114, -4389.524983111022, -3477.439698867762, -2538.5770247670443, -2744.1460185225033, -1801.2823821642855, -8067.236312298336, -15168.027897838105, 0.014, -0.10200000000000001, 0.984, 192.0, 0.0, 0.0, 0.0, 0.0, 0.0, 0.0, 0.0, 0.0, 0.0, 1.645923029350503E9, 0.0, 2022-02-27 11:50:29.350
94.0, -412.72496136724493, -2829.3955718750444, -2279.050919896474, -9302.952504509987, 44.77054414398005, 429.66758366436767, -4433.647326665799, -1485.765157433171, -1417.2794124221102, -4008.1818709590284, -3724.985268710288, -2516.292335545103, -3085.121880188213, -2016.9320126690882, -7862.427277854357, -14524.476471480904, 0.014, -0.10200000000000001, 0.984, 192.0, 0.0, 0.0, 0.0, 0.0, 0.0, 0.0, 0.0, 0.0, 0.0, 1.645923029358468E9, 0.0, 2022-02-27 11:50:29.358
96.0, 90.56926853290422, -2438.172988673805, -1932.710639561491, -8923.352828425506, 508.2116136803167, 665.8584673235974, -4257.537932102434, -1365.736289708172, -2269.6184837363344, -3811.75474068579, -3365.837438802414, -2408.6239825038892, -2693.720483031331, -1694.4410436679177, -7801.697588169288, -14511.40070097455, 0.014, -0.10400000000000001, 0.986, 192.0, 0.0, 56.0, 126.0, 96.0, 15.0, 104.0, 0.0, 0.0, 0.0, 1.645923029365526E9, 0.0, 2022-02-27 11:50:29.365
98.0, -576.4067860134585, -2970.0327479878365, -2451.427573135802, -9493.501125991479, -124.52156836051564, 274.47942191117073, -4581.057081348548, -1721.53135794775, -3122.538700406397, -4560.5605316830315, -3715.3293151055955, -2624.8547583645295, -3007.606030417208, -2040.4013443471606, -8121.059312946715, -15225.605991554976, 0.014, -0.10400000000000001, 0.986, 192.0, 0.0, 0.0, 0.0, 0.0, 0.0, 0.0, 0.0, 0.0, 0.0, 1.645923029372716E9, 0.0, 2022-02-27 11:50:29.372
100.0, -42.35655574280688, -2526.1941583388043, -2015.6579632351356, -9006.233096865786, 380.2925801625944, 624.0160017032625, -4248.50782734249, -1312.2038617377118, -1068.3910332192222, -3581.397662329395, -3487.4756321281952, -2386.607514215412, -2865.292473470268, -1793.012236715822, -7672.862133128898, -14152.476388511228, 0.014, -0.10400000000000001, 0.986, 192.0, 0.0, 0.0, 0.0, 0.0, 0.0, 0.0, 0.0, 0.0, 0.0, 1.64592302938016E9, 0.0, 2022-02-27 11:50:29.380
102.0, -172.60017068388115, -2643.6749271958984, -2182.4913838495477, -9184.82353506369, 222.19869163020752, 451.0134996191859, -4472.1593823622925, -1648.3517466010746, -3518.902184832357, -4339.5241307645, -3448.896521198335, -2511.1737860648377, -2733.3054224616794, -1786.105547679132, -8049.69019290092, -15143.083351025982, 0.014, -0.10400000000000001, 0.986, 192.0, 0.0, 0.0, 0.0, 0.0, 0.0, 0.0, 0.0, 0.0, 0.0, 1.645923029388172E9, 0.0, 2022-02-27 11:50:29.388
104.0, -271.2831224540618, -2705.030465725716, -2199.5234131244915, -9213.478471455392, 161.98309206761027, 495.98520946326374, -4366.078003177405, -1450.4270494493305, -1789.078329691688, -4062.8095344077988, -3645.860093338501, -2462.044651752073, -2986.662445862585, -1940.7349158209463, -7857.286376629637, -14662.14086558114, 0.014, -0.10400000000000001, 0.986, 192.0, 0.0, 0.0, 0.0, 0.0, 0.0, 0.0, 0.0, 0.0, 0.0, 1.645923029396195E9, 0.0, 2022-02-27 11:50:29.396
106.0, -302.68732341376824, -2760.1722192969587, -2277.441594295692, -9272.285911117306, 105.61199255132587, 385.65699883186807, -4496.969818707683, -1594.5287459526953, -2193.6225525882905, -3973.0449286752855, -3539.756362409158, -2505.362332506458, -2881.1175085446253, -1858.2122752919527, -7903.286266718658, -14644.61709792818, 0.02, -0.11, 0.988, 192.0, 0.0, 80.0, 126.0, 72.0, 15.0, 112.0, 0.0, 0.0, 0.0, 1.645923029403215E9, 0.0, 2022-02-27 11:50:29.403
108.0, -100.9851814490773, -2556.7266412647537, -2074.286588941406, -9075.389394210506, 314.04200959706424, 594.0199606442405, -4294.1277377757715, -1404.4942145936745, -2262.242408066083, -4039.4072579630924, -3532.4026384833624, -2477.199134492771, -2872.0650520402255, -1862.2132375494525, -7907.75661560972, -14667.23706331695, 0.02, -0.11, 0.988, 192.0, 0.0, 0.0, 0.0, 0.0, 0.0, 0.0, 0.0, 0.0, 0.0, 1.645923029410808E9, 0.0, 2022-02-27 11:50:29.410
110.0, -253.44643037872677, -2710.841919284096, -2226.2560994930386, -9235.092608343675, 150.69546111768022, 429.689935408823, -4472.114678873382, -1571.8417253305586, -2234.883872852787, -3975.190696142995, -3482.5806000924827, -2402.6113632454117, -2817.996182202838, -1791.0899866926654, -7835.336963574525, -14676.535389010358, 0.02, -0.11, 0.988, 192.0, 0.0, 0.0, 0.0, 0.0, 0.0, 0.0, 0.0, 0.0, 0.0, 1.645923029418805E9, 0.0, 2022-02-27 11:50:29.418
112.0, -209.25703159058472, -2659.0082238922387, -2190.5603635979132, -9186.276398453283, 201.45627277568255, 484.8987442134314, -4415.318896212447, -1515.2918118586317, -2423.756113500132, -4178.613922430744, -3653.0350033086543, -2603.777063343175, -2997.860669834694, -1977.458831961016, -8039.318983473657, -14822.358169836782, 0.02, -0.11, 0.988, 192.0, 0.0, 0.0, 0.0, 0.0, 0.0, 0.0, 0.0, 0.0, 0.0, 1.645923029432475E9, 0.0, 2022-02-27 11:50:29.432
114.0, -127.18142595069719, -2582.744071810731, -2106.674266657146, -9117.053045875198, 272.11013699890816, 555.1726287809169, -4339.591185997866, -1438.2900522100988, -2120.241775541517, -3896.1325760045743, -3422.0073726186006, -2335.198501968205, -2760.5521989526987, -1730.6061661966046, -7780.865762336942, -14590.704690301978, 0.02, -0.11, 0.988, 192.0, 0.0, 0.0, 0.0, 0.0, 0.0, 0.0, 0.0, 0.0, 0.0, 1.645923029440353E9, 0.0, 2022-02-27 11:50:29.440
116.0, -314.243175297162, -2766.5201147222656, -2295.770024749044, -9295.107042206173, 79.7510242165356, 368.6249695569241, -4511.811377026007, -1625.0835806231, -2382.271275791082, -4120.857014758231, -3593.892287479912, -2531.7373909637204, -2935.119323148647, -1912.6387730406254, -7966.564055271632, -14803.627407983233, 0.018000000000000002, -0.112, 0.986, 192.0, 0.0, 72.0, 126.0, 64.0, 15.0, 104.0, 0.0, 0.0, 0.0, 1.6459230294485E9, 0.0, 2022-02-27 11:50:29.448
118.0, -82.83556495136797, -2535.69364973231, -2068.139859216197, -9067.32041446214, 313.5949747079581, 609.9567544408744, -4300.721502390087, -1391.8207754875154, -2234.146265285762, -4045.2634150103827, -3536.381248996407, -2474.9639600472406, -2877.0047875648484, -1853.7642781453465, -7911.422301700391, -14675.373098298682, 0.018000000000000002, -0.112, 0.986, 192.0, 0.0, 0.0, 0.0, 0.0, 0.0, 0.0, 0.0, 0.0, 0.0, 1.645923029455105E9, 0.0, 2022-02-27 11:50:29.455
120.0, -247.67968030925755, -2704.1810994364146, -2228.4912739385695, -9232.656268198047, 151.3213099624288, 443.3692030154709, -4475.534495775044, -1568.1089840065222, -2235.085038552885, -3972.26261761935, -3474.3328063884746, -2386.942790382241, -2809.0107809318047, -1771.040471916255, -7833.593527507011, -14675.373098298682, 0.018000000000000002, -0.112, 0.986, 192.0, 0.0, 0.0, 0.0, 0.0, 0.0, 0.0, 0.0, 0.0, 0.0, 1.645923029463162E9, 0.0, 2022-02-27 11:50:29.463
122.0, -216.94603168321035, -2668.708880985842, -2197.377645656782, -9194.479488668381, 183.97720861163242, 485.27872386917164, -4413.642515378298, -1512.117864145978, -2412.4461308057466, -4189.901553380675, -3666.088422070554, -2618.5739181725885, -3008.0977687952245, -1979.1575645396192, -8036.122684016548, -14810.444690042103, 0.018000000000000002, -0.112, 0.986, 192.0, 0.0, 0.0, 0.0, 0.0, 0.0, 0.0, 0.0, 0.0, 0.0, 1.645923029471136E9, 0.0, 2022-02-27 11:50:29.471
124.0, -113.45745485513865, -2573.3786908839575, -2097.487699686015, -9108.335865537629, 295.6688756548018, 558.8383148715872, -4320.793368910953, -1440.8605028224592, -2118.4983394740034, -3901.9887330518645, -3416.218270804676, -2333.4103624117806, -2751.4550389593887, -1726.7616661502918, -7771.120401754428, -14578.41123085156, 0.018000000000000002, -0.112, 0.986, 192.0, 0.0, 0.0, 0.0, 0.0, 0.0, 0.0, 0.0, 0.0, 0.0, 1.645923029478245E9, 0.0, 2022-02-27 11:50:29.478
126.0, -327.81068418153336, -2781.1828590849473, -2310.0080859670743, -9311.55792612528, 73.58194274687085, 363.50642007665874, -4523.724856820686, -1612.5889554725834, -2391.368435784392, -4127.808407283832, -3601.0671974500656, -2541.2145306127704, -2945.311718620267, -1915.9691829644662, -7965.200598859859, -14801.615750982255, 0.016, -0.106, 0.988, 192.0, 0.0, 64.0, 126.0, 88.0, 15.0, 112.0, 0.0, 0.0, 0.0, 1.645923029485159E9, 0.0, 2022-02-27 11:50:29.485
128.0, -80.51098352801604, -2536.1853881103266, -2071.2691034399395, -9069.689699374401, 319.7193526887122, 601.8207194591427, -4297.905182588718, -1392.4913278211748, -2234.146265285762, -4045.5316359438466, -3544.964318867245, -2488.2855997426036, -2893.321561017223, -1866.8624003961565, -7916.317333736102, -14670.209845329506, 0.016, -0.106, 0.988, 192.0, 0.0, 0.0, 0.0, 0.0, 0.0, 0.0, 0.0, 0.0, 0.0, 1.645923029492803E9, 0.0, 2022-02-27 11:50:29.492
130.0, -246.8973692533218, -2701.811814524152, -2232.8051606184436, -9242.468684013926, 144.81695232593447, 424.43727546182583, -4460.73764094563, -1571.1488212524441, -2249.054878837452, -3966.9205506945314, -3468.990739463656, -2388.6862264497554, -2815.671600779486, -1777.142498152554, -7833.258251340181, -14685.230217603472, 0.016, -0.106, 0.988, 192.0, 0.0, 0.0, 0.0, 0.0, 0.0, 0.0, 0.0, 0.0, 0.0, 1.64592302950085E9, 0.0, 2022-02-27 11:50:29.500
132.0, -214.04030490402045, -2667.256017596247, -2204.373741671293, -9205.67771264049, 170.29794100498452, 470.41481380639243, -4414.067198522949, -1513.1013409020115, -2404.824185946487, -4198.283457551415, -3663.182695291364, -2622.3066594966244, -3019.5865654452523, -1994.7367304249683, -8040.6824398854305, -14822.782852981432, 0.016, -0.106, 0.988, 192.0, 0.0, 0.0, 0.0, 0.0, 0.0, 0.0, 0.0, 0.0, 0.0, 1.645923029507929E9, 0.0, 2022-02-27 11:50:29.507
134.0, -105.29906812895157, -2567.6342925589433, -2097.063016541364, -9111.75568243929, 286.6834743837684, 557.4748584598135, -4346.00613665654, -1446.806066847571, -2124.063923843375, -3912.2481837568503, -3409.9374306127347, -2336.27138570206, -2755.2101320278803, -1733.0648580866884, -7776.037785534595, -14588.469515856448, 0.016, -0.106, 0.988, 192.0, 0.0, 0.0, 0.0, 0.0, 0.0, 0.0, 0.0, 0.0, 0.0, 1.645923029515479E9, 0.0, 2022-02-27 11:50:29.515
136.0, -335.07500112950817, -2784.8485451756173, -2313.0702749574516, -9318.12933899514, 60.21559956259723, 354.8339432279996, -4558.571226426509, -1637.6229092625272, -2390.13908983935, -4134.96096550953, -3598.407339859884, -2537.302975333092, -2943.0765441747362, -1916.2374038979299, -7968.419250061424, -14814.959742422074, 0.016, -0.112, 0.984, 192.0, 0.0, 64.0, 126.0, 64.0, 15.0, 96.0, 0.0, 0.0, 0.0, 1.645923029523309E9, 0.0, 2022-02-27 11:50:29.523
138.0, -85.71893998610258, -2542.041545157617, -2065.278835925917, -9074.987062810309, 324.48027425769266, 600.1219868805393, -4261.695356571121, -1381.7848422270827, -2239.2871665104826, -4049.644356923623, -3549.121743335932, -2495.2593440126593, -2899.5576977202536, -1874.2161243219525, -7911.422301700391, -14673.629662231167, 0.016, -0.112, 0.984, 192.0, 0.0, 0.0, 0.0, 0.0, 0.0, 0.0, 0.0, 0.0, 0.0, 1.645923029531442E9, 0.0, 2022-02-27 11:50:29.531
140.0, -261.0460234935312, -2717.3015734316796, -2230.9723175731087, -9248.794227694778, 154.47290593062712, 425.86778710696547, -4450.9699286186615, -1579.9777603122902, -2260.409565020748, -3990.322827139238, -3472.4329081097735, -2400.2867818220598, -2811.894155966539, -1791.0229314592996, -7819.131948844427, -14688.493572293946, 0.016, -0.112, 0.984, 192.0, 0.0, 0.0, 0.0, 0.0, 0.0, 0.0, 0.0, 0.0, 0.0, 1.645923029538151E9, 0.0, 2022-02-27 11:50:29.538
142.0, -233.53102606904818, -2687.6631602839425, -2211.1686719857066, -9217.59119243517, 162.78775486800134, 462.3681858024819, -4421.286811982013, -1514.44244556933, -2407.9757819146853, -4196.204745317072, -3674.20210530783, -2637.3717352595017, -3028.9742981164814, -2008.907736409633, -8037.284974728224, -14820.570030280356, 0.016, -0.112, 0.984, 192.0, 0.0, 0.0, 0.0, 0.0, 0.0, 0.0, 0.0, 0.0, 0.0, 1.645923029545088E9, 0.0, 2022-02-27 11:50:29.545
144.0, -115.29029790047383, -2578.720757808776, -2102.4050834661825, -9117.477729019849, 279.083881268964, 570.841201644087, -4359.1042589073495, -1453.8915698399032, -2146.7509444655116, -3916.830291370188, -3420.554509229006, -2349.9730050531634, -2766.2742455332573, -1744.307785547708, -7777.915332068841, -14588.201294922985, 0.016, -0.112, 0.984, 192.0, 0.0, 0.0, 0.0, 0.0, 0.0, 0.0, 0.0, 0.0, 0.0, 1.645923029560216E9, 0.0, 2022-02-27 11:50:29.560
146.0, -341.0652686435305, -2796.4043970590114, -2320.491054116613, -9332.054475790796, 55.0523465934213, 353.35872809394937, -4547.037726287571, -1627.8328451911027, -2394.8776596638754, -4135.273889931905, -3604.151738184898, -2545.0813824035386, -2956.308776892278, -1922.2053196674967, -7976.667043765431, -14813.26100984347, 0.01, -0.1, 0.976, 192.0, 0.0, 40.0, 126.0, 112.0, 15.0, 64.0, 0.0, 0.0, 0.0, 1.645923029567591E9, 0.0, 2022-02-27 11:50:29.567
148.0, -88.40114932073944, -2548.1882748828266, -2070.2632749394506, -9079.859743101566, 316.54540497605865, 600.5913735141007, -4267.037423495939, -1370.1172316214124, -2241.477637467103, -4060.9766913624635, -3556.9895573842, -2511.1514343203826, -2906.732607690407, -1890.3093803297736, -7912.405778456424, -14671.729763952466, 0.01, -0.1, 0.976, 192.0, 0.0, 0.0, 0.0, 0.0, 0.0, 0.0, 0.0, 0.0, 0.0, 1.64592302957551E9, 0.0, 2022-02-27 11:50:29.575
150.0, -257.40268914731615, -2719.8496722995847, -2235.82264611991, -9255.700916731468, 153.78000185251258, 413.9543073122868, -4459.754164189597, -1581.989417313268, -2268.5456000024797, -4000.001132488386, -3472.902294743335, -2403.3713225568918, -2816.789188002251, -1800.7459402973582, -7822.529414001634, -14696.29433110885, 0.01, -0.1, 0.976, 192.0, 0.0, 0.0, 0.0, 0.0, 0.0, 0.0, 0.0, 0.0, 0.0, 1.645923029583637E9, 0.0, 2022-02-27 11:50:29.583
152.0, -241.60000581741403, -2696.9838377218057, -2219.237651734072, -9223.424997738004, 162.85481010136726, 456.2214560772725, -4442.722134914653, -1518.510463060196, -2399.8173951884983, -4205.503071010479, -3674.492677985749, -2639.1375230714707, -3031.6788591955733, -2019.7036289815462, -8042.82820735314, -14830.449501329602, 0.01, -0.1, 0.976, 192.0, 0.0, 0.0, 0.0, 0.0, 0.0, 0.0, 0.0, 0.0, 0.0, 1.645923029590171E9, 0.0, 2022-02-27 11:50:29.590
154.0, -127.82962653990108, -2591.0589207481053, -2105.959010834576, -9118.61766798707, 280.6485033808355, 556.7372508927883, -4321.978011367084, -1430.9810317732135, -2158.1056306488076, -3917.2773262592946, -3425.8965761538243, -2358.265502246082, -2768.934103123439, -1750.9239019064787, -7777.177724501816, -14594.683300815022, 0.009000000000000001, -0.099, 0.98, 192.0, 0.0, 32.0, 126.0, 120.0, 15.0, 96.0, 0.0, 0.0, 0.0, 1.645923029598243E9, 0.0, 2022-02-27 11:50:29.598
156.0, -353.7610594941449, -2812.162376900003, -2326.8836530308313, -9337.888281093632, 54.78412565995761, 342.853408199955, -4524.015429498605, -1651.4809908248176, -2401.180851600272, -4142.001765012952, -3609.5608603430824, -2556.4807720757453, -2960.086221705225, -1942.388944910639, -7962.227816847303, -14822.112300647772, 0.009000000000000001, -0.099, 0.98, 192.0, 0.0, 0.0, 0.0, 0.0, 0.0, 0.0, 0.0, 0.0, 0.0, 1.645923029606133E9, 0.0, 2022-02-27 11:50:29.606
158.0, -85.67423649719197, -2543.0920771470164, -2076.3653011757497, -9074.115344776554, 323.5191492461144, 600.680780491922, -4281.364891691791, -1388.4680138192193, -2237.2531577650498, -4060.775525662366, -3557.4812957622166, -2518.907489646374, -2913.214613582446, -1904.0557031697874, -7922.553470439133, -14678.725859966979, 0.009000000000000001, -0.099, 0.98, 192.0, 0.0, 0.0, 0.0, 0.0, 0.0, 0.0, 0.0, 0.0, 0.0, 1.645923029613299E9, 0.0, 2022-02-27 11:50:29.613
160.0, -268.22093346368473, -2722.643640356498, -2245.7244689136114, -9253.845721941678, 142.3582604358507, 413.10494102298514, -4450.2099693071805, -1551.7698588096928, -2278.0674431404404, -3982.522068324336, -3471.5388383315612, -2399.7726916995875, -2815.157510657014, -1795.6944460504587, -7820.160129089371, -14686.034880403862, 0.009000000000000001, -0.099, 0.98, 192.0, 0.0, 0.0, 0.0, 0.0, 0.0, 0.0, 0.0, 0.0, 0.0, 1.645923029619993E9, 0.0, 2022-02-27 11:50:29.619
162.0, -248.68550880974638, -2699.800157523174, -2226.8819483377874, -9220.943954103464, 154.67407163072488, 449.87356065196525, -4430.3616202308685, -1517.6610967708943, -2405.628848746878, -4212.387408302714, -3689.758919448724, -2648.18997957587, -3043.9723186459923, -2022.5423005273701, -8038.447265439901, -14817.105509889783, 0.009000000000000001, -0.099, 0.98, 192.0, 0.0, 0.0, 0.0, 0.0, 0.0, 0.0, 0.0, 0.0, 0.0, 1.645923029627799E9, 0.0, 2022-02-27 11:50:29.627
164.0, -125.0133067385324, -2585.873316034474, -2110.116435303263, -9112.694455706413, 285.7894046055561, 553.6974136468666, -4340.798180198452, -1439.5193981551408, -2165.4370028301482, -3923.4017042400487, -3429.96459364469, -2358.913702835286, -2768.352957767601, -1748.7110792054034, -7778.272959980126, -14588.402460623081, 0.0115, -0.0985, 0.983, 192.0, 0.0, 56.0, 126.0, 120.0, 15.0, 104.0, 0.0, 0.0, 0.0, 1.645923029635864E9, 0.0, 2022-02-27 11:50:29.635
166.0, -362.47823983171463, -2810.597754788131, -2342.4181154272696, -9335.18372001454, 42.803590631913025, 339.5453500205696, -4541.092162262459, -1645.110743655055, -2413.720180239699, -4150.115448250228, -3624.0000872612104, -2557.911283720885, -2968.6692915760627, -1938.879721031156, -7974.498924553267, -14822.402873325691, 0.0115, -0.0985, 0.983, 192.0, 0.0, 0.0, 0.0, 0.0, 0.0, 0.0, 0.0, 0.0, 0.0, 1.645923029642933E9, 0.0, 2022-02-27 11:50:29.642
168.0, -80.51098352801604, -2541.3709928239577, -2070.486792384004, -9070.963748808355, 326.5589864920362, 607.8556904620756, -4276.738080589543, -1374.386414812376, -2238.1025240543513, -4057.713336671989, -3564.410336543362, -2513.0513325990837, -2910.1077211031584, -1884.9002581715893, -7919.893612848951, -14673.38379304216, 0.0115, -0.0985, 0.983, 192.0, 0.0, 0.0, 0.0, 0.0, 0.0, 0.0, 0.0, 0.0, 0.0, 1.645923029650491E9, 0.0, 2022-02-27 11:50:29.650
170.0, -251.47947686665975, -2711.892451273495, -2237.6107856763347, -9247.564881749735, 154.87523733082264, 423.2079295167839, -4455.1944083207145, -1563.3480624375418, -2272.859486682354, -3979.9516177119754, -3465.5262190730837, -2393.402444529825, -2802.9534581844164, -1788.3854256135735, -7821.054198867584, -14697.613084031713, 0.0115, -0.0985, 0.983, 192.0, 0.0, 0.0, 0.0, 0.0, 0.0, 0.0, 0.0, 0.0, 0.0, 1.645923029658487E9, 0.0, 2022-02-27 11:50:29.658
172.0, -240.795343017023, -2695.575677821121, -2226.121989026307, -9218.597020935658, 167.70513864816888, 460.7365084572445, -4417.889346824807, -1503.7806634641486, -2390.0720346059843, -4203.424358776136, -3678.448936754339, -2641.2162353058143, -3031.0977138397357, -2015.1215213682083, -8036.659125883476, -14817.26197210097, 0.0115, -0.0985, 0.983, 192.0, 0.0, 0.0, 0.0, 0.0, 0.0, 0.0, 0.0, 0.0, 0.0, 1.645923029666169E9, 0.0, 2022-02-27 11:50:29.666
174.0, -100.69460877115831, -2568.2154379147814, -2095.9230775741435, -9099.08224333313, 311.4492072402486, 575.6468267019781, -4314.557232207922, -1417.704095566761, -2157.1892091261398, -3918.3725617376044, -3410.2056515461986, -2348.1625137522833, -2752.907902348984, -1735.7470674213253, -7770.338090698492, -14578.41123085156, 0.01175, -0.09825, 0.9855, 192.0, 0.0, 48.0, 126.0, 120.0, 15.0, 112.0, 0.0, 0.0, 0.0, 1.645923029680201E9, 0.0, 2022-02-27 11:50:29.680
176.0, -348.7319169917008, -2799.5559930272098, -2336.204330468694, -9329.305211222794, 60.70733794061398, 344.5074372896478, -4530.340973179456, -1626.245871334776, -2395.2129358307047, -4133.15047420865, -3599.010836960177, -2543.8073329695862, -2945.401125598088, -1923.680534801547, -7957.578654000599, -14806.041396384408, 0.01175, -0.09825, 0.9855, 192.0, 0.0, 0.0, 0.0, 0.0, 0.0, 0.0, 0.0, 0.0, 0.0, 1.645923029688187E9, 0.0, 2022-02-27 11:50:29.688
178.0, -59.96973037358885, -2510.5032337311786, -2067.178734204618, -9060.07844925862, 340.2159023542288, 613.9800684428297, -4277.721557345576, -1382.5224497941078, -2232.7157536406226, -4040.7260108859555, -3554.4638102607505, -2507.485748229712, -2904.676247200519, -1882.1733453480417, -7912.785758112163, -14665.784199927355, 0.01175, -0.09825, 0.9855, 192.0, 0.0, 0.0, 0.0, 0.0, 0.0, 0.0, 0.0, 0.0, 0.0, 1.645923029695316E9, 0.0, 2022-02-27 11:50:29.695
180.0, -266.36573867389427, -2722.2189572118473, -2248.7196026706224, -9249.285966072794, 155.47873443111592, 422.2468045052057, -4460.3576612898905, -1562.923379292891, -2283.923600187731, -3979.973969456431, -3463.0228236940893, -2388.1050810939173, -2804.2051558739136, -1780.5399633097607, -7816.919126143352, -14689.700566494534, 0.01175, -0.09825, 0.9855, 192.0, 0.0, 0.0, 0.0, 0.0, 0.0, 0.0, 0.0, 0.0, 0.0, 1.645923029702934E9, 0.0, 2022-02-27 11:50:29.702
182.0, -256.55332285801444, -2706.349218648579, -2238.6836694101894, -9228.118864073618, 161.82662985642312, 457.9201886558758, -4422.538509671511, -1509.502710044707, -2409.2274796041825, -4231.855777723286, -3693.6481229839474, -2659.187037847881, -3045.7381064579617, -2022.743466227468, -8036.055628783182, -14817.910172690175, 0.01175, -0.09825, 0.9855, 192.0, 0.0, 0.0, 0.0, 0.0, 0.0, 0.0, 0.0, 0.0, 0.0, 1.645923029712205E9, 0.0, 2022-02-27 11:50:29.712
184.0, -108.65182979724763, -2569.3106733930917, -2102.22626951054, -9105.966580625365, 301.5250327020923, 574.618646457034, -4326.38130502478, -1427.0694764935347, -2172.053119188919, -3917.9255268484985, -3418.967535372679, -2352.1858277542387, -2761.781544897741, -1741.4244105129733, -7772.685023866299, -14582.45689659797, 0.012875000000000001, -0.100125, 0.98575, 192.0, 0.0, 56.0, 126.0, 104.0, 15.0, 104.0, 0.0, 0.0, 0.0, 1.645923029718752E9, 0.0, 2022-02-27 11:50:29.718
186.0, -359.5278095636141, -2808.407283831511, -2341.8593218158867, -9337.262432248883, 49.35265175731799, 334.9408906627763, -4547.507112921133, -1640.3498220860747, -2408.445168548247, -4151.590663384279, -3608.107996953487, -2553.396231340913, -2955.3700036251553, -1936.3316221632508, -7964.597101759566, -14814.065672643861, 0.012875000000000001, -0.100125, 0.98575, 192.0, 0.0, 0.0, 0.0, 0.0, 0.0, 0.0, 0.0, 0.0, 0.0, 1.645923029725333E9, 0.0, 2022-02-27 11:50:29.725
188.0, -84.64605625224785, -2533.838454942519, -2076.387652920205, -9066.716917361846, 335.6114429964355, 606.8498619615867, -4280.94020854714, -1374.095842134457, -2249.546617215469, -4056.1487145601172, -3564.3209295655406, -2519.265117557659, -2919.7413229633958, -1901.3734938351506, -7922.799339628142, -14666.968842383487, 0.012875000000000001, -0.100125, 0.98575, 192.0, 0.0, 0.0, 0.0, 0.0, 0.0, 0.0, 0.0, 0.0, 0.0, 1.645923029732407E9, 0.0, 2022-02-27 11:50:29.732
190.0, -259.2578839371066, -2702.2812011577134, -2244.249253779561, -9246.581404993702, 151.12014426233105, 423.72201963925596, -4461.430545023745, -1563.4821729042737, -2305.0236469535407, -3992.5356498403135, -3465.8838469843686, -2390.496717750635, -2811.447121077433, -1780.0482249317438, -7822.2611930681705, -14688.739441482956, 0.012875000000000001, -0.100125, 0.98575, 192.0, 0.0, 0.0, 0.0, 0.0, 0.0, 0.0, 0.0, 0.0, 0.0, 1.645923029740364E9, 0.0, 2022-02-27 11:50:29.740
192.0, -251.9041600113106, -2688.221953895325, -2238.0131170765303, -9229.63878269658, 152.32713846291765, 442.4974849817139, -4430.652192908788, -1526.0653526860897, -2410.657991249322, -4206.039512877406, -3690.138899104464, -2643.3396510290686, -3043.79350469035, -2021.1564923711412, -8043.4987596867995, -14822.872259959253, 0.012875000000000001, -0.100125, 0.98575, 192.0, 0.0, 0.0, 0.0, 0.0, 0.0, 0.0, 0.0, 0.0, 0.0, 1.645923029748383E9, 0.0, 2022-02-27 11:50:29.748
194.0, -95.12902440178686, -2545.9978039262064, -2092.8161850948554, -9099.953961366888, 301.4803292131817, 572.5622859671457, -4325.420180013201, -1431.09279049549, -2174.735328523556, -3892.399834680538, -3416.5982504604162, -2339.9370717927304, -2755.7018704058974, -1742.8996256470234, -7777.177724501816, -14589.587103079213, 0.0114375, -0.1010625, 0.984875, 192.0, 0.0, 40.0, 126.0, 104.0, 15.0, 96.0, 0.0, 0.0, 0.0, 1.645923029755143E9, 0.0, 2022-02-27 11:50:29.755
196.0, -354.1410391498851, -2793.9457051689274, -2338.663022358778, -9337.664763649078, 37.72974464055832, 330.17996909379593, -4551.105743778437, -1644.9989849327785, -2408.825148203987, -4138.425485900103, -3600.240182905219, -2534.6654694873655, -2949.2679773888563, -1928.4414563705275, -7959.880883679496, -14817.150213378694, 0.0114375, -0.1010625, 0.984875, 192.0, 0.0, 0.0, 0.0, 0.0, 0.0, 0.0, 0.0, 0.0, 0.0, 1.645923029762925E9, 0.0, 2022-02-27 11:50:29.762
198.0, -75.07950962537642, -2524.2495565711924, -2075.31476918635, -9070.114382519054, 321.99923062315355, 594.2211263443382, -4293.27837148647, -1386.9704469407138, -2251.155942816251, -4070.5655897337906, -3564.8126679435577, -2519.108655346472, -2922.1329596201135, -1904.1227584031533, -7929.706028664831, -14678.14471461114, 0.0114375, -0.1010625, 0.984875, 192.0, 0.0, 0.0, 0.0, 0.0, 0.0, 0.0, 0.0, 0.0, 0.0, 1.645923029770952E9, 0.0, 2022-02-27 11:50:29.770
200.0, -239.54364532752578, -2684.8244887381184, -2238.124875798807, -9237.283079300294, 148.7508593500685, 423.29733649460513, -4466.45968752619, -1566.6784723613825, -2296.9993706940854, -3985.450146847981, -3458.1724951472875, -2375.208124543205, -2807.580269286665, -1782.5963237996489, -7821.16595758986, -14687.420688560092, 0.0114375, -0.1010625, 0.984875, 192.0, 0.0, 0.0, 0.0, 0.0, 0.0, 0.0, 0.0, 0.0, 0.0, 1.645923029778268E9, 0.0, 2022-02-27 11:50:29.778
202.0, -246.8973692533218, -2687.3725876060234, -2246.1268003138066, -9228.16356756253, 145.5992633818702, 441.1116768254849, -4442.431562236734, -1528.1664166648886, -2411.9096889388193, -4194.416605760647, -3687.791965936657, -2629.190996788859, -3050.8119524493163, -2020.9553266710434, -8047.16444577747, -14820.100643646794, 0.0114375, -0.1010625, 0.984875, 192.0, 0.0, 0.0, 0.0, 0.0, 0.0, 0.0, 0.0, 0.0, 0.0, 1.645923029785629E9, 0.0, 2022-02-27 11:50:29.785
204.0, -89.33992258786233, -2542.332117835536, -2096.459519441071, -9096.332978765127, 300.8544803684331, 558.8159631271319, -4332.528034749989, -1434.579662630518, -2187.1405466962515, -3908.7613116218226, -3416.955878371701, -2339.5570921369904, -2767.838867645129, -1746.274739059775, -7781.156335014861, -14584.580312321224, 0.012718750000000001, -0.10353124999999999, 0.9844375, 192.0, 0.0, 56.0, 126.0, 88.0, 15.0, 96.0, 0.0, 0.0, 0.0, 1.645923029792693E9, 0.0, 2022-02-27 11:50:29.792
206.0, -335.1644081073294, -2775.5278677377546, -2336.047868257507, -9336.435417704037, 36.36628822878459, 328.61534698192446, -4559.778220627096, -1655.1019734265774, -2414.234270362171, -4131.094113718762, -3599.346113127007, -2528.5410915066113, -2957.739288537418, -1931.3024796608067, -7966.049965149161, -14816.323198833848, 0.012718750000000001, -0.10353124999999999, 0.9844375, 192.0, 0.0, 0.0, 0.0, 0.0, 0.0, 0.0, 0.0, 0.0, 0.0, 1.64592302980734E9, 0.0, 2022-02-27 11:50:29.807
208.0, -50.336128513351504, -2499.2826580146143, -2068.02810049392, -9063.721783604835, 319.0711520995083, 595.6292862450226, -4297.681665144166, -1391.6643132763284, -2244.0033845905527, -4052.0806970692515, -3560.6775952193257, -2508.8939081303965, -2920.657744486063, -1902.871060713656, -7936.076275834594, -14678.882322178164, 0.012718750000000001, -0.10353124999999999, 0.9844375, 192.0, 0.0, 0.0, 0.0, 0.0, 0.0, 0.0, 0.0, 0.0, 0.0, 1.645923029815275E9, 0.0, 2022-02-27 11:50:29.815
210.0, -209.79347345751208, -2659.835238437085, -2227.083114037885, -9233.930317631999, 148.79556283897912, 429.0417348196191, -4472.204085851203, -1575.1050800210335, -2283.7447862320887, -3962.673719248023, -3446.1472566303323, -2368.6814151622552, -2793.2304493463575, -1772.4486318169395, -7822.842338424009, -14691.220485117494, 0.012718750000000001, -0.10353124999999999, 0.9844375, 192.0, 0.0, 0.0, 0.0, 0.0, 0.0, 0.0, 0.0, 0.0, 0.0, 1.645923029823249E9, 0.0, 2022-02-27 11:50:29.823
212.0, -216.34253458291707, -2659.969348903817, -2234.190968774673, -9228.49884372936, 143.31938544742889, 448.1301245844513, -4458.748335689108, -1542.7397540497489, -2383.2100490582047, -4175.708195651555, -3666.758974404213, -2623.133674041471, -3031.5671004732967, -2007.901907909144, -8047.834998111129, -14827.901402461697, 0.012718750000000001, -0.10353124999999999, 0.9844375, 192.0, 0.0, 0.0, 0.0, 0.0, 0.0, 0.0, 0.0, 0.0, 0.0, 1.645923029830488E9, 0.0, 2022-02-27 11:50:29.830
214.0, -61.04261410744359, -2515.68883844481, -2083.897839057188, -9091.236781029318, 308.275259527595, 568.2931027761821, -4323.2967642899475, -1436.0101742756576, -2158.709127749101, -3888.5329828897698, -3398.6050961738943, -2334.572653123457, -2749.130457536037, -1734.8306458986576, -7781.558666415056, -14589.520047845846, 0.014359375, -0.100765625, 0.98721875, 192.0, 0.0, 64.0, 126.0, 120.0, 15.0, 120.0, 0.0, 0.0, 0.0, 1.645923029837897E9, 0.0, 2022-02-27 11:50:29.837
216.0, -314.73491367517875, -2754.6289866720426, -2332.918624033764, -9337.7541706269, 45.038765077443735, 328.36947779291603, -4544.489627419666, -1665.6743485539375, -2389.3791305278696, -4103.042674427352, -3582.0011594296884, -2520.874443158441, -2933.2194248699457, -1922.42883711205, -7956.885749922485, -14819.184222124128, 0.014359375, -0.100765625, 0.98721875, 192.0, 0.0, 0.0, 0.0, 0.0, 0.0, 0.0, 0.0, 0.0, 0.0, 1.645923029846079E9, 0.0, 2022-02-27 11:50:29.846
218.0, -43.51884645448285, -2498.1650707918493, -2071.447917395582, -9070.65082438598, 317.84180615446644, 590.4213297869361, -4299.827432611875, -1388.5574207970405, -2228.7818466164886, -4039.384906218637, -3554.1285340939207, -2511.911393631863, -2916.1650438505467, -1910.224784639452, -7941.463046248323, -14687.57715077128, 0.014359375, -0.100765625, 0.98721875, 192.0, 0.0, 0.0, 0.0, 0.0, 0.0, 0.0, 0.0, 0.0, 0.0, 1.645923029853968E9, 0.0, 2022-02-27 11:50:29.853
220.0, -218.91298519527737, -2671.927532187406, -2231.665221651223, -9237.081913600197, 151.9024553182668, 422.5820806720353, -4474.9757021636615, -1566.5667136391062, -2280.9284664307197, -3965.7582599828556, -3443.8003234625253, -2372.0565285750067, -2794.5939057581313, -1785.010312200822, -7820.540108745112, -14690.14760138364, 0.014359375, -0.100765625, 0.98721875, 192.0, 0.0, 0.0, 0.0, 0.0, 0.0, 0.0, 0.0, 0.0, 0.0, 1.64592302986009E9, 0.0, 2022-02-27 11:50:29.860
222.0, -223.40568583079408, -2666.4737065403115, -2245.947986358164, -9234.086779843186, 135.89860628826693, 429.7793423866442, -4455.328518787446, -1539.8116755261035, -2392.240153818149, -4185.699425423077, -3674.5820849635707, -2629.6603834224206, -3040.463094766509, -2022.3634865717277, -8050.852483612595, -14833.377579853248, 0.014359375, -0.100765625, 0.98721875, 192.0, 0.0, 0.0, 0.0, 0.0, 0.0, 0.0, 0.0, 0.0, 0.0, 1.645923029867629E9, 0.0, 2022-02-27 11:50:29.867
224.0, -61.7131664411028, -2516.6052599674777, -2090.4692519270484, -9093.650769430491, 305.9730298486984, 568.1813440539055, -4327.297726547447, -1425.3260404260209, -2163.7606219960003, -3888.555334634225, -3406.7187794111705, -2336.1596269797838, -2755.858332617084, -1736.5070267328058, -7785.693739139288, -14590.7940972798, 0.016, -0.096, 0.99, 192.0, 0.0, 64.0, 126.5, 0.0, 15.0, 120.0, 0.0, 0.0, 0.0, 1.645923029875547E9, 0.0, 2022-02-27 11:50:29.875
226.0, -321.32867828949435, -2764.575512954654, -2338.2830427030376, -9335.161368270084, 40.747230142024776, 328.07890511499704, -4561.164028783325, -1654.9678629598454, -2397.1798893427717, -4111.759854764921, -3589.578400800038, -2525.1883298383154, -2942.2271778854347, -1925.5804330802482, -7961.825485447108, -14819.787719224421, 0.016, -0.096, 0.99, 192.0, 0.0, 0.0, 0.0, 0.0, 0.0, 0.0, 0.0, 0.0, 0.0, 1.64592302988369E9, 0.0, 2022-02-27 11:50:29.883
228.0, -49.866741879790055, -2500.534355704112, -2078.8239930658333, -9066.783972595213, 311.5386142180698, 588.7673006972433, -4309.6174966833, -1405.5000430941634, -2246.1715038027173, -4040.033106807841, -3567.6289877449262, -2516.3593907784693, -2928.883186445616, -1905.7544357483907, -7945.128732338993, -14688.515924038402, 0.016, -0.096, 0.99, 192.0, 0.0, 0.0, 0.0, 0.0, 0.0, 0.0, 0.0, 0.0, 0.0, 1.645923029890239E9, 0.0, 2022-02-27 11:50:29.890
230.0, -212.16275836977465, -2662.159819860437, -2235.1073902973403, -9231.918660631021, 148.46028667214952, 422.7832463721331, -4482.150612133814, -1592.472385462807, -2287.611638022857, -3958.8962744350765, -3451.2434543661425, -2368.346138995426, -2803.2663826067906, -1777.947160952945, -7827.893832670908, -14693.925046196586, 0.016, -0.096, 0.99, 192.0, 0.0, 0.0, 0.0, 0.0, 0.0, 0.0, 0.0, 0.0, 0.0, 1.64592302989822E9, 0.0, 2022-02-27 11:50:29.898
232.0, -228.34542135541696, -2673.894485699473, -2249.568968959924, -9239.182977578996, 128.72369631811338, 423.9008335948984, -4462.369318290868, -1562.5881031260615, -2397.4481102762356, -4179.1950677865825, -3678.851268154534, -2629.906252611429, -3044.17348434609, -2018.518986525415, -8058.228559282847, -14833.914021720175, 0.016, -0.096, 0.99, 192.0, 0.0, 0.0, 0.0, 0.0, 0.0, 0.0, 0.0, 0.0, 0.0, 1.645923029906309E9, 0.0, 2022-02-27 11:50:29.906
234.0, -59.14271582874249, -2516.225280311737, -2086.3341792028164, -9093.918990363954, 304.56486994801406, 571.5117539777463, -4330.002287626539, -1437.2395202206994, -2165.057023174408, -3898.9935992948535, -3410.384465501841, -2345.949691051208, -2763.1673530539697, -1744.598358225627, -7789.515887441145, -14588.938902490008, 0.014, -0.10200000000000001, 0.988, 192.0, 0.0, 56.0, 126.0, 104.0, 15.0, 112.0, 0.0, 0.0, 0.0, 1.645923029912771E9, 0.0, 2022-02-27 11:50:29.912
236.0, -319.3840765218826, -2763.703794920897, -2333.231548456138, -9340.27991775035, 43.988233088044296, 329.7552859491451, -4566.506095708143, -1680.3147411721638, -2395.9728951421853, -4104.830813983776, -3582.314083852063, -2520.6732774583434, -2938.5167883058534, -1916.5726800647594, -7960.57378775761, -14817.440786056613, 0.014, -0.10200000000000001, 0.988, 192.0, 0.0, 0.0, 0.0, 0.0, 0.0, 0.0, 0.0, 0.0, 0.0, 1.645923029927939E9, 0.0, 2022-02-27 11:50:29.927
238.0, -46.87160812277891, -2500.0649690705504, -2072.8560772962664, -9073.109516276065, 316.88068114288825, 592.8576699325645, -4319.13933982126, -1413.7925402870824, -2246.0597450804407, -4059.0097378503965, -3565.080888877021, -2526.104751360983, -2931.5206922913426, -1911.4988340734046, -7950.940185897373, -14699.37887184368, 0.014, -0.10200000000000001, 0.988, 192.0, 0.0, 0.0, 0.0, 0.0, 0.0, 0.0, 0.0, 0.0, 0.0, 1.645923029936119E9, 0.0, 2022-02-27 11:50:29.936
240.0, -211.84983394740033, -2661.779840204697, -2226.4572651931367, -9234.556166476747, 150.20372273966345, 423.63261266143473, -4467.532571260044, -1566.2314374722764, -2285.443518810692, -3966.2052948719615, -3446.9742711751787, -2373.665854175789, -2801.835870961651, -1777.6118847861153, -7823.669352968855, -14686.705432737523, 0.014, -0.10200000000000001, 0.988, 192.0, 0.0, 0.0, 0.0, 0.0, 0.0, 0.0, 0.0, 0.0, 0.0, 1.645923029942444E9, 0.0, 2022-02-27 11:50:29.942
242.0, -237.3978778598163, -2678.454241568356, -2250.597149204868, -9243.78743693679, 118.46424561312743, 410.1768624993399, -4462.391670035323, -1561.2693502031984, -2401.4714242781906, -4186.280570778915, -3679.432413510372, -2634.2201392913034, -3046.721583213995, -2024.2857365948842, -8052.081829557637, -14834.986905454029, 0.014, -0.10200000000000001, 0.988, 192.0, 0.0, 0.0, 0.0, 0.0, 0.0, 0.0, 0.0, 0.0, 0.0, 1.645923029950412E9, 0.0, 2022-02-27 11:50:29.950
244.0, -65.93764614315583, -2517.588736723511, -2086.647103625191, -9090.253304273285, 300.8768321128884, 571.6011609555675, -4327.297726547447, -1448.9518343152804, -2172.388395355749, -3901.809919096222, -3415.838291148936, -2346.2849672180378, -2770.029338601749, -1748.5546169942163, -7790.164088030349, -14593.789231036812, 0.01, -0.098, 0.99, 192.0, 0.0, 40.0, 126.0, 120.0, 15.0, 120.0, 0.0, 0.0, 0.0, 1.645923029958607E9, 0.0, 2022-02-27 11:50:29.958
246.0, -324.30146030205015, -2763.5920361986205, -2336.919586291264, -9335.317830481272, 38.53440744094937, 326.08959985847474, -4570.931741110295, -1694.8657268125687, -2404.5783167574787, -4099.8910784591535, -3589.600752544493, -2518.6616204573656, -2947.792762254806, -1916.3715143646616, -7962.183113358393, -14820.413568069169, 0.01, -0.098, 0.99, 192.0, 0.0, 0.0, 0.0, 0.0, 0.0, 0.0, 0.0, 0.0, 0.0, 1.645923029965564E9, 0.0, 2022-02-27 11:50:29.965
248.0, -55.208808804608445, -2500.981390593218, -2079.9192285441436, -9067.432173184416, 314.533747975081, 605.844033461098, -4304.968333836596, -1392.2678103766216, -2253.3911172617813, -4053.198284292017, -3576.860258204968, -2524.674239715843, -2937.5109598053646, -1905.4191595815612, -7949.844950419063, -14694.014453174408, 0.01, -0.098, 0.99, 192.0, 0.0, 0.0, 0.0, 0.0, 0.0, 0.0, 0.0, 0.0, 0.0, 1.645923029973021E9, 0.0, 2022-02-27 11:50:29.973
250.0, -207.6253542453473, -2655.968386646317, -2223.7080006251335, -9226.084855328185, 156.0822315314092, 440.64229019192345, -4456.893140899318, -1563.8174490711033, -2277.083966384407, -3952.548379009769, -3446.0131461636006, -2363.764031382088, -2798.7513302268185, -1760.2892828332524, -7818.103768599483, -14682.659766991112, 0.01, -0.098, 0.99, 192.0, 0.0, 0.0, 0.0, 0.0, 0.0, 0.0, 0.0, 0.0, 0.0, 1.64592302998026E9, 0.0, 2022-02-27 11:50:29.980
252.0, -237.44258134872692, -2676.4649363118338, -2248.92076837072, -9244.681506715002, 142.44766741367192, 426.3148219960716, -4445.113771571371, -1560.8670188030028, -2395.458805019713, -4180.714986409544, -3676.437279753361, -2626.486435709767, -3038.6526034656295, -2006.6725619641022, -8044.862216098573, -14830.293039118415, 0.01, -0.098, 0.99, 192.0, 0.0, 0.0, 0.0, 0.0, 0.0, 0.0, 0.0, 0.0, 0.0, 1.645923029988205E9, 0.0, 2022-02-27 11:50:29.988
254.0, -52.88422738125651, -2498.947381847785, -2075.381824419716, -9081.156144279974, 324.1226463464077, 582.9781988833188, -4328.303555047936, -1432.9703370297357, -2162.8442004733324, -3889.9411427904543, -3410.7867969020367, -2338.886539803331, -2767.7718124117628, -1739.368050023085, -7786.274884495126, -14588.134239689618, 0.01, -0.106, 0.99, 192.0, 0.0, 40.0, 126.0, 88.0, 15.0, 120.0, 0.0, 0.0, 0.0, 1.645923029995197E9, 0.0, 2022-02-27 11:50:29.995
0.0, -329.4647132712261, -2764.1508298100034, -2334.08091474544, -9330.556908912291, 42.870645865278945, 344.1274576339075, -4561.052270061048, -1648.664671023449, -2390.0496828615287, -4088.5587440203126, -3576.0332436601216, -2504.0212278391396, -2932.347706836189, -1898.1548426335864, -7950.359040541535, -14809.572972008345, 0.01, -0.106, 0.99, 192.0, 0.0, 0.0, 0.0, 0.0, 0.0, 0.0, 0.0, 0.0, 0.0, 1.645923030002736E9, 0.0, 2022-02-27 11:50:30.002
2.0, -56.61696870529279, -2501.0484458265837, -2075.8288593088223, -9066.560455150659, 317.50652998763684, 607.8333387176202, -4304.610705925311, -1402.7954820150712, -2257.727355686111, -4053.913540114587, -3579.5871710285155, -2526.685896716821, -2943.2330063859235, -1906.782615993335, -7952.549511498155, -14688.38181357167, 0.01, -0.106, 0.99, 192.0, 0.0, 0.0, 0.0, 0.0, 0.0, 0.0, 0.0, 0.0, 0.0, 1.645923030010816E9, 0.0, 2022-02-27 11:50:30.010
4.0, -213.19093861471876, -2658.449430280856, -2218.611802889324, -9230.10816933014, 175.88587711881127, 448.3759937734597, -4423.119655027349, -1560.5764461250837, -2274.7370332165997, -3946.9157394070317, -3440.022878649578, -2361.886484847842, -2784.7814899422515, -1761.1386491225542, -7807.419634749846, -14682.592711757747, 0.01, -0.106, 0.99, 192.0, 0.0, 0.0, 0.0, 0.0, 0.0, 0.0, 0.0, 0.0, 0.0, 1.645923030018928E9, 0.0, 2022-02-27 11:50:30.018
6.0, -242.0470407065202, -2678.8565729685515, -2248.5184369705244, -9248.54835850577, 136.77032432202392, 435.34492675601564, -4457.340175788424, -1574.926266065391, -2401.650238233833, -4167.147477525172, -3674.760898919213, -2627.4475607213453, -3041.468923266998, -2009.3771230431944, -8036.882643328028, -14832.215289141572, 0.01, -0.106, 0.99, 192.0, 0.0, 0.0, 0.0, 0.0, 0.0, 0.0, 0.0, 0.0, 0.0, 1.645923030025484E9, 0.0, 2022-02-27 11:50:30.025
8.0, -68.30693105541839, -2513.87834714393, -2076.3653011757497, -9084.039519314709, 316.00896310913123, 601.3066293366707, -4304.275429758481, -1425.2589851926548, -2165.57111329688, -3892.109262002619, -3408.86454687888, -2339.981775281641, -2762.3626902535784, -1736.3282127771633, -7779.748175114176, -14590.637635068613, 0.014, -0.106, 0.992, 192.0, 0.0, 56.0, 126.0, 88.0, 15.5, 0.0, 0.0, 0.0, 0.0, 1.645923030033409E9, 0.0, 2022-02-27 11:50:30.033
10.0, -331.0740388720082, -2764.5531612101986, -2327.2636326865713, -9334.110836280684, 49.77733490196883, 344.32862333400533, -4534.2078249702245, -1671.955188745879, -2402.4549010342243, -4105.948401206541, -3581.084737907021, -2510.5032337311786, -2936.661593516063, -1897.6631042555696, -7934.645764189454, -14809.014178396963, 0.014, -0.106, 0.992, 192.0, 0.0, 0.0, 0.0, 0.0, 0.0, 0.0, 0.0, 0.0, 0.0, 1.645923030040423E9, 0.0, 2022-02-27 11:50:30.040
12.0, -63.590712975348595, -2506.6363819404105, -2068.5645423608476, -9072.08133603112, 312.857367140933, 609.3756090850364, -4289.813851095897, -1386.389301584876, -2257.5038382415582, -4057.3110052717934, -3576.793202971602, -2531.9832601527287, -2933.889977203605, -1914.583374808237, -7939.406685758435, -14694.617950274702, 0.014, -0.106, 0.992, 192.0, 0.0, 0.0, 0.0, 0.0, 0.0, 0.0, 0.0, 0.0, 0.0, 1.645923030055025E9, 0.0, 2022-02-27 11:50:30.055
14.0, -195.84598491740047, -2645.507770241233, -2201.646828847746, -9218.462910468927, 173.89657186228894, 446.43139200584795, -4463.732774702642, -1573.8980858204468, -2262.01889062153, -3944.9934893838754, -3429.8528349224134, -2359.5171999355794, -2777.1371933385367, -1759.9093031775121, -7802.435195736313, -14677.541217510847, 0.014, -0.106, 0.992, 192.0, 0.0, 0.0, 0.0, 0.0, 0.0, 0.0, 0.0, 0.0, 0.0, 1.64592303006303E9, 0.0, 2022-02-27 11:50:30.063
16.0, -250.25013092161788, -2687.260828883747, -2247.602015447857, -9246.179073593506, 124.34275440487319, 428.66175516387887, -4456.513161243577, -1568.600722384539, -2384.4840984921575, -4174.836477617798, -3662.1992185353306, -2626.419380476401, -3025.59918470373, -2003.319800295806, -8034.8709863270515, -14835.74686476551, 0.014, -0.106, 0.992, 192.0, 0.0, 0.0, 0.0, 0.0, 0.0, 0.0, 0.0, 0.0, 0.0, 1.645923030071079E9, 0.0, 2022-02-27 11:50:30.071
18.0, -73.53723925796024, -2518.751027435187, -2074.5995133637803, -9078.898618089988, 319.56289047752506, 595.8304519451203, -4298.866307600297, -1404.6059733159511, -2166.733404008556, -3889.5611631347138, -3411.8820323803466, -2349.7718393530654, -2766.318949022168, -1735.7470674213253, -7776.708337868255, -14584.088573943207, 0.012, -0.108, 0.99, 192.0, 0.0, 48.0, 126.0, 80.0, 15.0, 120.0, 0.0, 0.0, 0.0, 1.645923030077585E9, 0.0, 2022-02-27 11:50:30.077
20.0, -329.6882307157792, -2760.865123375073, -2325.341382663415, -9328.299382722305, 54.49355298203862, 351.7270507487119, -4561.409897972333, -1654.4537728373734, -2396.7775579425765, -4096.38185457967, -3571.4958395356944, -2510.4361784978128, -2928.7490759788843, -1899.1159676451646, -7935.718647923309, -14801.973378893541, 0.012, -0.108, 0.99, 192.0, 0.0, 0.0, 0.0, 0.0, 0.0, 0.0, 0.0, 0.0, 0.0, 1.645923030085704E9, 0.0, 2022-02-27 11:50:30.085
22.0, -61.57905597437096, -2504.624724939433, -2072.6549115961684, -9070.874341830533, 322.5803759789915, 607.229841617327, -4280.962560291596, -1401.7896535145824, -2251.088887582885, -4035.1157230276735, -3567.830153445024, -2531.9609084082736, -2934.24760511489, -1916.907956231589, -7940.971307870306, -14694.662653763611, 0.012, -0.108, 0.99, 192.0, 0.0, 0.0, 0.0, 0.0, 0.0, 0.0, 0.0, 0.0, 0.0, 1.645923030093665E9, 0.0, 2022-02-27 11:50:30.093
24.0, -198.90817390777755, -2644.6584039519316, -2204.86548004931, -9213.813747622222, 188.40285401378324, 462.94933115831986, -4426.204195762181, -1559.056527502123, -2258.0402801084856, -3948.480361518903, -3419.6604394507935, -2355.270368489071, -2773.873838648062, -1752.3320618071632, -7787.146602528883, -14669.628699973668, 0.012, -0.108, 0.99, 192.0, 0.0, 0.0, 0.0, 0.0, 0.0, 0.0, 0.0, 0.0, 0.0, 1.645923030100709E9, 0.0, 2022-02-27 11:50:30.100
26.0, -255.21221819069603, -2691.686474285898, -2250.3289282714045, -9248.883634672598, 130.24361494107424, 431.85805462098773, -4460.156495589793, -1553.6921088328493, -2396.822261431487, -4184.872410878231, -3663.3168057580956, -2624.6982961533427, -3030.3154027837995, -2002.7610066844234, -8026.220861222847, -14829.22015538456, 0.012, -0.108, 0.99, 192.0, 0.0, 0.0, 0.0, 0.0, 0.0, 0.0, 0.0, 0.0, 0.0, 1.645923030107343E9, 0.0, 2022-02-27 11:50:30.107
28.0, -69.35746304481782, -2517.141701834405, -2070.8220685508336, -9076.864609344555, 330.3811347938937, 598.5573647686679, -4299.2909907449475, -1421.3921334018867, -2165.705223763612, -3892.8915730585545, -3405.7800061440475, -2349.816542841976, -2756.9535680953945, -1736.0823435881548, -7771.209808732249, -14582.948634975986, 0.014, -0.10400000000000001, 0.988, 192.0, 0.0, 56.0, 126.0, 96.0, 15.0, 112.0, 0.0, 0.0, 0.0, 1.645923030115442E9, 0.0, 2022-02-27 11:50:30.115
30.0, -343.7921814670779, -2778.701815450408, -2328.1353507203285, -9334.714333380978, 56.14758207173134, 345.2003413677623, -4531.279746446579, -1646.9882901893009, -2406.433511547269, -4111.536337320368, -3573.6192552589487, -2514.7947686665975, -2929.0396486568034, -1900.0100374233768, -7927.42615073039, -14801.749861448987, 0.014, -0.10400000000000001, 0.988, 192.0, 0.0, 0.0, 0.0, 0.0, 0.0, 0.0, 0.0, 0.0, 0.0, 1.645923030123506E9, 0.0, 2022-02-27 11:50:30.123
32.0, -79.68396898316968, -2522.774341437142, -2075.024196508431, -9076.529333177727, 313.79614040805586, 599.6302485025226, -4293.859516842308, -1403.577793071007, -2272.4571552821585, -4077.4946305149356, -3580.056557662077, -2548.814123727575, -2941.1319424071244, -1906.3802845931393, -7940.770142170209, -14698.14952589864, 0.014, -0.10400000000000001, 0.988, 192.0, 0.0, 0.0, 0.0, 0.0, 0.0, 0.0, 0.0, 0.0, 0.0, 1.645923030130322E9, 0.0, 2022-02-27 11:50:30.130
34.0, -215.537871782526, -2656.616587235521, -2210.699285352145, -9218.462910468927, 176.75759515256826, 458.9930723897305, -4447.527759972544, -1561.4034606699302, -2278.2686088405385, -3949.7991144417665, -3427.8858814103464, -2362.7134993926884, -2779.7746991842628, -1755.2601403308083, -7796.176707288827, -14671.126266852174, 0.014, -0.10400000000000001, 0.988, 192.0, 0.0, 0.0, 0.0, 0.0, 0.0, 0.0, 0.0, 0.0, 0.0, 1.64592303013786E9, 0.0, 2022-02-27 11:50:30.137
36.0, -268.3997474193272, -2701.476538357322, -2261.191876076684, -9252.817541696733, 139.18431272319708, 420.9280515823426, -4455.909664143284, -1564.8232775715921, -2414.949526184741, -4185.9452946120855, -3669.955273861322, -2629.772142144697, -3035.5233592418863, -2012.2828498223842, -8030.199471735892, -14830.181280396138, 0.013000000000000001, -0.10500000000000001, 0.989, 192.0, 0.0, 48.0, 126.0, 88.0, 15.0, 120.0, 0.0, 0.0, 0.0, 1.645923030146084E9, 0.0, 2022-02-27 11:50:30.146
38.0, -80.22041085009705, -2528.630498484433, -2075.5606383753584, -9081.089089046609, 337.3548790639495, 587.5603064966567, -4302.174365779682, -1424.2308049477108, -2182.446680360637, -3906.2132127539176, -3414.094855081422, -2359.0925167909286, -2763.770850154263, -1749.694555961437, -7778.295311724582, -14583.775649520834, 0.013000000000000001, -0.10500000000000001, 0.989, 192.0, 0.0, 0.0, 0.0, 0.0, 0.0, 0.0, 0.0, 0.0, 0.0, 1.645923030153101E9, 0.0, 2022-02-27 11:50:30.153
40.0, -348.57545478051367, -2784.9826556423495, -2332.829217055943, -9336.457769448492, 58.67332919518104, 339.3218325760165, -4543.059115774527, -1660.2205229068427, -2408.758092970621, -4110.061122186318, -3572.702833736281, -2521.522643747645, -2922.4905875313984, -1907.5425753048153, -7929.169586797904, -14803.761518449965, 0.013000000000000001, -0.10500000000000001, 0.989, 192.0, 0.0, 0.0, 0.0, 0.0, 0.0, 0.0, 0.0, 0.0, 0.0, 1.645923030160533E9, 0.0, 2022-02-27 11:50:30.160
42.0, -87.50707954252715, -2531.6703357303545, -2082.0426442673975, -9082.050214058187, 316.38894276487144, 593.4388152884026, -4297.324037232881, -1394.190060399778, -2277.083966384407, -4081.897924172631, -3588.2596478771748, -2556.1231441644604, -2942.6295092856303, -1935.3034419183068, -7947.989755629273, -14701.636398033668, 0.013000000000000001, -0.10500000000000001, 0.989, 192.0, 0.0, 0.0, 0.0, 0.0, 0.0, 0.0, 0.0, 0.0, 0.0, 1.645923030175665E9, 0.0, 2022-02-27 11:50:30.175
44.0, -218.91298519527737, -2664.1714768614147, -2207.212413217117, -9221.189823292474, 182.63610394431402, 444.978528616253, -4440.866940124863, -1560.7776118251816, -2277.531001273513, -3958.44923954597, -3432.8479686794244, -2370.8495343744203, -2769.4258415014556, -1759.6187304995933, -7790.767585130643, -14667.080601105763, 0.013000000000000001, -0.10500000000000001, 0.989, 192.0, 0.0, 0.0, 0.0, 0.0, 0.0, 0.0, 0.0, 0.0, 0.0, 1.64592303018274E9, 0.0, 2022-02-27 11:50:30.182
46.0, -276.7592998456121, -2711.0430849841937, -2265.170486589728, -9252.92930041901, 114.99972522255484, 413.6860863788231, -4472.718175973675, -1570.3665101965082, -2420.045723920551, -4189.901553380675, -3673.866829141001, -2633.773104402197, -3029.9577748725146, -2014.16039635663, -8030.2888787137135, -14832.08117867484, 0.0125, -0.10650000000000001, 0.9895, 192.0, 0.0, 48.0, 126.0, 80.0, 15.0, 120.0, 0.0, 0.0, 0.0, 1.645923030190097E9, 0.0, 2022-02-27 11:50:30.190
48.0, -55.611140204803974, -2501.6072394379667, -2068.385728405205, -9065.867551072544, 321.4627887562262, 592.1871175989053, -4315.987743853062, -1427.449456149275, -2170.2426278880394, -3891.394006180049, -3408.1045875674, -2353.012842299085, -2762.5191524647657, -1741.3797070240626, -7782.16216351535, -14582.83687625371, 0.0125, -0.10650000000000001, 0.9895, 192.0, 0.0, 0.0, 0.0, 0.0, 0.0, 0.0, 0.0, 0.0, 0.0, 1.645923030198219E9, 0.0, 2022-02-27 11:50:30.198
50.0, -337.77956220860034, -2774.2314665593467, -2327.8447780424094, -9325.527766409847, 51.453715736116855, 332.3257365615054, -4555.5090374361325, -1671.821078279147, -2392.6648369627997, -4084.423671296081, -3555.0673073610437, -2496.39928297988, -2911.962915892949, -1894.913839687567, -7928.700200164342, -14803.538001005412, 0.0125, -0.10650000000000001, 0.9895, 192.0, 0.0, 0.0, 0.0, 0.0, 0.0, 0.0, 0.0, 0.0, 0.0, 1.645923030206321E9, 0.0, 2022-02-27 11:50:30.206
52.0, -95.01726567951032, -2536.6994782327984, -2086.8706210697437, -9077.199885511385, 306.10714031543023, 578.7760709257211, -4312.299706017936, -1421.5262438686186, -2285.890553699798, -4075.5723804917793, -3588.4831653217275, -2550.758725495187, -2948.664480288563, -1937.6503750861139, -7951.275462064203, -14707.559610314323, 0.0125, -0.10650000000000001, 0.9895, 192.0, 0.0, 0.0, 0.0, 0.0, 0.0, 0.0, 0.0, 0.0, 0.0, 1.645923030212768E9, 0.0, 2022-02-27 11:50:30.212
54.0, -220.79053172952317, -2662.785668705186, -2209.089959751363, -9212.673808655001, 181.3397027659062, 445.80554316109937, -4449.338251273424, -1560.9117222919135, -2279.9896931635967, -3945.172303339518, -3432.199768090221, -2364.568694182479, -2774.745556681819, -1762.4126985565065, -7792.600428175978, -14668.779333684366, 0.0125, -0.10650000000000001, 0.9895, 192.0, 0.0, 0.0, 0.0, 0.0, 0.0, 0.0, 0.0, 0.0, 0.0, 1.645923030220854E9, 0.0, 2022-02-27 11:50:30.220
56.0, -274.27825621107297, -2707.287991915702, -2267.83034417991, -9258.807809210755, 120.61001308083691, 408.96986829875334, -4475.378033563857, -1575.2391904877652, -2417.3858663303695, -4177.585742185801, -3673.7774221631794, -2631.582633445577, -3028.594318460741, -2010.3829515436832, -8028.031352523727, -14832.79643449741, 0.01125, -0.10825000000000001, 0.98875, 192.0, 0.0, 40.0, 126.0, 72.0, 15.0, 112.0, 0.0, 0.0, 0.0, 1.645923030227843E9, 0.0, 2022-02-27 11:50:30.227
58.0, -60.03678560695477, -2506.390512751402, -2066.061146981853, -9066.761620850757, 328.86121617093283, 592.2988763211819, -4313.797272896441, -1428.4552846497638, -2168.454488331615, -3894.5679538927025, -3413.1784335587545, -2354.443353944225, -2762.7873733982296, -1748.174637338476, -7782.430384448813, -14585.094402443696, 0.01125, -0.10825000000000001, 0.98875, 192.0, 0.0, 0.0, 0.0, 0.0, 0.0, 0.0, 0.0, 0.0, 0.0, 1.645923030235753E9, 0.0, 2022-02-27 11:50:30.235
60.0, -324.43557076878204, -2760.775716397252, -2320.155777949784, -9319.202222728994, 52.236026792052606, 333.9350621622875, -4558.414764215322, -1670.882305012024, -2386.8980868933304, -4089.8104417098098, -3550.6416619588927, -2491.392492221891, -2906.598497223675, -1891.1587466190754, -7923.939278595362, -14798.754727691976, 0.01125, -0.10825000000000001, 0.98875, 192.0, 0.0, 0.0, 0.0, 0.0, 0.0, 0.0, 0.0, 0.0, 0.0, 1.645923030242609E9, 0.0, 2022-02-27 11:50:30.242
62.0, -68.26222756650778, -2509.2738877861366, -2080.1427459886963, -9071.276673230728, 303.35787574742744, 573.7916319121877, -4324.190834068159, -1424.0072875031576, -2264.6787482117115, -4060.5296564733576, -3575.6532640043815, -2538.7334869782317, -2947.144561665602, -1924.9545842354996, -7961.512561024733, -14711.761738271922, 0.01125, -0.10825000000000001, 0.98875, 192.0, 0.0, 0.0, 0.0, 0.0, 0.0, 0.0, 0.0, 0.0, 0.0, 1.645923030250618E9, 0.0, 2022-02-27 11:50:30.250
64.0, -184.64776094529165, -2627.1346362989707, -2191.5885438428577, -9195.328854957683, 185.765348168057, 443.5033134822027, -4447.840684394919, -1561.8057920701258, -2249.1666375597283, -3916.9196983480097, -3407.456386978196, -2337.6795456027444, -2768.3976612565116, -1747.5487884937274, -7793.941532843296, -14661.000926613919, 0.01125, -0.10825000000000001, 0.98875, 192.0, 0.0, 0.0, 0.0, 0.0, 0.0, 0.0, 0.0, 0.0, 0.0, 1.645923030258647E9, 0.0, 2022-02-27 11:50:30.258
66.0, -252.99939548962064, -2687.3725876060234, -2260.901303398765, -9253.197521352473, 110.28350714248505, 397.5257751376361, -4494.779347751063, -1597.926211109902, -2392.6648369627997, -4167.482753692002, -3649.861055596001, -2609.4320546903677, -3023.542824213842, -2004.3479805407503, -8035.228614238336, -14835.232774643038, 0.012625, -0.110125, 0.986375, 192.0, 0.0, 56.0, 126.0, 64.0, 15.0, 96.0, 0.0, 0.0, 0.0, 1.645923030265756E9, 0.0, 2022-02-27 11:50:30.265
68.0, -37.86385510729016, -2484.754024118665, -2059.6238445787244, -9060.816056825644, 335.20911159624, 584.2746000617266, -4320.256927044025, -1442.581587145518, -2150.6848514896456, -3884.286151443261, -3399.5885729299275, -2343.17807473875, -2762.5415042092213, -1747.7052507049145, -7791.125213041928, -14588.60362632318, 0.012625, -0.110125, 0.986375, 192.0, 0.0, 0.0, 0.0, 0.0, 0.0, 0.0, 0.0, 0.0, 0.0, 1.645923030273231E9, 0.0, 2022-02-27 11:50:30.273
70.0, -309.1693293058073, -2744.3918877115116, -2314.7690075360547, -9316.810586072277, 64.10480309782065, 331.63283248339087, -4546.255415231635, -1677.1407934595102, -2368.502601206613, -4065.938778631542, -3541.1645223098426, -2479.724881616221, -2900.5188227318317, -1882.3521593036842, -7921.480586705278, -14797.54773349139, 0.012625, -0.110125, 0.986375, 192.0, 0.0, 0.0, 0.0, 0.0, 0.0, 0.0, 0.0, 0.0, 0.0, 1.645923030281237E9, 0.0, 2022-02-27 11:50:30.281
72.0, -68.28457931096308, -2508.6703906858434, -2081.5956093782916, -9073.578902909625, 304.63192518138, 573.6575214454558, -4316.61359269781, -1415.2007001877666, -2263.2929400554826, -4066.028185609363, -3580.637703017915, -2542.8685597024632, -2949.4914948334094, -1925.71454354698, -7960.283215079691, -14706.374967858192, 0.012625, -0.110125, 0.986375, 192.0, 0.0, 0.0, 0.0, 0.0, 0.0, 0.0, 0.0, 0.0, 0.0, 1.645923030288483E9, 0.0, 2022-02-27 11:50:30.288
74.0, -188.0675778469536, -2629.5039212112333, -2193.7566630550223, -9200.693273626957, 183.06078708896484, 445.9396536278312, -4452.288681541524, -1571.729966608282, -2253.9499108731643, -3920.2501082718504, -3413.357247514397, -2344.3850689393366, -2771.4374985024333, -1745.5147797482944, -7792.600428175978, -14661.7608859254, 0.012625, -0.110125, 0.986375, 192.0, 0.0, 0.0, 0.0, 0.0, 0.0, 0.0, 0.0, 0.0, 0.0, 1.645923030302817E9, 0.0, 2022-02-27 11:50:30.302
76.0, -257.40268914731615, -2693.2510963977693, -2264.835210422899, -9259.098381888674, 106.39430360726162, 393.23424020221717, -4480.228362110658, -1600.1613855554326, -2401.337313811459, -4166.678090891611, -3656.5218754436823, -2615.578784415577, -3030.9636033730035, -2002.4927857509597, -8034.021620037749, -14837.6020595553, 0.0123125, -0.11106250000000001, 0.9871875, 192.0, 0.0, 48.0, 126.0, 64.0, 15.0, 112.0, 0.0, 0.0, 0.0, 1.645923030311094E9, 0.0, 2022-02-27 11:50:30.311
78.0, -39.562587685893504, -2485.625742152422, -2056.4946003549817, -9062.447734170883, 331.6775359723015, 580.5865622266009, -4307.561136193412, -1446.671956380839, -2148.7626014664893, -3878.2288286958733, -3399.8791456078466, -2344.6532898728, -2765.4695827328665, -1746.1853320819537, -7785.202000761271, -14590.995262979897, 0.0123125, -0.11106250000000001, 0.9871875, 192.0, 0.0, 0.0, 0.0, 0.0, 0.0, 0.0, 0.0, 0.0, 0.0, 1.645923030318056E9, 0.0, 2022-02-27 11:50:30.318
80.0, -312.0750560849972, -2740.1227045205483, -2312.8020540239877, -9315.715350593968, 48.4362302346504, 327.78833243707805, -4560.80640087204, -1683.7345580738256, -2368.2790837620596, -4061.3343192737484, -3541.768019410136, -2477.8920385708857, -2898.820090153228, -1880.6310749806257, -7917.457272703323, -14798.374748036236, 0.0123125, -0.11106250000000001, 0.9871875, 192.0, 0.0, 0.0, 0.0, 0.0, 0.0, 0.0, 0.0, 0.0, 0.0, 1.645923030325425E9, 0.0, 2022-02-27 11:50:30.325
82.0, -74.00662589152168, -2508.1563005633716, -2082.1096995007633, -9074.741193621301, 292.7407971311566, 574.9539226238636, -4321.598031711344, -1439.0947150104898, -2261.3259865434156, -4060.127325073162, -3584.862182719968, -2541.0580684015836, -2949.089163433214, -1931.9059767611, -7965.0217849042165, -14718.333151141782, 0.0123125, -0.11106250000000001, 0.9871875, 192.0, 0.0, 0.0, 0.0, 0.0, 0.0, 0.0, 0.0, 0.0, 0.0, 1.645923030333534E9, 0.0, 2022-02-27 11:50:30.333
84.0, -181.89849637728886, -2623.08897055256, -2187.8558025188213, -9191.797279333745, 179.99859809858776, 450.0300228631524, -4457.004899621595, -1582.3023417356424, -2243.5563497014464, -3914.818634369211, -3414.8771661373576, -2341.792266582521, -2765.715451921875, -1743.5478262362274, -7794.232105521215, -14661.515016736392, 0.0123125, -0.11106250000000001, 0.9871875, 192.0, 0.0, 0.0, 0.0, 0.0, 0.0, 0.0, 0.0, 0.0, 0.0, 1.645923030341461E9, 0.0, 2022-02-27 11:50:30.341
86.0, -262.49888688312615, -2699.219012167336, -2264.9693208896306, -9261.087687145196, 101.23105063808569, 396.63170535942385, -4489.370225592879, -1617.2157665748318, -2392.2178020736937, -4157.782096598398, -3655.8513231100233, -2614.7070663818204, -3022.984030602459, -1998.6035822157364, -8037.575547406143, -14841.088931690329, 0.013156250000000001, -0.10953125, 0.98559375, 192.0, 0.0, 56.0, 126.0, 80.0, 15.0, 96.0, 0.0, 0.0, 0.0, 1.645923030348012E9, 0.0, 2022-02-27 11:50:30.348
88.0, -38.95909058560021, -2490.2749049991257, -2054.7288125430123, -9062.023051026232, 331.61048073893556, 585.7498151957769, -4303.47076695809, -1457.3560902304757, -2142.9064444191986, -3889.9858462793645, -3406.830538133447, -2354.8903888333307, -2765.804858899696, -1757.785887454258, -7790.7452333861875, -14594.75035604839, 0.013156250000000001, -0.10953125, 0.98559375, 192.0, 0.0, 0.0, 0.0, 0.0, 0.0, 0.0, 0.0, 0.0, 0.0, 1.645923030354946E9, 0.0, 2022-02-27 11:50:30.354
90.0, -308.275259527595, -2747.319966235157, -2311.5280045900354, -9319.090464006718, 57.06400359439893, 327.3636492924272, -4556.4478107032555, -1673.3633486465633, -2357.3937842123255, -4062.362499518693, -3539.443437986784, -2481.624779894922, -2896.830784896706, -1885.2131825939637, -7922.553470439133, -14797.055995113373, 0.013156250000000001, -0.10953125, 0.98559375, 192.0, 0.0, 0.0, 0.0, 0.0, 0.0, 0.0, 0.0, 0.0, 0.0, 1.645923030363088E9, 0.0, 2022-02-27 11:50:30.363
92.0, -77.38173930427305, -2518.97454487974, -2083.0484727678863, -9080.41853671295, 294.17130877629626, 566.1920387973832, -4311.2044705396265, -1437.7983138320822, -2259.694309198178, -4072.487839756947, -3587.6785025213367, -2552.5468650516113, -2951.212579156468, -1932.196549439019, -7966.787572716185, -14719.651904064645, 0.013156250000000001, -0.10953125, 0.98559375, 192.0, 0.0, 0.0, 0.0, 0.0, 0.0, 0.0, 0.0, 0.0, 0.0, 1.645923030371093E9, 0.0, 2022-02-27 11:50:30.371
94.0, -187.08410109092011, -2630.7332671562754, -2188.347540896838, -9197.586381147668, 181.51851672154865, 441.4693047367698, -4445.06906808246, -1582.3470452245529, -2239.465980466125, -3912.0246663122975, -3417.4252650052626, -2344.8321038284425, -2765.35782401059, -1748.398154783029, -7792.332207242514, -14663.23610105945, 0.013156250000000001, -0.10953125, 0.98559375, 192.0, 0.0, 0.0, 0.0, 0.0, 0.0, 0.0, 0.0, 0.0, 0.0, 1.645923030377596E9, 0.0, 2022-02-27 11:50:30.377
96.0, -277.94394230174333, -2708.070302971638, -2274.8040884499655, -9269.60370178267, 91.7986144779461, 380.20317318477316, -4500.36728386489, -1628.3916388024854, -2396.107005608917, -4168.354471725759, -3665.6190354369924, -2619.646801906443, -3030.628327206174, -2009.0418468763646, -8037.061457283671, -14845.089893947828, 0.011578125000000002, -0.105765625, 0.988796875, 192.0, 0.0, 40.0, 126.0, 104.0, 15.5, 0.0, 0.0, 0.0, 0.0, 1.64592303038571E9, 0.0, 2022-02-27 11:50:30.385
98.0, -59.567398973393324, -2497.9639050917513, -2064.317710914339, -9062.69360335989, 308.90110837234363, 587.8955826634864, -4330.628136471288, -1452.1034302834787, -2158.1279823932628, -3899.7535586063336, -3422.856738907902, -2363.831086615454, -2787.2401818323356, -1754.209608341409, -7803.664541681354, -14594.593893837202, 0.011578125000000002, -0.105765625, 0.988796875, 192.0, 0.0, 0.0, 0.0, 0.0, 0.0, 0.0, 0.0, 0.0, 0.0, 1.645923030393946E9, 0.0, 2022-02-27 11:50:30.393
100.0, -328.3024225595501, -2756.3277192506457, -2319.239356427116, -9319.22457447345, 41.55189294241583, 330.0682103715194, -4562.460429961733, -1697.950267547401, -2381.980703113163, -4066.4528687540137, -3553.2121125712533, -2485.3798729634136, -2919.763674707851, -1875.6466359670922, -7931.3824094989795, -14796.251332312982, 0.011578125000000002, -0.105765625, 0.988796875, 192.0, 0.0, 0.0, 0.0, 0.0, 0.0, 0.0, 0.0, 0.0, 0.0, 1.645923030400349E9, 0.0, 2022-02-27 11:50:30.400
102.0, -88.24468710955229, -2526.015344383162, -2088.256429225973, -9089.426289728439, 294.2607157541175, 562.3028352621598, -4324.861386401819, -1452.57281691704, -2274.4688122831362, -4079.5062875159133, -3598.3849881154288, -2560.7052517777984, -2965.942378752515, -1938.0527064863095, -7975.035366420194, -14727.854994279742, 0.011578125000000002, -0.105765625, 0.988796875, 192.0, 0.0, 0.0, 0.0, 0.0, 0.0, 0.0, 0.0, 0.0, 0.0, 1.645923030408323E9, 0.0, 2022-02-27 11:50:30.408
104.0, -194.6166389723586, -2633.393124746457, -2186.1794216846733, -9199.06159628172, 191.95678138217704, 454.99211013223055, -4462.659890968787, -1572.9369608088687, -2239.175407788206, -3919.4677972159147, -3417.671134194271, -2350.6212056423674, -2768.8223444011624, -1746.431201270962, -7787.370119973436, -14660.173912069073, 0.011578125000000002, -0.105765625, 0.988796875, 192.0, 0.0, 0.0, 0.0, 0.0, 0.0, 0.0, 0.0, 0.0, 0.0, 1.645923030423392E9, 0.0, 2022-02-27 11:50:30.423
106.0, -282.3248842149835, -2711.579526851121, -2272.1889343486946, -9272.576483795225, 91.86566971131202, 377.8562400169659, -4502.244830399136, -1623.116627111033, -2401.985514400663, -4176.088175307295, -3661.595721435037, -2624.1395025419597, -3028.661373694107, -2000.5705357278034, -8036.346201461101, -14843.659382302689, 0.008, -0.10400000000000001, 0.99, 192.0, 0.0, 32.0, 126.0, 96.0, 15.0, 120.0, 0.0, 0.0, 0.0, 1.645923030429965E9, 0.0, 2022-02-27 11:50:30.429
108.0, -58.561570472904506, -2501.9648673492516, -2055.488771854493, -9064.101763260576, 328.86121617093283, 579.7818994262099, -4300.207412267615, -1444.4814854242188, -2158.0385754154418, -3898.4795091723813, -3418.0734655944666, -2368.4578977177025, -2781.6522457185088, -1755.9977478978335, -7797.361349744958, -14595.398556637592, 0.008, -0.10400000000000001, 0.99, 192.0, 0.0, 0.0, 0.0, 0.0, 0.0, 0.0, 0.0, 0.0, 0.0, 1.645923030438072E9, 0.0, 2022-02-27 11:50:30.438
110.0, -327.09542835896355, -2756.215960528369, -2312.667943557256, -9316.095330249707, 47.27393952297444, 333.2645098286283, -4555.732554880686, -1687.1543749754876, -2374.179944298261, -4063.5918454637344, -3543.667917688837, -2482.720015373232, -2904.028046611315, -1881.9274761590334, -7914.842118602052, -14794.910227645663, 0.008, -0.10400000000000001, 0.99, 192.0, 0.0, 0.0, 0.0, 0.0, 0.0, 0.0, 0.0, 0.0, 0.0, 1.645923030446054E9, 0.0, 2022-02-27 11:50:30.446
112.0, -99.30880061492928, -2533.9502136647957, -2089.8210513378444, -9086.364100738061, 284.96239006070977, 560.9170271059307, -4317.865290387308, -1440.1005435109787, -2279.3638443188484, -4083.931932918064, -3600.575459072049, -2559.855885488497, -2974.0337102453364, -1944.3782501671615, -7974.677738508909, -14730.045465236362, 0.008, -0.10400000000000001, 0.99, 192.0, 0.0, 0.0, 0.0, 0.0, 0.0, 0.0, 0.0, 0.0, 0.0, 1.645923030453066E9, 0.0, 2022-02-27 11:50:30.453
114.0, -188.8945923918, -2626.195863031848, -2176.5905233133462, -9188.48922115436, 195.13072909483066, 456.78024968865515, -4449.762934418075, -1596.8086238871365, -2241.7458584005667, -3915.1539105360403, -3417.4476167497182, -2343.647461372311, -2770.610483957587, -1737.468151744384, -7786.654864150866, -14656.999964356419, 0.008, -0.10400000000000001, 0.99, 192.0, 0.0, 0.0, 0.0, 0.0, 0.0, 0.0, 0.0, 0.0, 0.0, 1.645923030460646E9, 0.0, 2022-02-27 11:50:30.460
116.0, -300.4074454793269, -2730.0867712601153, -2274.535867516502, -9277.31505361975, 92.69268425615839, 364.60165555496883, -4491.739510505141, -1621.3061358101531, -2405.204165602227, -4169.248541503971, -3662.378032490973, -2618.1492350279373, -3029.130760327668, -1998.7600444269235, -8031.473521169844, -14848.956745738597, 0.01, -0.106, 0.992, 192.0, 0.0, 40.0, 126.0, 88.0, 15.5, 0.0, 0.0, 0.0, 0.0, 1.645923030468598E9, 0.0, 2022-02-27 11:50:30.468
118.0, -75.16891660319766, -2512.336076776514, -2059.64619632318, -9062.9394725489, 315.8972043868547, 587.0462163741847, -4317.552365964933, -1425.4601508927526, -2172.634264544757, -3906.2132127539176, -3437.452428037218, -2380.2819705345596, -2793.0739871351707, -1762.9491404234338, -7802.97163760324, -14594.325672903738, 0.01, -0.106, 0.992, 192.0, 0.0, 0.0, 0.0, 0.0, 0.0, 0.0, 0.0, 0.0, 0.0, 1.645923030476662E9, 0.0, 2022-02-27 11:50:30.476
120.0, -334.5832627514914, -2765.938969366428, -2311.148024934295, -9315.022446515852, 44.323509254873905, 335.29851857406123, -4599.161994357347, -1700.7218838598592, -2382.383034513359, -4066.1846478205503, -3553.2568160601636, -2486.9891985641957, -2905.9726483789264, -1861.877961382623, -7922.32995299458, -14791.512762488457, 0.01, -0.106, 0.992, 192.0, 0.0, 0.0, 0.0, 0.0, 0.0, 0.0, 0.0, 0.0, 0.0, 1.645923030482699E9, 0.0, 2022-02-27 11:50:30.482
122.0, -104.15912916173092, -2542.198007368804, -2091.609190894269, -9087.526391449737, 284.6941691272461, 563.8674573740312, -4329.398790526247, -1447.9460058147915, -2284.728262988122, -4078.098127615229, -3604.866994007468, -2563.387461112435, -2967.7528700533953, -1925.0886947022314, -7983.931360713406, -14728.793767546866, 0.01, -0.106, 0.992, 192.0, 0.0, 0.0, 0.0, 0.0, 0.0, 0.0, 0.0, 0.0, 0.0, 1.645923030490247E9, 0.0, 2022-02-27 11:50:30.490
124.0, -189.2298685586296, -2630.3756392449905, -2176.47876459107, -9186.857543809121, 194.41547327226084, 461.6752817243674, -4456.915492643773, -1564.1750769823882, -2242.5281694565024, -3919.6019076826465, -3418.4087417612964, -2348.0060515410964, -2761.9827105978384, -1730.2038347964092, -7782.430384448813, -14650.249737530916, 0.01, -0.106, 0.992, 192.0, 0.0, 0.0, 0.0, 0.0, 0.0, 0.0, 0.0, 0.0, 0.0, 1.645923030498228E9, 0.0, 2022-02-27 11:50:30.498
126.0, -296.87586985538843, -2725.057628757671, -2278.6485884962785, -9273.001166939875, 87.6635417537143, 381.9689609967424, -4509.240926413647, -1596.0263128312008, -2404.913592924308, -4155.34575645277, -3664.367337747495, -2618.6633251504095, -3022.179367802068, -1982.331512252273, -8032.568756648155, -14837.400893855203, 0.012, -0.10400000000000001, 0.984, 192.0, 0.0, 48.0, 126.0, 96.0, 15.0, 96.0, 0.0, 0.0, 0.0, 1.645923030506275E9, 0.0, 2022-02-27 11:50:30.506
128.0, -71.43617527916138, -2508.4692249857458, -2055.6675858101353, -9057.195074223886, 331.0963906164635, 597.1939083568941, -4290.104423773816, -1429.8410928059927, -2162.553627795414, -3902.458119685426, -3435.0831431249553, -2373.017653586585, -2781.7640044407854, -1747.3252710491743, -7798.21071603426, -14584.64736755459, 0.012, -0.10400000000000001, 0.984, 192.0, 0.0, 0.0, 0.0, 0.0, 0.0, 0.0, 0.0, 0.0, 0.0, 1.645923030512823E9, 0.0, 2022-02-27 11:50:30.512
130.0, -337.3548790639495, -2759.814591385674, -2312.8467575128984, -9311.289705191815, 58.181590817164285, 337.3548790639495, -4539.169912239303, -1657.47125833884, -2376.3480635104256, -4063.5247902303686, -3551.51337999265, -2475.3886431918913, -2895.7579011628513, -1851.9314351000114, -7904.761481852709, -14780.78392514991, 0.012, -0.10400000000000001, 0.984, 192.0, 0.0, 0.0, 0.0, 0.0, 0.0, 0.0, 0.0, 0.0, 0.0, 1.645923030520896E9, 0.0, 2022-02-27 11:50:30.520
132.0, -112.38457112128391, -2543.5391120361223, -2098.359417719772, -9091.773222896245, 281.78844234805615, 555.9102363479419, -4310.198642039138, -1437.8206655765375, -2290.7185305021444, -4093.610238267212, -3615.506424368194, -2570.65177806041, -2971.9102945220825, -1932.9788604949547, -7973.984834430795, -14727.095034968263, 0.012, -0.10400000000000001, 0.984, 192.0, 0.0, 0.0, 0.0, 0.0, 0.0, 0.0, 0.0, 0.0, 0.0, 1.645923030530354E9, 0.0, 2022-02-27 11:50:30.530
134.0, -189.40868251427204, -2629.6603834224206, -2173.371872111782, -9179.570875116691, 212.52038628105956, 470.0571858951075, -4418.895175325296, -1546.316033162598, -2228.893605338765, -3908.5154424328143, -3414.005448103601, -2341.4793421601466, -2755.992443083816, -1733.7130586758924, -7775.747212856676, -14646.47229271797, 0.012, -0.10400000000000001, 0.984, 192.0, 0.0, 0.0, 0.0, 0.0, 0.0, 0.0, 0.0, 0.0, 0.0, 1.645923030536535E9, 0.0, 2022-02-27 11:50:30.536
136.0, -312.34327701846087, -2741.7096783768748, -2282.761309476055, -9275.6386727856, 97.29714361395165, 378.97382723973124, -4485.704539502209, -1605.056417591145, -2404.623020246389, -4170.455535704557, -3663.048584824632, -2615.9811158157727, -3012.50106245292, -1976.67652090508, -8015.044988995193, -14832.5505653084, 0.012, -0.106, 0.986, 192.0, 0.0, 48.0, 126.0, 88.0, 15.0, 104.0, 0.0, 0.0, 0.0, 1.645923030551722E9, 0.0, 2022-02-27 11:50:30.551
138.0, -93.38558833427291, -2530.7092107187764, -2058.7521265449677, -9056.41276316795, 346.563797779536, 597.6632949904556, -4294.37360696478, -1423.739066569694, -2168.342729609338, -3915.8915181030657, -3438.9499949157234, -2382.8971246358306, -2777.830097416651, -1750.0968873616323, -7794.701492154777, -14589.69886180149, 0.012, -0.106, 0.986, 192.0, 0.0, 0.0, 0.0, 0.0, 0.0, 0.0, 0.0, 0.0, 0.0, 1.64592303055858E9, 0.0, 2022-02-27 11:50:30.558
140.0, -385.1205569649407, -2812.162376900003, -2315.4172081252586, -9311.17794646954, 81.78503296196854, 350.0283181701086, -4543.640261130365, -1672.2234096793427, -2387.3898252713475, -4062.5636652187904, -3551.5804352260157, -2482.6082566509554, -2883.7773661348065, -1851.1267722996204, -7893.675016602876, -14780.985090850007, 0.012, -0.106, 0.986, 192.0, 0.0, 0.0, 0.0, 0.0, 0.0, 0.0, 0.0, 0.0, 0.0, 1.645923030565099E9, 0.0, 2022-02-27 11:50:30.565
142.0, -202.08212162043117, -2632.543758457155, -2103.679132900135, -9098.322284021651, 301.36857049090514, 564.1133265630397, -4307.359970493313, -1415.9383077547918, -2320.5804610944347, -4112.586869309767, -3633.790151332635, -2592.8247085600747, -2969.0045677428925, -1933.8282267842565, -7971.4814390518, -14728.816119291321, 0.012, -0.106, 0.986, 192.0, 0.0, 0.0, 0.0, 0.0, 0.0, 0.0, 0.0, 0.0, 0.0, 1.645923030573133E9, 0.0, 2022-02-27 11:50:30.573
144.0, -311.8515386404441, -2739.675669631442, -2184.8159652728996, -9188.802145576734, 229.1277324113527, 476.71800574278905, -4392.788337801497, -1536.056582457612, -2267.49506801308, -3941.2160445709283, -3443.1968263622316, -2374.537572209546, -2751.7903151262185, -1730.4050004965068, -7765.1524859848605, -14640.929060093053, 0.012, -0.106, 0.986, 192.0, 0.0, 0.0, 0.0, 0.0, 0.0, 0.0, 0.0, 0.0, 0.0, 1.645923030581223E9, 0.0, 2022-02-27 11:50:30.581
146.0, -467.5761422605684, -2887.9124388590385, -2295.479452071125, -9283.528838578324, 111.66931529871408, 395.0670832475523, -4491.65010352732, -1606.598687958561, -2457.663709838833, -4207.73824545601, -3704.4216638114053, -2656.326014557602, -3011.6069926747077, -1984.4325762310716, -8010.306419170669, -14834.137539164727, 0.01, -0.108, 0.99, 192.0, 0.0, 40.0, 126.0, 80.0, 15.0, 120.0, 0.0, 0.0, 0.0, 1.645923030588264E9, 0.0, 2022-02-27 11:50:30.588
148.0, -269.5843898754585, -2704.739893047797, -2071.1126412287526, -9068.415649940449, 364.758117766156, 605.3522950830812, -4278.034481767951, -1415.6700868213281, -2216.2648697215163, -3954.5376842662913, -3481.708882058726, -2427.7347240131767, -2771.996292113816, -1743.8831024030571, -7789.404128718869, -14590.101193201685, 0.01, -0.108, 0.99, 192.0, 0.0, 0.0, 0.0, 0.0, 0.0, 0.0, 0.0, 0.0, 0.0, 1.64592303059578E9, 0.0, 2022-02-27 11:50:30.595
150.0, -564.6050649410564, -2988.852916819205, -2337.0089932690853, -9330.065170534273, 91.1280621442869, 352.15173389336275, -4526.965859766706, -1646.2283308778206, -2448.3430324009696, -4140.437142901081, -3609.1585289428867, -2552.613920284977, -2886.727796402907, -1867.0188626073436, -7889.875220045474, -14783.242617039994, 0.01, -0.108, 0.99, 192.0, 0.0, 0.0, 0.0, 0.0, 0.0, 0.0, 0.0, 0.0, 0.0, 1.645923030602941E9, 0.0, 2022-02-27 11:50:30.602
152.0, -358.2761118741169, -2781.2722660627683, -2129.8306739128443, -9114.728464451846, 310.1975095507514, 571.2658847887379, -4291.937266819152, -1425.5495578705738, -2385.2217060591825, -4181.989035843496, -3693.49166077276, -2654.627281978999, -2973.430213145043, -1944.6688228450803, -7967.480476794301, -14731.073645481307, 0.01, -0.108, 0.99, 192.0, 0.0, 0.0, 0.0, 0.0, 0.0, 0.0, 0.0, 0.0, 0.0, 1.645923030610894E9, 0.0, 2022-02-27 11:50:30.610
154.0, -418.3576009699823, -2845.2653104383126, -2200.015151502508, -9198.145174759053, 226.40081958780524, 486.7315872587666, -4391.402529645268, -1531.6309370554611, -2319.7757982940434, -3962.45020180347, -3489.7331583181813, -2413.6754767507887, -2757.4006029845004, -1728.5051022178059, -7766.046555763073, -14641.309039748794, 0.01, -0.108, 0.99, 192.0, 0.0, 0.0, 0.0, 0.0, 0.0, 0.0, 0.0, 0.0, 0.0, 1.645923030618039E9, 0.0, 2022-02-27 11:50:30.618
156.0, -520.1250934749953, -2948.5080180773757, -2307.3035248879823, -9297.498678862892, 102.01336169402144, 382.0583679745636, -4484.430490068256, -1609.79498741567, -2486.229239252715, -4208.632315234222, -3728.8744722455112, -2685.8526689830624, -3013.730408397962, -1995.4519862475381, -8016.542555873699, -14836.08214093234, 0.01, -0.106, 0.992, 192.0, 0.0, 40.0, 126.0, 88.0, 15.5, 0.0, 0.0, 0.0, 0.0, 1.645923030625404E9, 0.0, 2022-02-27 11:50:30.625
158.0, -268.8467823084334, -2698.9507912338727, -2075.292417441895, -9068.616815640547, 352.8446379714773, 606.2687166057488, -4275.218161966582, -1413.9937059871802, -2233.900396096754, -4000.850498777688, -3500.8866788013793, -2447.7618870451315, -2781.2722660627683, -1769.0958701486434, -7797.853088122975, -14594.973873492941, 0.01, -0.106, 0.992, 192.0, 0.0, 0.0, 0.0, 0.0, 0.0, 0.0, 0.0, 0.0, 0.0, 1.645923030633486E9, 0.0, 2022-02-27 11:50:30.633
160.0, -517.3311254180819, -2946.3622506096663, -2331.3763536663478, -9329.618135645167, 81.87443993978977, 348.48604780269244, -4521.310868419512, -1667.6860055549153, -2438.53061658509, -4118.308915890327, -3597.088586937021, -2534.0619723870723, -2879.7764038773066, -1843.4377722069946, -7888.7129293337985, -14781.49918097248, 0.01, -0.106, 0.992, 192.0, 0.0, 0.0, 0.0, 0.0, 0.0, 0.0, 0.0, 0.0, 0.0, 1.645923030640735E9, 0.0, 2022-02-27 11:50:30.640
162.0, -277.00516903462045, -2706.4386256264, -2124.7121244325785, -9104.714882935868, 298.52989894508113, 566.3261492641151, -4309.908069361219, -1451.1646570163557, -2357.9972813126187, -4142.225282457505, -3669.083555827565, -2632.1190753125043, -2964.891846763116, -1952.3354711932507, -7973.940130941884, -14741.087226997284, 0.01, -0.106, 0.992, 192.0, 0.0, 0.0, 0.0, 0.0, 0.0, 0.0, 0.0, 0.0, 0.0, 1.645923030648074E9, 0.0, 2022-02-27 11:50:30.648
164.0, -332.16927435031823, -2764.575512954654, -2191.4544333761255, -9186.589322875658, 221.39402882981645, 474.88516269745384, -4406.959343786161, -1557.4919053902515, -2278.9615129186527, -3952.1236958651184, -3454.9091404568126, -2383.724139180677, -2739.8544835870844, -1741.7149831908923, -7770.9639395432405, -14646.338182251238, 0.01, -0.106, 0.992, 192.0, 0.0, 0.0, 0.0, 0.0, 0.0, 0.0, 0.0, 0.0, 0.0, 1.645923030656072E9, 0.0, 2022-02-27 11:50:30.656
166.0, -442.430429748348, -2862.2973397132564, -2311.393894123303, -9294.503545105881, 97.61006803632594, 380.337283651505, -4494.578182050966, -1631.6549934929603, -2459.0718697395173, -4185.051224833873, -3700.4207015539055, -2653.8896744119734, -3006.9354780835483, -1991.9874658569654, -8021.705808842875, -14843.435864858135, 0.01, -0.098, 0.994, 192.0, 0.0, 40.0, 126.0, 120.0, 15.5, 8.0, 0.0, 0.0, 0.0, 1.645923030670323E9, 0.0, 2022-02-27 11:50:30.670
168.0, -182.72551092213524, -2605.453444177323, -2077.415833165149, -9067.901559817978, 342.7416494776785, 596.9480391678857, -4294.440662198146, -1435.5407876420961, -2209.671105107201, -3894.098567259141, -3477.216181423209, -2429.7463810141544, -2780.64641721802, -1771.8898382055568, -7806.324399271536, -14601.813507296267, 0.01, -0.098, 0.994, 192.0, 0.0, 0.0, 0.0, 0.0, 0.0, 0.0, 0.0, 0.0, 0.0, 1.645923030677813E9, 0.0, 2022-02-27 11:50:30.677
170.0, -436.2613482786833, -2859.570426889709, -2333.3433071784148, -9322.264411719372, 79.72867247208029, 350.5871117814913, -4534.18547322577, -1675.1291364585325, -2410.8815086938753, -4045.151656288106, -3572.2334471027193, -2526.2835653166253, -2877.2283050094015, -1876.138374345109, -7898.458289916312, -14788.49527698699, 0.01, -0.098, 0.994, 192.0, 0.0, 0.0, 0.0, 0.0, 0.0, 0.0, 0.0, 0.0, 0.0, 1.645923030685839E9, 0.0, 2022-02-27 11:50:30.685
172.0, -222.89159570832203, -2654.5378750011773, -2129.115418090274, -9112.94032489542, 278.25686672411763, 565.7673556527324, -4325.554290479933, -1454.5844739180177, -2343.0886677609287, -4129.998878240452, -3652.856189353012, -2611.1531390134264, -2970.3233206657555, -1940.4219913985721, -7984.288988624691, -14745.53522414389, 0.01, -0.098, 0.994, 192.0, 0.0, 0.0, 0.0, 0.0, 0.0, 0.0, 0.0, 0.0, 0.0, 1.645923030693734E9, 0.0, 2022-02-27 11:50:30.693
174.0, -274.3900149333495, -2702.9294017469174, -2190.0462734754415, -9189.763270588312, 213.48151129263775, 478.2379243657499, -4418.403436947279, -1558.9224170353912, -2267.11508835734, -3934.622279956613, -3441.363983316897, -2366.379185483359, -2748.482256946833, -1723.2524422708086, -7777.021262290628, -14644.684153161545, 0.011, -0.1, 0.992, 192.0, 0.0, 48.0, 126.0, 104.0, 15.0, 120.0, 0.0, 0.0, 0.0, 1.645923030700466E9, 0.0, 2022-02-27 11:50:30.700
176.0, -390.5073273786697, -2796.672617992475, -2307.3258766324375, -9306.372321411649, 81.94149517315569, 365.27220788862803, -4511.118472947893, -1640.6180430195384, -2441.2128259197266, -4148.170846482617, -3681.4440705113498, -2652.615624978021, -3005.6167251606853, -1991.003989100932, -8020.677628597931, -14847.816806771376, 0.011, -0.1, 0.992, 192.0, 0.0, 0.0, 0.0, 0.0, 0.0, 0.0, 0.0, 0.0, 0.0, 1.645923030708315E9, 0.0, 2022-02-27 11:50:30.708
178.0, -142.78294358050152, -2575.479754862756, -2067.6257690937246, -9061.55366439267, 336.1478848633629, 597.7527019682768, -4298.8216041113865, -1433.2162062187442, -2189.0404449749526, -3891.729282346879, -3460.251207381631, -2428.628793791389, -2779.4617747618886, -1786.1949546569533, -7808.0007801056845, -14601.768803807356, 0.011, -0.1, 0.992, 192.0, 0.0, 0.0, 0.0, 0.0, 0.0, 0.0, 0.0, 0.0, 0.0, 1.645923030716424E9, 0.0, 2022-02-27 11:50:30.716
180.0, -400.07387400554114, -2828.769723030296, -2322.3238971619485, -9312.764920325866, 70.2515328230301, 342.339318077483, -4539.6616506173195, -1675.6879300699152, -2391.6813602067664, -4085.183630607561, -3552.385098026407, -2480.7977653500757, -2872.601493907153, -1854.7030514124694, -7896.8713160599855, -14781.298015272381, 0.011, -0.1, 0.992, 192.0, 0.0, 0.0, 0.0, 0.0, 0.0, 0.0, 0.0, 0.0, 0.0, 1.645923030723443E9, 0.0, 2022-02-27 11:50:30.723
182.0, -196.76240644006808, -2622.4631217078118, -2122.6334121982354, -9109.98989462732, 283.2636574821064, 552.9821578242967, -4325.509586991023, -1459.6359681649171, -2321.5862895949235, -4131.451741630047, -3636.0700292670763, -2603.508842409711, -2966.210599685979, -1952.9613200379993, -7984.445450835879, -14750.34084920178, 0.011, -0.1, 0.992, 192.0, 0.0, 0.0, 0.0, 0.0, 0.0, 0.0, 0.0, 0.0, 0.0, 1.645923030729971E9, 0.0, 2022-02-27 11:50:30.729
184.0, -256.28510192455076, -2697.944962733384, -2174.5341628234582, -9175.793430303745, 226.75844749909015, 483.95997094630854, -4407.026399019528, -1549.2664634306984, -2247.0655735809296, -3924.8545676296435, -3422.5661662299835, -2359.338385979937, -2741.5308644212323, -1722.62659342606, -7766.650052863366, -14636.99515306892, 0.0115, -0.10300000000000001, 0.99, 192.0, 0.0, 48.0, 126.0, 88.0, 15.0, 112.0, 0.0, 0.0, 0.0, 1.645923030738135E9, 0.0, 2022-02-27 11:50:30.738
186.0, -416.4800544357365, -2822.89121423855, -2301.045036440496, -9293.296550905294, 96.33601860237344, 375.755176038167, -4499.920248975784, -1633.0631533936446, -2445.2808434105928, -4180.7820416429095, -3677.2642942982075, -2643.3172992846135, -3000.855803591705, -1982.2421052744514, -8013.100387227582, -14842.921774735663, 0.0115, -0.10300000000000001, 0.99, 192.0, 0.0, 0.0, 0.0, 0.0, 0.0, 0.0, 0.0, 0.0, 0.0, 1.645923030746006E9, 0.0, 2022-02-27 11:50:30.746
188.0, -193.90138314978876, -2625.100627553538, -2060.1602864456518, -9060.36902193654, 353.4257833273153, 608.7050567513772, -4280.537877146945, -1422.4873688801968, -2208.4194074177035, -3938.7350009363895, -3471.225913909187, -2419.9339651982746, -2778.612408472587, -1761.9209601784898, -7801.004684091174, -14599.354815406183, 0.0115, -0.10300000000000001, 0.99, 192.0, 0.0, 0.0, 0.0, 0.0, 0.0, 0.0, 0.0, 0.0, 0.0, 1.645923030752639E9, 0.0, 2022-02-27 11:50:30.752
190.0, -504.4565206118251, -2928.860834701161, -2318.79232153801, -9319.984533784931, 86.00951266402157, 349.0895449029857, -4526.250603944136, -1669.205924177876, -2418.794026231054, -4084.848354440732, -3569.6853482348142, -2502.4119022383575, -2871.886238084583, -1846.9916995753886, -7884.980188009762, -14782.437954239602, 0.0115, -0.10300000000000001, 0.99, 192.0, 0.0, 0.0, 0.0, 0.0, 0.0, 0.0, 0.0, 0.0, 0.0, 1.645923030761089E9, 0.0, 2022-02-27 11:50:30.761
192.0, -331.20814933874004, -2755.7242221503525, -2126.7237814335563, -9115.510775507782, 289.5892011629583, 555.6643671589336, -4324.101427090339, -1458.4960291976965, -2380.5725432124786, -4144.81808481432, -3674.6938436858472, -2632.4096479904233, -2975.5089253793867, -1948.9603577804994, -7981.092689167583, -14753.87242482572, 0.0115, -0.10300000000000001, 0.99, 192.0, 0.0, 0.0, 0.0, 0.0, 0.0, 0.0, 0.0, 0.0, 0.0, 1.645923030768707E9, 0.0, 2022-02-27 11:50:30.768
194.0, -405.86297581946565, -2836.928109756483, -2180.6138373153017, -9182.923636784988, 233.53102606904818, 482.44005232334763, -4401.036131505505, -1554.2956059331425, -2292.0372834250074, -3949.9332249084982, -3459.267730625598, -2387.9933223716407, -2741.933195821428, -1720.3914189805294, -7763.207884217249, -14643.700676405511, 0.012750000000000001, -0.10350000000000001, 0.99, 192.0, 0.0, 56.0, 126.0, 96.0, 15.0, 120.0, 0.0, 0.0, 0.0, 1.645923030775834E9, 0.0, 2022-02-27 11:50:30.775
196.0, -549.4505822003582, -2963.975425240448, -2316.1995191811943, -9302.46076613197, 91.50804180002712, 372.08948994749665, -4509.4644438582, -1648.1952843898875, -2499.4614719702568, -4212.834443191819, -3716.2904401171736, -2662.517447771722, -3011.7187513969843, -1978.1517360391304, -8016.251983195781, -14851.683658562144, 0.012750000000000001, -0.10350000000000001, 0.99, 192.0, 0.0, 0.0, 0.0, 0.0, 0.0, 0.0, 0.0, 0.0, 0.0, 1.645923030782192E9, 0.0, 2022-02-27 11:50:30.782
198.0, -280.24617198063993, -2709.970201250339, -2069.8162400503447, -9065.040536527698, 346.563797779536, 608.2580218622711, -4296.340560476847, -1441.1063720114676, -2255.2910155404825, -3967.971082683931, -3509.3579899499405, -2450.175875446305, -2798.1478331265253, -1773.8344399731684, -7813.096977841495, -14610.776556822844, 0.012750000000000001, -0.10350000000000001, 0.99, 192.0, 0.0, 0.0, 0.0, 0.0, 0.0, 0.0, 0.0, 0.0, 0.0, 1.64592303079835E9, 0.0, 2022-02-27 11:50:30.798
200.0, -521.3097359311266, -2938.181512139024, -2319.4852256161244, -9313.927211037542, 83.46141379611657, 356.71148976224544, -4548.244720488157, -1673.8997905134906, -2444.4761806102015, -4082.90375267312, -3583.8116507305685, -2511.330248276025, -2876.4906974423766, -1845.4717809524277, -7890.612827612499, -14781.342718761292, 0.012750000000000001, -0.10350000000000001, 0.99, 192.0, 0.0, 0.0, 0.0, 0.0, 0.0, 0.0, 0.0, 0.0, 0.0, 1.645923030805438E9, 0.0, 2022-02-27 11:50:30.805
202.0, -298.7534163896342, -2721.5707566226433, -2127.282575044939, -9115.622534230059, 288.20339300672924, 554.6138351695341, -4333.846787672852, -1490.1460993464113, -2385.3781682703698, -4154.496390163468, -3674.179753563375, -2634.063677080116, -2982.0803382492472, -1955.1070875057087, -7992.9614654733505, -14759.125084772717, 0.012750000000000001, -0.10350000000000001, 0.99, 192.0, 0.0, 0.0, 0.0, 0.0, 0.0, 0.0, 0.0, 0.0, 0.0, 1.645923030812934E9, 0.0, 2022-02-27 11:50:30.812
204.0, -328.7047539597457, -2759.099335563104, -2175.584694812858, -9177.916846027, 231.47466557915993, 482.7529767457219, -4414.804806089975, -1544.214969183799, -2278.6485884962785, -3933.705858433945, -3441.475742039173, -2372.0565285750067, -2743.5872249111208, -1720.9055091030014, -7763.0961254949725, -14640.772597881867, 0.011375, -0.10275000000000001, 0.99, 192.0, 0.0, 40.0, 126.0, 104.0, 15.0, 120.0, 0.0, 0.0, 0.0, 1.645923030820933E9, 0.0, 2022-02-27 11:50:30.820
206.0, -455.5285519991579, -2875.149592775058, -2313.4279028687365, -9302.773690554344, 79.34869281634008, 363.17114390982914, -4543.148522752348, -1649.8046099906696, -2470.1583349893494, -4198.6410854627, -3687.277875814185, -2643.943148129362, -3009.7294461404617, -1981.0798145627755, -8016.9672390183505, -14848.867338760774, 0.011375, -0.10275000000000001, 0.99, 192.0, 0.0, 0.0, 0.0, 0.0, 0.0, 0.0, 0.0, 0.0, 0.0, 1.645923030828934E9, 0.0, 2022-02-27 11:50:30.828
208.0, -190.25804880357373, -2619.80326411763, -2068.9221702721325, -9065.80049583918, 345.5356175345919, 598.3338473241148, -4278.056833512406, -1438.4688661657412, -2226.8372448488767, -3952.950710409965, -3484.1452222043545, -2432.3838868598805, -2802.148795384025, -1780.1152801651099, -7813.0522743525835, -14609.569562622257, 0.011375, -0.10275000000000001, 0.99, 192.0, 0.0, 0.0, 0.0, 0.0, 0.0, 0.0, 0.0, 0.0, 0.0, 1.645923030836877E9, 0.0, 2022-02-27 11:50:30.836
210.0, -427.11948479646264, -2849.690955840463, -2320.9604407501747, -9314.821280815755, 82.56734401790429, 354.61042578344654, -4521.333220163968, -1687.757872075781, -2417.43056981928, -4071.3479007897263, -3561.3481475529848, -2494.7005504012764, -2876.445993953466, -1851.1491240440757, -7881.89564727493, -14783.35437576227, 0.011375, -0.10275000000000001, 0.99, 192.0, 0.0, 0.0, 0.0, 0.0, 0.0, 0.0, 0.0, 0.0, 0.0, 1.645923030843674E9, 0.0, 2022-02-27 11:50:30.843
212.0, -221.32697359645053, -2647.6088342200323, -2137.765543194478, -9119.288220320728, 267.0586427520088, 546.5448554211683, -4341.178159854193, -1471.4600409817745, -2359.271330746571, -4124.455645615536, -3653.146762030931, -2614.3941419594457, -2982.3709109271663, -1957.38696544015, -7991.91093348395, -14764.44479995308, 0.011375, -0.10275000000000001, 0.99, 192.0, 0.0, 0.0, 0.0, 0.0, 0.0, 0.0, 0.0, 0.0, 0.0, 1.645923030850581E9, 0.0, 2022-02-27 11:50:30.850
214.0, -236.43675284823811, -2672.3075118431466, -2169.147392409729, -9165.511627854303, 233.2404533911292, 486.7539390032219, -4397.750425070575, -1545.7125360623047, -2246.1044485693515, -3905.4085499535267, -3418.7887214170364, -2347.3578509518925, -2740.994422554305, -1717.9327270904455, -7762.6267388614115, -14633.977667567453, 0.0116875, -0.10337500000000001, 0.991, 192.0, 0.0, 48.0, 126.0, 96.0, 15.5, 0.0, 0.0, 0.0, 0.0, 1.645923030858512E9, 0.0, 2022-02-27 11:50:30.858
216.0, -371.1954201692844, -2796.896135437028, -2311.2821354010266, -9297.342216651705, 84.1766696186864, 362.52294332062525, -4516.907574761817, -1651.4139355914517, -2434.797875261054, -4156.2398262309825, -3657.304186499618, -2611.4660634358006, -2994.507908166398, -1974.2625325039069, -8008.406520891967, -14848.80028352741, 0.0116875, -0.10337500000000001, 0.991, 192.0, 0.0, 0.0, 0.0, 0.0, 0.0, 0.0, 0.0, 0.0, 0.0, 1.64592303086516E9, 0.0, 2022-02-27 11:50:30.865
218.0, -95.33019010188463, -2535.0230973986504, -2058.4615538670487, -9047.69558283038, 346.854370457455, 608.1462631399945, -4321.083941588872, -1434.6690696083392, -2186.2241251735836, -3928.9896403538755, -3452.6516142668265, -2403.57248825699, -2791.732882467852, -1771.9121899500121, -7815.958001131774, -14611.000074267396, 0.0116875, -0.10337500000000001, 0.991, 192.0, 0.0, 0.0, 0.0, 0.0, 0.0, 0.0, 0.0, 0.0, 0.0, 1.645923030873149E9, 0.0, 2022-02-27 11:50:30.873
220.0, -344.37332682291594, -2775.4608125043887, -2307.4152836102585, -9299.085652719219, 88.51290804301597, 352.71052750474547, -4533.358458680923, -1684.7627383187698, -2364.3228249934705, -4026.3761909456484, -3512.1296062623987, -2453.036898736584, -2851.859075052628, -1832.7089348684474, -7880.5098391187, -14775.39715473618, 0.0116875, -0.10337500000000001, 0.991, 192.0, 0.0, 0.0, 0.0, 0.0, 0.0, 0.0, 0.0, 0.0, 0.0, 1.645923030881267E9, 0.0, 2022-02-27 11:50:30.881
222.0, -157.17746700971927, -2591.841231804041, -2131.417647769171, -9116.360141797084, 272.4901166546484, 544.5779019091012, -4322.469749745101, -1479.5513724745956, -2330.526987377046, -4112.76568326541, -3624.8941570394227, -2596.333932439558, -2973.2737509338563, -1963.5336951653596, -7989.832221249608, -14768.401058721669, 0.0116875, -0.10337500000000001, 0.991, 192.0, 0.0, 0.0, 0.0, 0.0, 0.0, 0.0, 0.0, 0.0, 0.0, 1.645923030887721E9, 0.0, 2022-02-27 11:50:30.887
224.0, -183.97720861163242, -2621.2337757627697, -2159.022052171475, -9159.051973706719, 244.77395353006764, 500.12028218749555, -4379.936084739696, -1548.9982424972347, -2216.354276699338, -3893.137442247563, -3395.118224038866, -2335.198501968205, -2733.126608506037, -1712.4789014433507, -7755.787105058087, -14635.631696657145, 0.01084375, -0.10368750000000002, 0.9895, 192.0, 0.0, 40.0, 126.0, 96.0, 15.0, 112.0, 0.0, 0.0, 0.0, 1.645923030895832E9, 0.0, 2022-02-27 11:50:30.895
226.0, -320.9263468892988, -2750.091582547615, -2302.654362041278, -9291.419004371048, 89.13875688776457, 379.01853072864185, -4527.234080700169, -1649.9610722018567, -2417.8329012194754, -4158.095021020773, -3638.9310525573555, -2599.8208045745855, -2987.2882947073335, -1965.0759655327756, -8007.020712735738, -14850.230795172549, 0.01084375, -0.10368750000000002, 0.9895, 192.0, 0.0, 0.0, 0.0, 0.0, 0.0, 0.0, 0.0, 0.0, 0.0, 1.645923030903905E9, 0.0, 2022-02-27 11:50:30.903
228.0, -53.84535239283471, -2495.371102734936, -2049.0961729402748, -9044.879263029012, 361.20419039776215, 618.0704376781509, -4279.9790835355625, -1433.3279649410208, -2162.4865725620475, -3917.7020094039453, -3435.351364058419, -2390.563772984001, -2778.83592591714, -1767.3524340811293, -7814.952172631285, -14610.597742867201, 0.01084375, -0.10368750000000002, 0.9895, 192.0, 0.0, 0.0, 0.0, 0.0, 0.0, 0.0, 0.0, 0.0, 0.0, 1.645923030917463E9, 0.0, 2022-02-27 11:50:30.917
230.0, -308.99051535016486, -2741.284995232224, -2296.9323154607196, -9294.302379405783, 98.81706223691252, 368.2002864122732, -4505.12820543387, -1672.4022236349851, -2352.431696943247, -4028.0749235242515, -3504.9993997811557, -2450.846427779964, -2849.1992174624465, -1832.7536383573579, -7873.849019271019, -14775.106582058263, 0.01084375, -0.10368750000000002, 0.9895, 192.0, 0.0, 0.0, 0.0, 0.0, 0.0, 0.0, 0.0, 0.0, 0.0, 1.645923030925559E9, 0.0, 2022-02-27 11:50:30.925
232.0, -125.23682418308547, -2553.8879697189295, -2121.0687900863636, -9109.27463880475, 280.2238202361846, 547.1930560103722, -4335.344354551358, -1490.0119888796794, -2313.1820336797277, -4103.646171527645, -3612.1536626998977, -2588.6002288580216, -2967.1046694641914, -1955.7552880949127, -7988.602875304566, -14768.691631399588, 0.01084375, -0.10368750000000002, 0.9895, 192.0, 0.0, 0.0, 0.0, 0.0, 0.0, 0.0, 0.0, 0.0, 0.0, 1.645923030933463E9, 0.0, 2022-02-27 11:50:30.933
234.0, -151.2766064735182, -2583.593438100033, -2154.0152614134863, -9148.43489509045, 246.29387215302853, 504.6576863119229, -4398.219811704136, -1532.3014893891204, -2197.422349145693, -3871.7915262927445, -3380.4331279317294, -2315.4172081252586, -2722.5989368675873, -1707.494462429817, -7760.391564415881, -14635.318772234772, 0.011421875, -0.10384375000000001, 0.98875, 192.0, 0.0, 48.0, 126.0, 96.0, 15.0, 112.0, 0.0, 0.0, 0.0, 1.64592303094053E9, 0.0, 2022-02-27 11:50:30.940
236.0, -307.47059672720394, -2731.517282905255, -2303.88370798632, -9289.452050858981, 87.19415512015286, 365.8980567333766, -4521.422627141789, -1650.206941390865, -2412.2896685945593, -4135.363296909725, -3631.7114390982915, -2587.7061590798094, -2986.7071493514954, -1961.9467213090327, -8008.540631358699, -14847.07919920435, 0.011421875, -0.10384375000000001, 0.98875, 192.0, 0.0, 0.0, 0.0, 0.0, 0.0, 0.0, 0.0, 0.0, 0.0, 1.645923030947988E9, 0.0, 2022-02-27 11:50:30.947
238.0, -26.375058457262334, -2465.6209308649222, -2039.417867591127, -9032.608155323047, 353.112858904941, 615.3435248546034, -4330.38226728228, -1457.445497208297, -2163.805325484911, -3909.9236023334984, -3434.926680913768, -2384.2158775586936, -2784.289751564235, -1769.1852771264646, -7825.859823925474, -14619.091405760219, 0.011421875, -0.10384375000000001, 0.98875, 192.0, 0.0, 0.0, 0.0, 0.0, 0.0, 0.0, 0.0, 0.0, 0.0, 1.64592303095623E9, 0.0, 2022-02-27 11:50:30.956
240.0, -289.8797738408773, -2725.616422369054, -2292.1937456361948, -9289.340292136705, 90.21164062161931, 359.68427177480123, -4507.2069176682135, -1647.7482495007814, -2336.6737171022555, -4010.864080293665, -3486.73802456117, -2427.310040868526, -2839.185635946469, -1817.688562594481, -7880.107507718505, -14774.011346579951, 0.011421875, -0.10384375000000001, 0.98875, 192.0, 0.0, 0.0, 0.0, 0.0, 0.0, 0.0, 0.0, 0.0, 0.0, 1.645923030964061E9, 0.0, 2022-02-27 11:50:30.964
242.0, -119.20185318015257, -2555.1173156639716, -2129.473046001559, -9114.37083654056, 265.7845933180563, 540.7557536072437, -4317.66412468721, -1469.6942531698053, -2320.7369233056215, -4113.190366410061, -3612.2654214221743, -2590.9248102813735, -2974.413689901077, -1959.711546863502, -7997.029482964216, -14771.440895967591, 0.011421875, -0.10384375000000001, 0.98875, 192.0, 0.0, 0.0, 0.0, 0.0, 0.0, 0.0, 0.0, 0.0, 0.0, 1.645923030970167E9, 0.0, 2022-02-27 11:50:30.970
244.0, -141.799466824468, -2581.738243310242, -2153.2329503575506, -9145.484464822348, 248.61845357638046, 497.8404042530542, -4370.369538112824, -1550.3169954200978, -2196.2600584340166, -3880.061671741208, -3376.1192412518553, -2318.7252663046443, -2724.901166546484, -1706.533337418239, -7762.269110950127, -14631.451920444004, 0.012, -0.10200000000000001, 0.988, 192.0, 0.0, 48.0, 126.0, 104.0, 15.0, 112.0, 0.0, 0.0, 0.0, 1.645923030978355E9, 0.0, 2022-02-27 11:50:30.978
246.0, -301.9050123578325, -2728.857425315073, -2308.8457952553986, -9284.557018823269, 94.92785870168909, 365.853353244466, -4501.663685043298, -1652.665633280949, -2405.494738280146, -4139.252500444949, -3623.5754041165596, -2580.397138642924, -2979.1075562366914, -1963.8913230766445, -8007.825375536129, -14852.778894040453, 0.012, -0.10200000000000001, 0.988, 192.0, 0.0, 0.0, 0.0, 0.0, 0.0, 0.0, 0.0, 0.0, 0.0, 1.645923030985571E9, 0.0, 2022-02-27 11:50:30.985
248.0, -35.69573589512538, -2477.9367420597964, -2053.4324113646044, -9033.54692859017, 351.43647807079293, 614.1141789095616, -4283.9129905596965, -1414.3736856429202, -2168.745061009534, -3903.776872608289, -3440.5816722609607, -2387.8368601604534, -2788.827155688662, -1773.3650533396071, -7826.910355914874, -14613.056434757285, 0.012, -0.10200000000000001, 0.988, 192.0, 0.0, 0.0, 0.0, 0.0, 0.0, 0.0, 0.0, 0.0, 0.0, 1.645923030992892E9, 0.0, 2022-02-27 11:50:30.992
250.0, -287.1081575284192, -2723.716524090353, -2298.340475361404, -9281.69599553299, 91.86566971131202, 355.92917870630964, -4534.587804625965, -1684.4274621519403, -2342.1945979827165, -4015.870871051654, -3490.4931176296614, -2430.6404507923667, -2844.728868571385, -1820.4378271624837, -7878.989920495739, -14770.6362331672, 0.012, -0.10200000000000001, 0.988, 192.0, 0.0, 0.0, 0.0, 0.0, 0.0, 0.0, 0.0, 0.0, 0.0, 1.645923031000426E9, 0.0, 2022-02-27 11:50:31.000
