%OpenBCI Raw EEG Data
%Number of channels = 16
%Sample Rate = 125 Hz
%Board = OpenBCI_GUI$BoardCytonSerialDaisy
Sample Index, EXG Channel 0, EXG Channel 1, EXG Channel 2, EXG Channel 3, EXG Channel 4, EXG Channel 5, EXG Channel 6, EXG Channel 7, EXG Channel 8, EXG Channel 9, EXG Channel 10, EXG Channel 11, EXG Channel 12, EXG Channel 13, EXG Channel 14, EXG Channel 15, Accel Channel 0, Accel Channel 1, Accel Channel 2, Other, Other, Other, Other, Other, Other, Other, Analog Channel 0, Analog Channel 1, Analog Channel 2, Timestamp, Other, Timestamp (Formatted)
162.0, -458.6577962229009, -3292.1437373332665, -1615.829958418603, -9112.247420817306, 338.338355819983, 492.9677239617973, -4601.754796714163, -1162.0001389980482, -953.1901422965697, -4029.2819177248384, -3395.2970379945086, -2592.84706030453, -2817.0127054468044, -1648.7987814901808, -7886.589513610544, -14295.438146047372, 0.0, 0.0, 0.0, 192.0, 0.0, 0.0, 0.0, 0.0, 0.0, 0.0, 0.0, 0.0, 0.0, 1.645922706265407E9, 0.0, 2022-02-27 11:45:06.265
164.0, -617.2210713888493, -3437.899462926324, -1798.8013385297465, -9306.573487111746, 158.58562691040362, 290.4832709411706, -4886.49366933032, -1537.509445847207, -3488.1014809729436, -4794.717406596828, -3353.2757584185315, -2732.456056172378, -2714.7534745637745, -1664.5120578422616, -8252.174645921546, -15277.082059035547, 0.0, 0.0, 0.0, 192.0, 0.0, 0.0, 0.0, 0.0, 0.0, 0.0, 0.0, 0.0, 0.0, 1.64592270626541E9, 0.0, 2022-02-27 11:45:06.265
0.0, -297.0993872999415, -1689.4119011654736, -863.0902603972269, -4602.559459514554, 95.86663196881199, 214.62145025985842, -2395.749377697632, -618.7633417562654, -339.50064653165896, -2056.6510625661685, -1774.8402684736573, -1322.6421263983402, -1480.221924808255, -883.0727199402714, -3963.5677890262355, -7165.142257826598, 0.014, -0.11, 0.986, 192.0, 0.0, 56.0, 126.0, 72.0, 15.0, 104.0, 0.0, 0.0, 0.0, 1.645922706368251E9, 0.0, 2022-02-27 11:45:06.368
2.0, -523.5449103766573, -3327.191272639188, -1717.3292299901523, -9184.220037963396, 230.84881673441134, 404.20894672977295, -4904.173899194468, -1368.3290920649877, -2821.125426426581, -4441.492788969611, -3441.2075211057095, -2704.672837814431, -2738.3345649641237, -1613.5500804841615, -8163.23705473388, -14902.958560342619, 0.014, -0.11, 0.986, 192.0, 0.0, 0.0, 0.0, 0.0, 0.0, 0.0, 0.0, 0.0, 0.0, 1.645922706375124E9, 0.0, 2022-02-27 11:45:06.375
4.0, -911.6606010986092, -3616.0652179795766, -1953.9447967940328, -9491.534172479413, -118.91128050223357, 216.0743136494534, -4954.93471085247, -1486.3910062779196, -2512.649001198888, -4705.221021797779, -3695.279800329185, -2800.807690716707, -3012.232841519456, -1816.101588738154, -8250.095933687202, -15084.36531834189, 0.014, -0.11, 0.986, 192.0, 0.0, 0.0, 0.0, 0.0, 0.0, 0.0, 0.0, 0.0, 0.0, 1.645922706383389E9, 0.0, 2022-02-27 11:45:06.383
6.0, -504.7470932897441, -3292.2778477999987, -1676.3137789146638, -9139.270679863774, 261.9177415272882, 463.3069590696048, -4783.027444246703, -1248.814314462461, -1766.7936404697468, -4138.671355089111, -3470.9129894868124, -2654.7613924457305, -2806.663847763997, -1602.6200774455165, -8014.687361083908, -14535.987619875386, 0.014, -0.109, 0.989, 192.0, 0.0, 56.0, 126.0, 80.0, 15.5, 0.0, 0.0, 0.0, 0.0, 1.645922706390413E9, 0.0, 2022-02-27 11:45:06.390
8.0, -828.1097803246714, -3559.671766718837, -1927.100351703209, -9441.980355021997, -55.09705008233191, 224.23270037564046, -5008.7800632453045, -1553.8038675551259, -3422.387352274341, -4816.130377785013, -3570.691176735303, -2812.542356555743, -2872.4226799515104, -1747.2805675602638, -8326.293030535344, -15283.675823649863, 0.014, -0.109, 0.989, 192.0, 0.0, 0.0, 0.0, 0.0, 0.0, 0.0, 0.0, 0.0, 0.0, 1.645922706397802E9, 0.0, 2022-02-27 11:45:06.397
10.0, -721.3131453172142, -3465.3921086063515, -1807.2055944449419, -9311.155594725084, 72.33024505737366, 363.50642007665874, -4837.476293739831, -1297.0493789970135, -1505.9040791874027, -4270.770164819975, -3604.7105317962805, -2694.6592562984533, -2949.8044192557836, -1711.2272037538535, -8038.290803228713, -14601.813507296267, 0.014, -0.109, 0.989, 192.0, 0.0, 0.0, 0.0, 0.0, 0.0, 0.0, 0.0, 0.0, 0.0, 1.645922706404726E9, 0.0, 2022-02-27 11:45:06.404
12.0, -524.8636632995205, -3323.0785516594115, -1714.7587793777918, -9178.565046616202, 246.45033436421568, 414.2225282457505, -4878.0000064373025, -1366.4962490196526, -2805.836833219151, -4444.286757026524, -3433.2055965907093, -2708.293820416191, -2742.3802307105343, -1612.633658961494, -8157.4926564088655, -14900.52222019699, 0.014, -0.109, 0.989, 192.0, 0.0, 0.0, 0.0, 0.0, 0.0, 0.0, 0.0, 0.0, 0.0, 1.645922706412938E9, 0.0, 2022-02-27 11:45:06.412
14.0, -910.5430138758438, -3612.310124911085, -1951.0614217592981, -9487.242637543994, -113.65862055523641, 233.5757295579588, -4939.243786244844, -1467.1461543019002, -2536.744181721709, -4722.945955150838, -3690.8094514381232, -2805.389798330045, -3010.1317775406574, -1823.2541469638525, -8246.340840618712, -15091.897856223328, 0.014, -0.109, 0.989, 192.0, 0.0, 0.0, 0.0, 0.0, 0.0, 0.0, 0.0, 0.0, 0.0, 1.64592270641958E9, 0.0, 2022-02-27 11:45:06.419
16.0, -493.6829797843671, -3290.355597776842, -1670.6364358230157, -9129.27945009225, 270.5008113981261, 471.53240102915777, -4796.080863008602, -1249.8201429629496, -1740.016250612289, -4142.381744668692, -3459.5359515590612, -2637.259976537225, -2791.9787516568604, -1599.5131849662287, -8011.580468604621, -14531.740788428879, 0.011, -0.10650000000000001, 0.9895, 192.0, 0.0, 32.0, 126.0, 96.0, 15.0, 120.0, 0.0, 0.0, 0.0, 1.645922706427478E9, 0.0, 2022-02-27 11:45:06.427
18.0, -815.1904720295039, -3550.440496258795, -1928.3744011371616, -9431.877366528197, -53.42066924818388, 231.60877604589177, -5035.0210112358345, -1548.4170971413967, -3409.870375379369, -4808.888412581493, -3554.9779003832223, -2788.4918795218327, -2858.2069704779356, -1734.4506662429174, -8332.439760260553, -15283.295843994123, 0.011, -0.10650000000000001, 0.9895, 192.0, 0.0, 0.0, 0.0, 0.0, 0.0, 0.0, 0.0, 0.0, 0.0, 1.645922706436038E9, 0.0, 2022-02-27 11:45:06.436
20.0, -737.160532136027, -3480.121908202399, -1820.6389928625815, -9319.202222728994, 61.020262362988284, 352.64347227137955, -4806.09444452458, -1300.4468441542201, -1515.4929775587295, -4281.029615524962, -3609.091473709521, -2691.775881263719, -2952.7548495238843, -1715.6752009004595, -8048.147922533503, -14611.581219623235, 0.011, -0.10650000000000001, 0.9895, 192.0, 0.0, 0.0, 0.0, 0.0, 0.0, 0.0, 0.0, 0.0, 0.0, 1.645922706442519E9, 0.0, 2022-02-27 11:45:06.442
22.0, -524.6401458549674, -3329.2029296401656, -1719.8326253691466, -9182.00721526232, 239.8565697499001, 416.56946141355775, -4872.590884279119, -1367.5691327535073, -2789.698873722419, -4442.476265725644, -3434.7925704470363, -2712.7641693072524, -2745.5318266787326, -1617.0593043636447, -8158.073801764704, -14894.777821871976, 0.011, -0.10650000000000001, 0.9895, 192.0, 0.0, 0.0, 0.0, 0.0, 0.0, 0.0, 0.0, 0.0, 0.0, 1.645922706450094E9, 0.0, 2022-02-27 11:45:06.450
24.0, -918.4778831574778, -3620.9378982708336, -1961.6337968866585, -9493.12114633574, -113.90448974424478, 229.5077120670929, -4928.7161146063945, -1470.6553781813834, -2565.644987302421, -4733.406571555922, -3684.1486315904417, -2808.004952431316, -3009.4612252069983, -1807.138539211576, -8252.10759068818, -15100.36916737189, 0.011, -0.10650000000000001, 0.9895, 192.0, 0.0, 0.0, 0.0, 0.0, 0.0, 0.0, 0.0, 0.0, 0.0, 1.645922706458026E9, 0.0, 2022-02-27 11:45:06.458
26.0, -498.35449437552626, -3289.930914632191, -1679.2195056938538, -9134.375647828061, 273.697110855235, 482.3059418566158, -4782.870982035516, -1232.1399130988018, -1732.3272505196633, -4127.651945072645, -3464.475687083684, -2649.2628633097247, -2796.896135437028, -1596.987437842779, -8003.131509200515, -14524.565878458725, 0.0125, -0.10825000000000001, 0.99075, 192.0, 0.0, 56.0, 126.0, 72.0, 15.5, 0.0, 0.0, 0.0, 0.0, 1.645922706472392E9, 0.0, 2022-02-27 11:45:06.472
28.0, -808.7531696263754, -3544.1373043223984, -1923.1440929346197, -9430.469206627513, -24.452808434105926, 247.07618320896427, -4967.071708091701, -1543.343251150042, -3408.931602112246, -4786.380205914999, -3552.0721736040323, -2794.7950714582294, -2846.0699732387034, -1722.2913172592305, -8316.815890886295, -15277.909073580395, 0.0125, -0.10825000000000001, 0.99075, 192.0, 0.0, 0.0, 0.0, 0.0, 0.0, 0.0, 0.0, 0.0, 0.0, 1.645922706479784E9, 0.0, 2022-02-27 11:45:06.479
30.0, -728.7786279652868, -3472.1423354318545, -1819.0967224951653, -9315.827109316244, 76.66648348170322, 369.6307980574129, -4805.423892190921, -1303.7549023336057, -1518.5998700380171, -4281.99074053654, -3606.3869126304285, -2687.81962249513, -2941.601329040686, -1697.0114942802782, -8036.21209099437, -14617.415024926071, 0.0125, -0.10825000000000001, 0.99075, 192.0, 0.0, 0.0, 0.0, 0.0, 0.0, 0.0, 0.0, 0.0, 0.0, 1.645922706487822E9, 0.0, 2022-02-27 11:45:06.487
32.0, -514.2465846832496, -3315.2777928445093, -1713.8647095995796, -9167.880912766566, 249.64663382132457, 428.25942376368334, -4850.328546801633, -1357.577902981985, -2762.2509315313023, -4410.334457198913, -3428.064695365989, -2694.1451661759816, -2735.5853003961206, -1595.0651878196227, -8151.27887145029, -14886.03828978995, 0.0125, -0.10825000000000001, 0.99075, 192.0, 0.0, 0.0, 0.0, 0.0, 0.0, 0.0, 0.0, 0.0, 0.0, 1.645922706495814E9, 0.0, 2022-02-27 11:45:06.495
34.0, -919.6848773580645, -3622.8154448050796, -1963.3772329541723, -9491.109489334762, -114.2397659110744, 227.76427599957896, -4957.12518180909, -1492.6271429809503, -2612.5389471696553, -4729.942051165349, -3673.7103669298135, -2797.857260448606, -2999.760568113395, -1801.6400100755704, -8261.92000650406, -15121.759786815619, 0.0125, -0.10825000000000001, 0.99075, 192.0, 0.0, 0.0, 0.0, 0.0, 0.0, 0.0, 0.0, 0.0, 0.0, 1.64592270650241E9, 0.0, 2022-02-27 11:45:06.502
36.0, -522.6955440873556, -3319.166996379733, -1685.8356220526246, -9140.947060697921, 269.9420177867434, 474.5051830417136, -4760.18396141338, -1213.0291715895144, -1705.3933984510184, -4142.560558624335, -3467.82844875198, -2651.0510028661497, -2806.932068697461, -1597.9932663432678, -8009.032369736716, -14521.97307610191, 0.01225, -0.108125, 0.990375, 192.0, 0.0, 48.0, 126.0, 80.0, 15.0, 120.0, 0.0, 0.0, 0.0, 1.645922706510259E9, 0.0, 2022-02-27 11:45:06.510
38.0, -816.5762801857329, -3552.8097811710577, -1924.261680157385, -9428.993991493464, -23.625793889259565, 249.91485475478828, -4981.4885832653745, -1526.154759663911, -3413.714875425682, -4801.244115977778, -3552.474505004228, -2799.0866063936483, -2850.8085430632286, -1727.72279116187, -8320.50392872142, -15268.320175209068, 0.01225, -0.108125, 0.990375, 192.0, 0.0, 0.0, 0.0, 0.0, 0.0, 0.0, 0.0, 0.0, 0.0, 1.645922706519407E9, 0.0, 2022-02-27 11:45:06.519
40.0, -744.1789798949933, -3492.3036089305415, -1826.3833911875954, -9323.449054175504, 71.81615493490159, 373.87762950392124, -4821.785369132205, -1287.1922596922232, -1528.278175387165, -4282.102499258816, -3611.6172208329704, -2695.039235954194, -2948.999756455393, -1704.0522937837, -8047.276204499746, -14619.024350526852, 0.01225, -0.108125, 0.990375, 192.0, 0.0, 0.0, 0.0, 0.0, 0.0, 0.0, 0.0, 0.0, 0.0, 1.645922706524457E9, 0.0, 2022-02-27 11:45:06.524
42.0, -519.588651608068, -3325.649002271772, -1717.5080439457947, -9176.888665782055, 251.94886350022122, 428.88527260843193, -4839.57735771863, -1349.5759784669851, -2746.135323779026, -4417.375256702335, -3429.651669222316, -2701.2753726572246, -2742.246120243802, -1598.3508942545527, -8154.117542996114, -14880.338594953848, 0.01225, -0.108125, 0.990375, 192.0, 0.0, 0.0, 0.0, 0.0, 0.0, 0.0, 0.0, 0.0, 0.0, 1.645922706532104E9, 0.0, 2022-02-27 11:45:06.532
44.0, -936.471037444, -3648.6540613954144, -1970.261570246407, -9501.92773365113, -112.85395775484535, 225.48439806513764, -4922.837605814649, -1473.4269944938417, -2618.506862939222, -4749.119847908002, -3689.893029915456, -2821.1701299154915, -3012.0316758193585, -1816.2580509493414, -8258.947224491505, -15125.425472906289, 0.01225, -0.108125, 0.990375, 192.0, 0.0, 0.0, 0.0, 0.0, 0.0, 0.0, 0.0, 0.0, 0.0, 1.645922706540075E9, 0.0, 2022-02-27 11:45:06.540
46.0, -524.7295528327886, -3330.5440343074843, -1690.1048052435883, -9147.071438678675, 267.8633055523998, 477.70148249882254, -4773.527952853197, -1229.9047386532711, -1717.306878245697, -4149.9589860390415, -3470.667120297804, -2656.7059942133424, -2812.274135622279, -1602.016580345223, -8009.34529415909, -14526.73399767089, 0.013125000000000001, -0.1070625, 0.9891875, 192.0, 0.0, 56.0, 126.0, 88.0, 15.0, 112.0, 0.0, 0.0, 0.0, 1.645922706547987E9, 0.0, 2022-02-27 11:45:06.547
48.0, -820.1972627874927, -3560.342319052496, -1927.7709040368682, -9427.854052526243, -25.391581701228823, 250.16072394379665, -4997.470080550919, -1549.02059424169, -3430.188111089243, -4796.170269986424, -3551.2004555702756, -2802.707588995408, -2856.932921043983, -1721.9336893479456, -8325.868347390693, -15274.466904934277, 0.013125000000000001, -0.1070625, 0.9891875, 192.0, 0.0, 0.0, 0.0, 0.0, 0.0, 0.0, 0.0, 0.0, 0.0, 1.645922706554642E9, 0.0, 2022-02-27 11:45:06.554
50.0, -756.6959567899653, -3500.618457867916, -1834.809998847246, -9327.047685032807, 62.808401919412844, 359.03607118559734, -4811.458863193853, -1307.5994023799185, -1551.1216582204888, -4303.537822191456, -3615.439369134828, -2701.253020912769, -2967.4175938865656, -1712.5459566767165, -8056.552178448699, -14633.41887395607, 0.013125000000000001, -0.1070625, 0.9891875, 192.0, 0.0, 0.0, 0.0, 0.0, 0.0, 0.0, 0.0, 0.0, 0.0, 1.645922706562692E9, 0.0, 2022-02-27 11:45:06.562
52.0, -530.362192435526, -3336.6907640326936, -1721.4866544588394, -9169.557293600714, 254.7204798126793, 430.33813599802687, -4842.728953686828, -1347.1843418102674, -2736.8593498300734, -4415.184785745715, -3430.2328145781535, -2698.861384256051, -2757.132382051037, -1607.1574815699437, -8155.346888941156, -14872.671946605677, 0.013125000000000001, -0.1070625, 0.9891875, 192.0, 0.0, 0.0, 0.0, 0.0, 0.0, 0.0, 0.0, 0.0, 0.0, 1.645922706570557E9, 0.0, 2022-02-27 11:45:06.570
54.0, -944.6741276590977, -3649.1010962845203, -1977.7270528944796, -9507.73918720951, -121.01234448103244, 224.27740386455108, -4922.569384881185, -1480.6242562084503, -2666.026671651205, -4764.6543103044405, -3692.754053205735, -2826.3557346291227, -3017.7760741443726, -1817.4873968943832, -8267.753811806895, -15137.4730631677, 0.013125000000000001, -0.1070625, 0.9891875, 192.0, 0.0, 0.0, 0.0, 0.0, 0.0, 0.0, 0.0, 0.0, 0.0, 1.645922706577855E9, 0.0, 2022-02-27 11:45:06.577
56.0, -539.2581867287382, -3341.384630368308, -1693.658732611982, -9152.659374792502, 265.96340727369875, 479.4896220552471, -4763.670833548407, -1219.1311978258132, -1697.5032326582948, -4154.496390163468, -3481.485364614173, -2660.841066937574, -2822.310068882712, -1604.9670106133237, -8009.077073225627, -14522.263648779828, 0.0125625, -0.10553125000000001, 0.98759375, 192.0, 0.0, 48.0, 126.0, 96.0, 15.0, 104.0, 0.0, 0.0, 0.0, 1.645922706585409E9, 0.0, 2022-02-27 11:45:06.585
58.0, -819.4373034760122, -3560.252912074675, -1921.8923952451225, -9430.6256688387, -22.754075855502588, 254.0946309679307, -5005.203784132455, -1528.4569893428074, -3428.2658610660865, -4802.942848556381, -3551.9157113928454, -2814.84458623464, -2856.1059064991364, -1720.950212591912, -8318.045236831336, -15267.470808919767, 0.0125625, -0.10553125000000001, 0.98759375, 192.0, 0.0, 0.0, 0.0, 0.0, 0.0, 0.0, 0.0, 0.0, 0.0, 1.645922706600345E9, 0.0, 2022-02-27 11:45:06.600
60.0, -773.7503378093646, -3518.4551499432505, -1841.2920047392852, -9339.6540689056, 56.50520998301626, 363.26055088765037, -4821.785369132205, -1306.4147599237872, -1564.219780471299, -4311.182118795171, -3626.7493518292135, -2720.319058933146, -2965.92002700806, -1712.7024188879036, -8055.4122394814785, -14637.50924319139, 0.0125625, -0.10553125000000001, 0.98759375, 192.0, 0.0, 0.0, 0.0, 0.0, 0.0, 0.0, 0.0, 0.0, 0.0, 1.645922706607496E9, 0.0, 2022-02-27 11:45:06.607
62.0, -531.2562622137383, -3337.6965925331824, -1720.7713986362696, -9168.126781955574, 259.70491882621275, 439.45764773579214, -4857.212884093868, -1348.6819086887729, -2733.774809095241, -4415.296544467991, -3445.1414281298435, -2708.4949861162886, -2757.4006029845004, -1599.893164621969, -8150.876540050094, -14863.954766268107, 0.0125625, -0.10553125000000001, 0.98759375, 192.0, 0.0, 0.0, 0.0, 0.0, 0.0, 0.0, 0.0, 0.0, 0.0, 1.645922706614807E9, 0.0, 2022-02-27 11:45:06.614
64.0, -955.5370754643769, -3658.600587678026, -1985.259590775918, -9505.21344008606, -122.01817298152126, 225.23852887612927, -4927.129140750068, -1489.6320092239391, -2686.3667591055346, -4766.285987649678, -3704.6675330004136, -2827.7415427853516, -3024.9733358589815, -1818.1355974835872, -8269.787820552328, -15140.535252158077, 0.0125625, -0.10553125000000001, 0.98759375, 192.0, 0.0, 0.0, 0.0, 0.0, 0.0, 0.0, 0.0, 0.0, 0.0, 1.645922706622899E9, 0.0, 2022-02-27 11:45:06.622
66.0, -555.4184979699252, -3347.6654705602496, -1706.1533577624987, -9149.641889291035, 248.66315706529107, 477.589723776546, -4756.875903233994, -1224.4509130061763, -1710.3331339756412, -4147.0309075153955, -3494.9411147762676, -2661.0422326376715, -2831.474284109388, -1604.7881966576813, -8007.065416224649, -14518.888535367078, 0.01128125, -0.102765625, 0.985796875, 192.0, 0.0, 40.0, 126.0, 112.0, 15.0, 96.0, 0.0, 0.0, 0.0, 1.645922706630977E9, 0.0, 2022-02-27 11:45:06.630
68.0, -830.635527448121, -3570.020624401644, -1929.357877893195, -9420.902660000642, -26.084485779343343, 257.1344682138525, -4974.313673295221, -1534.1119806900003, -3449.7011839987263, -4803.613400890041, -3567.405470300373, -2816.2303943908687, -2863.5043339138433, -1723.5653666931828, -8319.07341707628, -15265.079172263047, 0.01128125, -0.102765625, 0.985796875, 192.0, 0.0, 0.0, 0.0, 0.0, 0.0, 0.0, 0.0, 0.0, 0.0, 1.645922706637451E9, 0.0, 2022-02-27 11:45:06.637
70.0, -786.3343699377025, -3526.390019224885, -1850.165647288042, -9340.637545661635, 42.401259231717496, 357.49380081818117, -4838.951508873882, -1334.935585848759, -1593.187641285377, -4332.662145216721, -3640.9427095583333, -2723.1130269900596, -2979.688701592529, -1723.6547736710042, -8062.475390729355, -14652.194339298529, 0.01128125, -0.102765625, 0.985796875, 192.0, 0.0, 0.0, 0.0, 0.0, 0.0, 0.0, 0.0, 0.0, 0.0, 1.645922706645538E9, 0.0, 2022-02-27 11:45:06.645
72.0, -536.911253560931, -3343.999784469579, -1719.2514800133085, -9170.987805245853, 260.35311941541664, 445.559673972091, -4847.221654322345, -1364.6857577187727, -2709.1431867054926, -4404.701817596176, -3441.8780734393686, -2711.5348233622103, -2758.8534663740957, -1601.3907315004744, -8145.735638825374, -14862.27838543396, 0.01128125, -0.102765625, 0.985796875, 192.0, 0.0, 0.0, 0.0, 0.0, 0.0, 0.0, 0.0, 0.0, 0.0, 1.645922706652777E9, 0.0, 2022-02-27 11:45:06.652
74.0, -962.3990610121562, -3669.4635354833053, -1982.6891401635578, -9507.381559298225, -122.37580089280617, 222.4445608192159, -4934.125236764578, -1466.319139757054, -2719.223823454836, -4776.99247324377, -3701.4488817988495, -2831.742505042852, -3020.1900625455455, -1826.875129565612, -8266.25624492839, -15151.040572052072, 0.01128125, -0.102765625, 0.985796875, 192.0, 0.0, 0.0, 0.0, 0.0, 0.0, 0.0, 0.0, 0.0, 0.0, 1.645922706659745E9, 0.0, 2022-02-27 11:45:06.659
76.0, -549.8752653450091, -3342.5916245688945, -1697.436177424929, -9150.29008988024, 256.4862676246485, 473.8346307080544, -4772.052737719147, -1226.9543083851706, -1692.8764215560464, -4142.001765012952, -3490.9401525187677, -2663.5456280166663, -2829.149702686036, -1607.537461225684, -8000.494003354789, -14516.429843476993, 0.009640625, -0.1033828125, 0.9878984375, 192.0, 0.0, 32.0, 126.0, 96.0, 15.0, 120.0, 0.0, 0.0, 0.0, 1.645922706667072E9, 0.0, 2022-02-27 11:45:06.667
78.0, -803.0758265347274, -3550.0381648585994, -1911.4764823289495, -9403.065967925308, -4.827976802346326, 267.28216019656185, -4979.007539630836, -1526.8476637420254, -3430.4786837671622, -4786.201391959356, -3547.51241773515, -2799.3548273271117, -2846.472304638899, -1716.792788123225, -8305.617666914186, -15261.391134427922, 0.009640625, -0.1033828125, 0.9878984375, 192.0, 0.0, 0.0, 0.0, 0.0, 0.0, 0.0, 0.0, 0.0, 0.0, 1.645922706675181E9, 0.0, 2022-02-27 11:45:06.675
80.0, -786.7590530823533, -3525.987687824689, -1851.3279379997182, -9342.828016618254, 37.08154405135442, 357.2032281402622, -4820.511319698253, -1318.7529228631167, -1604.6540861909493, -4322.983839867573, -3631.890253053934, -2712.227727440325, -2971.8432392887166, -1715.33992473363, -8056.909806359984, -14657.178778312062, 0.009640625, -0.1033828125, 0.9878984375, 192.0, 0.0, 0.0, 0.0, 0.0, 0.0, 0.0, 0.0, 0.0, 0.0, 1.645922706683294E9, 0.0, 2022-02-27 11:45:06.683
82.0, -534.5643203931237, -3345.944386237191, -1713.7976543662137, -9163.656433064512, 261.13543047135244, 444.82206640506587, -4837.431590250921, -1330.934623591259, -2676.6213985230206, -4405.618239118843, -3443.018012406589, -2708.2044134383696, -2751.611501170576, -1595.5792779420947, -8131.1399496960585, -14832.416454841668, 0.009640625, -0.1033828125, 0.9878984375, 192.0, 0.0, 0.0, 0.0, 0.0, 0.0, 0.0, 0.0, 0.0, 0.0, 1.645922706690459E9, 0.0, 2022-02-27 11:45:06.690
84.0, -960.9909011114719, -3668.681224427369, -1977.905866850122, -9508.342684309804, -121.48173111459388, 222.53396779703712, -4931.912414063503, -1487.1509655894001, -2724.945870035395, -4781.75339481275, -3697.2244020967964, -2836.4587231229216, -3011.40582697461, -1816.5039201383497, -8266.591521095219, -15149.408894706834, 0.009640625, -0.1033828125, 0.9878984375, 192.0, 0.0, 0.0, 0.0, 0.0, 0.0, 0.0, 0.0, 0.0, 0.0, 1.645922706698517E9, 0.0, 2022-02-27 11:45:06.698
86.0, -553.6974136468666, -3350.3923833837966, -1696.6315146245379, -9153.553444570714, 253.82641003446702, 476.76270923169966, -4774.42202263141, -1233.5927764883968, -1685.9026772859904, -4147.38853542668, -3493.175326964298, -2672.285160098691, -2823.964097972405, -1607.470405992318, -7997.856497509062, -14513.613523675624, 0.008, -0.11, 0.992, 192.0, 0.0, 32.0, 126.0, 72.0, 15.5, 0.0, 0.0, 0.0, 0.0, 1.64592270670525E9, 0.0, 2022-02-27 11:45:06.705
88.0, -814.3634574846575, -3558.867103918446, -1912.4152555960723, -9405.85993598222, -6.347895425307206, 265.3822619178608, -5001.113414897134, -1529.060486443101, -3441.9451286727344, -4790.04589200567, -3551.4910282481947, -2800.762987227796, -2847.6122436061196, -1711.2942589872193, -8308.813966371294, -15251.489311634221, 0.008, -0.11, 0.992, 192.0, 0.0, 0.0, 0.0, 0.0, 0.0, 0.0, 0.0, 0.0, 0.0, 1.645922706720073E9, 0.0, 2022-02-27 11:45:06.720
90.0, -785.4850036484008, -3532.7155629057365, -1844.8012286187684, -9339.56466192778, 42.89299760973425, 355.370385094927, -4814.342238228588, -1312.5391379045413, -1604.7434931687706, -4328.258851559026, -3636.8746920674675, -2711.065436728649, -2970.4574311324873, -1720.8161021251801, -8058.876759872051, -14653.669554432578, 0.008, -0.11, 0.992, 192.0, 0.0, 0.0, 0.0, 0.0, 0.0, 0.0, 0.0, 0.0, 0.0, 1.645922706727168E9, 0.0, 2022-02-27 11:45:06.727
92.0, -530.8315790690874, -3337.830702999914, -1707.6732763854595, -9157.599110317125, 259.5261048705703, 443.4362582488368, -4833.72120067134, -1336.611966682907, -2677.1131369010377, -4388.586209843899, -3444.4261723072736, -2706.3045151596684, -2758.7864111407293, -1600.6531239334495, -8127.787188027763, -14833.154062408694, 0.008, -0.11, 0.992, 192.0, 0.0, 0.0, 0.0, 0.0, 0.0, 0.0, 0.0, 0.0, 0.0, 1.645922706734849E9, 0.0, 2022-02-27 11:45:06.734
94.0, -962.7566889234411, -3664.1885237918527, -1978.0399773168538, -9501.793623184398, -130.78005680800163, 221.5951945299142, -4947.245710759844, -1502.864241941481, -2766.7883356557295, -4776.254865676745, -3699.526631775693, -2830.0661242087035, -3017.887832866649, -1815.4757398934055, -8273.788782809828, -15159.154255289348, 0.008, -0.11, 0.992, 192.0, 0.0, 0.0, 0.0, 0.0, 0.0, 0.0, 0.0, 0.0, 0.0, 1.645922706743329E9, 0.0, 2022-02-27 11:45:06.743
96.0, -562.3475387510704, -3360.9200550222463, -1697.7938053362138, -9149.843054991134, 247.09853495341957, 466.9279416713645, -4777.104231966046, -1242.5558260149749, -1672.692796312904, -4136.592642854767, -3496.416329910318, -2654.582578490088, -2834.312955655212, -1609.8396909045805, -7998.214125420347, -14504.58341891568, 0.01, -0.10200000000000001, 0.986, 192.0, 0.0, 40.0, 126.0, 104.0, 15.0, 104.0, 0.0, 0.0, 0.0, 1.645922706750663E9, 0.0, 2022-02-27 11:45:06.750
98.0, -811.0330475608167, -3549.3005572915745, -1906.782615993335, -9398.461508567514, -9.030104759944054, 263.14708747233004, -4985.981283900891, -1549.3111669196091, -3438.458256537707, -4764.386089370977, -3545.500760734172, -2800.5841732721537, -2848.998051762349, -1712.6800671434485, -8306.243515758933, -15251.176387211846, 0.01, -0.10200000000000001, 0.986, 192.0, 0.0, 0.0, 0.0, 0.0, 0.0, 0.0, 0.0, 0.0, 0.0, 1.64592270675746E9, 0.0, 2022-02-27 11:45:06.757
100.0, -791.0952915066829, -3529.407504726351, -1848.4222112205282, -9339.22938576095, 29.861930592290236, 360.3324723640052, -4841.365497275055, -1331.6275276693736, -1617.662801463938, -4342.854540688341, -3633.186654232342, -2704.158747691959, -2981.58859987123, -1719.72086664687, -8062.78831515173, -14663.347859781727, 0.01, -0.10200000000000001, 0.986, 192.0, 0.0, 0.0, 0.0, 0.0, 0.0, 0.0, 0.0, 0.0, 0.0, 1.645922706765537E9, 0.0, 2022-02-27 11:45:06.765
102.0, -519.3651341635149, -3325.805464482959, -1706.689799629426, -9144.8586159776, 256.4415641357379, 447.14664782841777, -4842.237215308812, -1348.9054261333258, -2652.4815145112893, -4373.588189314388, -3432.4232855347736, -2684.891543971484, -2757.7805826402405, -1585.2304202592875, -8132.056371218726, -14824.012198926474, 0.01, -0.10200000000000001, 0.986, 192.0, 0.0, 0.0, 0.0, 0.0, 0.0, 0.0, 0.0, 0.0, 0.0, 1.645922706772586E9, 0.0, 2022-02-27 11:45:06.772
104.0, -941.3884212241676, -3645.144837515931, -1980.6998349070354, -9497.83736441581, -134.91512953223344, 216.83427296093382, -4964.478905734886, -1519.5162915606847, -2772.063347347182, -4767.738851039273, -3679.700634443836, -2807.8484902201285, -3011.0929025522355, -1805.5068618663386, -8279.734346834939, -15165.90448211485, 0.01, -0.10200000000000001, 0.986, 192.0, 0.0, 0.0, 0.0, 0.0, 0.0, 0.0, 0.0, 0.0, 0.0, 1.645922706780519E9, 0.0, 2022-02-27 11:45:06.780
106.0, -550.3223002341152, -3335.3049558764646, -1708.0532560411998, -9148.926633468465, 226.46787482117116, 460.3788805459596, -4798.763072343239, -1265.779288504039, -1654.9902147043008, -4113.190366410061, -3486.1121757164215, -2644.971328374306, -2840.6832028249746, -1610.018504860223, -8005.254924923769, -14512.831212619689, 0.012, -0.10200000000000001, 0.986, 192.0, 0.0, 48.0, 126.0, 104.0, 15.0, 104.0, 0.0, 0.0, 0.0, 1.645922706786922E9, 0.0, 2022-02-27 11:45:06.786
108.0, -782.735739080398, -3523.3948854678733, -1906.9167264600667, -9385.117517127695, -10.080636749343485, 256.5086193691038, -4989.132879869089, -1564.2868357046648, -3435.3290123139636, -4755.8477229890495, -3537.498836219172, -2779.93116139545, -2854.18365647598, -1709.081436286144, -8312.12202455068, -15252.472788390254, 0.012, -0.10200000000000001, 0.986, 192.0, 0.0, 0.0, 0.0, 0.0, 0.0, 0.0, 0.0, 0.0, 0.0, 1.645922706795319E9, 0.0, 2022-02-27 11:45:06.795
110.0, -783.24982920287, -3514.40948419684, -1857.5640747027487, -9343.6550311631, 15.154482740698189, 332.5939574949691, -4852.764886947261, -1354.6051209694292, -1635.8124179616473, -4322.916784634207, -3630.2585757086968, -2699.219012167336, -2988.1600127410907, -1723.4089044819957, -8074.679443201953, -14687.33128158227, 0.012, -0.10200000000000001, 0.986, 192.0, 0.0, 0.0, 0.0, 0.0, 0.0, 0.0, 0.0, 0.0, 0.0, 1.645922706803052E9, 0.0, 2022-02-27 11:45:06.803
112.0, -502.5342705886687, -3311.2097753536436, -1704.8793083285461, -9142.422275831972, 245.51156109709277, 433.1544557993956, -4872.8367534681265, -1363.478763518186, -2616.942240827351, -4350.074154147405, -3424.644878464327, -2670.5640757756323, -2761.2451030308134, -1597.6579901764383, -8134.4256561309885, -14823.296943103904, 0.012, -0.10200000000000001, 0.986, 192.0, 0.0, 0.0, 0.0, 0.0, 0.0, 0.0, 0.0, 0.0, 0.0, 1.64592270681018E9, 0.0, 2022-02-27 11:45:06.810
114.0, -938.0580113003268, -3635.824160078068, -1981.0798145627755, -9498.016178371452, -149.80139133946793, 207.46889203416015, -4975.833591918182, -1532.5250068336734, -2785.966132398383, -4758.261711390222, -3669.9329221168664, -2801.835870961651, -3014.9374025985485, -1813.844062548168, -8290.396128940121, -15180.76839217763, 0.012, -0.10200000000000001, 0.986, 192.0, 0.0, 0.0, 0.0, 0.0, 0.0, 0.0, 0.0, 0.0, 0.0, 1.645922706817777E9, 0.0, 2022-02-27 11:45:06.817
116.0, -548.8917885889755, -3330.365220351842, -1703.404093194496, -9150.982993958354, 231.25114813460686, 465.29626432612713, -4798.539554898686, -1265.7569367595836, -1638.3605168295524, -4121.795788025354, -3479.384300635374, -2635.2259677917923, -2849.2215692069017, -1610.152615326955, -8007.601858091576, -14512.428881219494, 0.012, -0.1, 0.982, 192.0, 0.0, 48.0, 126.0, 112.0, 15.0, 88.0, 0.0, 0.0, 0.0, 1.645922706825744E9, 0.0, 2022-02-27 11:45:06.825
118.0, -778.444204144979, -3522.6125744119377, -1905.195642137008, -9393.007682920419, 0.5587936113826766, 264.53289562855906, -5007.75188300036, -1555.1673239668994, -3417.380561516352, -4737.251071602234, -3522.9702023232226, -2775.840792160129, -2848.2380924508684, -1709.0590845416887, -8310.333884994256, -15249.276488933147, 0.012, -0.1, 0.982, 192.0, 0.0, 0.0, 0.0, 0.0, 0.0, 0.0, 0.0, 0.0, 0.0, 1.645922706832682E9, 0.0, 2022-02-27 11:45:06.832
120.0, -778.8912390340852, -3511.704923117748, -1860.2909875262962, -9349.198263788017, 19.490721165027757, 337.6454517418685, -4844.2488723097895, -1348.9501296222365, -1624.0330486337004, -4330.114046348816, -3627.7998838186127, -2699.1519569339703, -2992.8315273322496, -1740.4632855013951, -8077.518114747777, -14684.961996670008, 0.012, -0.1, 0.982, 192.0, 0.0, 0.0, 0.0, 0.0, 0.0, 0.0, 0.0, 0.0, 0.0, 1.645922706847478E9, 0.0, 2022-02-27 11:45:06.847
122.0, -499.27091589819383, -3297.552859491451, -1707.203889751898, -9142.623441532069, 255.52514261307033, 445.1796943163508, -4862.577302763141, -1351.677042445784, -2605.788720344153, -4348.777752968997, -3428.6905442107377, -2681.583485792099, -2768.196495556414, -1602.0612838341337, -8130.223528173391, -14820.681789002632, 0.012, -0.1, 0.982, 192.0, 0.0, 0.0, 0.0, 0.0, 0.0, 0.0, 0.0, 0.0, 0.0, 1.645922706855487E9, 0.0, 2022-02-27 11:45:06.855
124.0, -931.1960257525475, -3625.2964884396183, -1984.7678523979012, -9498.26204756046, -143.18527498069705, 213.23564210362937, -4979.65574022004, -1525.5289108191623, -2797.834908704151, -4762.441487603365, -3675.543209975149, -2803.4004930735223, -3019.0948270672357, -1812.4135509030284, -8293.704187119507, -15186.021052124626, 0.012, -0.1, 0.982, 192.0, 0.0, 0.0, 0.0, 0.0, 0.0, 0.0, 0.0, 0.0, 0.0, 1.645922706862482E9, 0.0, 2022-02-27 11:45:06.862
126.0, -532.0609250141293, -3315.8589382003474, -1699.6042966370937, -9148.43489509045, 240.28125289455093, 465.29626432612713, -4788.928304782904, -1262.6053407913853, -1612.8124729171363, -4105.769587250899, -3475.875076755891, -2633.3484212575463, -2842.9407290149607, -1620.0097346317452, -8004.517317356744, -14510.528982940792, 0.014, -0.10200000000000001, 0.982, 192.0, 0.0, 56.0, 126.0, 104.0, 15.0, 88.0, 0.0, 0.0, 0.0, 1.64592270686986E9, 0.0, 2022-02-27 11:45:06.869
128.0, -757.2771021458033, -3496.796309566058, -1892.589258264215, -9378.099069368729, 11.10881699428761, 276.8040033345227, -4977.7334901968825, -1554.183847210866, -3397.0181223175673, -4730.36673431, -3514.2306702411975, -2764.776678654752, -2838.7609528018183, -1694.664561112471, -8306.087053547746, -15242.146282451902, 0.014, -0.10200000000000001, 0.982, 192.0, 0.0, 0.0, 0.0, 0.0, 0.0, 0.0, 0.0, 0.0, 0.0, 1.645922706878109E9, 0.0, 2022-02-27 11:45:06.878
130.0, -774.86792503213, -3505.513489903628, -1852.5349322003046, -9348.527711454357, 26.86679683527909, 332.0128121391311, -4842.10310484208, -1358.6284349713844, -1632.1690836154323, -4324.727275935087, -3631.309107698096, -2701.253020912769, -2987.9588470409926, -1728.6839161734483, -8073.338338534634, -14691.198133373038, 0.014, -0.10200000000000001, 0.982, 192.0, 0.0, 0.0, 0.0, 0.0, 0.0, 0.0, 0.0, 0.0, 0.0, 1.645922706886082E9, 0.0, 2022-02-27 11:45:06.886
132.0, -489.234982637761, -3290.6685221992166, -1697.8608605695797, -9136.52141529577, 271.77486083207856, 444.08445883804075, -4839.867930396549, -1363.5011152626414, -2571.0541094606056, -4330.516377749012, -3427.1929773322317, -2675.257942111247, -2759.3452047521123, -1593.4111587299299, -8120.031132701771, -14807.874239429742, 0.014, -0.10200000000000001, 0.982, 192.0, 0.0, 0.0, 0.0, 0.0, 0.0, 0.0, 0.0, 0.0, 0.0, 1.645922706892583E9, 0.0, 2022-02-27 11:45:06.892
134.0, -927.8879675731621, -3629.990354775233, -1987.4277099880828, -9497.92677139363, -133.12698997580887, 214.8449677044115, -4982.114432110123, -1523.3607916069975, -2834.670583566497, -4777.595970344063, -3675.185582063864, -2805.03217041876, -3010.981143829959, -1810.4689491354168, -8292.519544663375, -15192.503058016666, 0.014, -0.10200000000000001, 0.982, 192.0, 0.0, 0.0, 0.0, 0.0, 0.0, 0.0, 0.0, 0.0, 0.0, 1.645922706899696E9, 0.0, 2022-02-27 11:45:06.899
136.0, -546.6119106545342, -3325.805464482959, -1711.428369453951, -9160.013098718298, 224.92560445375497, 467.06205213809636, -4795.94675254187, -1249.1272388848352, -1597.2333070317875, -4114.777340266388, -3494.382321164885, -2639.964537616317, -2855.0330227652817, -1615.6511444629605, -8007.132471458015, -14504.382253215583, 0.018000000000000002, -0.10400000000000001, 0.986, 192.0, 0.0, 72.0, 126.0, 96.0, 15.0, 104.0, 0.0, 0.0, 0.0, 1.645922706907628E9, 0.0, 2022-02-27 11:45:06.907
138.0, -761.8815615035966, -3515.4823679306946, -1896.23259261043, -9379.753098458421, 6.459654147583741, 270.6572736093132, -4990.786908958782, -1534.9613469793019, -3400.0132560745787, -4739.46389430331, -3524.9371558352896, -2783.574495741665, -2843.9912610043602, -1710.914279331479, -8305.304742491811, -15232.177404424836, 0.018000000000000002, -0.10400000000000001, 0.986, 192.0, 0.0, 0.0, 0.0, 0.0, 0.0, 0.0, 0.0, 0.0, 0.0, 1.645922706915577E9, 0.0, 2022-02-27 11:45:06.915
140.0, -780.3664541681355, -3515.7282371197034, -1857.6758334250253, -9352.282804522849, 21.882357821745615, 342.87575994441033, -4857.726974216339, -1352.2134843127114, -1641.3109470976528, -4355.10329664985, -3637.8358170790457, -2717.860367043062, -2992.5186029098754, -1735.7694191657806, -8080.289731060235, -14692.606293273724, 0.018000000000000002, -0.10400000000000001, 0.986, 192.0, 0.0, 0.0, 0.0, 0.0, 0.0, 0.0, 0.0, 0.0, 0.0, 1.645922706922161E9, 0.0, 2022-02-27 11:45:06.922
142.0, -492.3418751170487, -3294.9600571346355, -1699.6042966370937, -9136.074380406664, 274.52412540008135, 463.8657526809875, -4834.48115998282, -1340.8587981294154, -2562.0910599340273, -4335.0984853623495, -3431.417457034285, -2690.479480085311, -2763.9273123654502, -1591.757129640237, -8123.294487392246, -14799.984073637019, 0.018000000000000002, -0.10400000000000001, 0.986, 192.0, 0.0, 0.0, 0.0, 0.0, 0.0, 0.0, 0.0, 0.0, 0.0, 1.645922706930374E9, 0.0, 2022-02-27 11:45:06.930
144.0, -930.3243077187906, -3640.272157224674, -1986.8018611433342, -9499.78196618342, -128.00844049554354, 228.68069752224656, -4962.9366353674695, -1533.0167452116902, -2863.414926936022, -4781.75339481275, -3677.1972390648416, -2812.6764670224748, -3008.4553967065094, -1799.1142629521207, -8294.285332475345, -15195.05115688457, 0.018000000000000002, -0.10400000000000001, 0.986, 192.0, 0.0, 0.0, 0.0, 0.0, 0.0, 0.0, 0.0, 0.0, 0.0, 1.645922706938328E9, 0.0, 2022-02-27 11:45:06.938
146.0, -554.6138351695341, -3349.3865548833082, -1715.2952212447192, -9164.326985398173, 234.536854569537, 466.5479620156243, -4783.943865769371, -1261.7336227576284, -1587.3985394714523, -4126.8919857611645, -3501.356065434941, -2647.519427242211, -2856.284720454779, -1613.0359903616895, -8003.891468511995, -14502.7729276148, 0.016, -0.10400000000000001, 0.984, 192.0, 0.0, 64.0, 126.0, 96.0, 15.0, 96.0, 0.0, 0.0, 0.0, 1.645922706945335E9, 0.0, 2022-02-27 11:45:06.945
148.0, -763.1332591930937, -3520.9138418333346, -1892.6339617531255, -9375.193342589539, 25.12336076776514, 282.9730848041874, -4991.077481636701, -1551.9263210208799, -3396.6157909173717, -4741.095571648547, -3525.4959494466725, -2785.921428909472, -2840.862016780617, -1702.3982646940071, -8305.036521558348, -15229.24932590119, 0.016, -0.10400000000000001, 0.984, 192.0, 0.0, 0.0, 0.0, 0.0, 0.0, 0.0, 0.0, 0.0, 0.0, 1.64592270695294E9, 0.0, 2022-02-27 11:45:06.952
150.0, -834.1000478386936, -3562.7116039647585, -1876.1830778340195, -9369.515999497891, 10.840596060823925, 336.6172714969244, -4864.164276619467, -1370.8324874439822, -1687.0873197421217, -4376.560971326944, -3655.2925294986403, -2728.902128803984, -3004.655600149107, -1740.9773756238671, -8094.617199256087, -14716.34384588526, 0.016, -0.10400000000000001, 0.984, 192.0, 0.0, 0.0, 0.0, 0.0, 0.0, 0.0, 0.0, 0.0, 0.0, 1.645922706967952E9, 0.0, 2022-02-27 11:45:06.967
152.0, -568.1366405649949, -3368.407889414774, -1710.3554857200963, -9145.350354355616, 281.2967039700394, 458.6130927339903, -4851.155561346479, -1337.1484085498344, -2546.847170215508, -4342.295747076958, -3451.422268321785, -2703.0858639581043, -2771.1469258245143, -1596.763920398226, -8123.339190881156, -14784.44961124058, 0.016, -0.10400000000000001, 0.984, 192.0, 0.0, 0.0, 0.0, 0.0, 0.0, 0.0, 0.0, 0.0, 0.0, 1.645922706974447E9, 0.0, 2022-02-27 11:45:06.974
154.0, -1059.2044662480912, -3747.9852137547987, -2002.9398206400658, -9514.489414035013, -122.53226310399332, 224.74679049811252, -4967.563446469718, -1523.9419369628356, -2896.316694774234, -4819.52784294222, -3712.334181348584, -2848.9757000178934, -3016.211452032501, -1817.6438591055703, -8297.97337031047, -15196.638130740897, 0.016, -0.10600000000000001, 0.985, 192.0, 0.0, 64.0, 126.0, 80.0, 15.0, 104.0, 0.0, 0.0, 0.0, 1.645922706982592E9, 0.0, 2022-02-27 11:45:06.982
156.0, -732.6901832449655, -3505.602896881449, -1734.9871081098447, -9175.458154136915, 238.2919476380286, 480.0707674110851, -4774.377319142499, -1231.558767742964, -1643.501418054273, -4154.496390163468, -3540.5386734650942, -2683.7292532598085, -2858.5645983892205, -1611.4266647609074, -8002.550363844677, -14497.050881034242, 0.016, -0.10600000000000001, 0.985, 192.0, 0.0, 0.0, 0.0, 0.0, 0.0, 0.0, 0.0, 0.0, 0.0, 1.645922706990472E9, 0.0, 2022-02-27 11:45:06.990
158.0, -1003.8391952322955, -3742.687850318891, -1919.0313719548433, -9396.449851566536, 33.751134127513666, 290.03623605206445, -4931.152454752023, -1507.8263292105592, -3484.480498371184, -4792.906915295949, -3593.6464182909035, -2845.444124393955, -2854.3848221760777, -1706.8909653295239, -8295.447623187021, -15222.253229886679, 0.016, -0.10600000000000001, 0.985, 192.0, 0.0, 0.0, 0.0, 0.0, 0.0, 0.0, 0.0, 0.0, 0.0, 1.645922706997544E9, 0.0, 2022-02-27 11:45:06.997
160.0, -1073.822507121862, -3792.2863712652174, -1892.3433890752065, -9379.216656591494, 24.452808434105926, 354.27514961661694, -4814.409293461954, -1329.5711671794854, -1768.045338159244, -4445.6278616938425, -3729.3438588790727, -2801.478243050366, -3014.468015964987, -1746.0065181263112, -8082.614312483587, -14703.37983410118, 0.016, -0.10600000000000001, 0.985, 192.0, 0.0, 0.0, 0.0, 0.0, 0.0, 0.0, 0.0, 0.0, 0.0, 1.645922707005078E9, 0.0, 2022-02-27 11:45:07.005
162.0, -784.7250443369204, -3568.9700924122444, -1727.365163250585, -9154.603976560114, 283.9118580713103, 473.1417266299399, -4799.098348510069, -1310.7286466036614, -2639.673964938398, -4409.283925209514, -3526.7923506250804, -2767.414184500478, -2785.183821342447, -1595.4228157309076, -8116.588964055653, -14780.78392514991, 0.016, -0.10600000000000001, 0.985, 192.0, 0.0, 0.0, 0.0, 0.0, 0.0, 0.0, 0.0, 0.0, 0.0, 1.645922707013136E9, 0.0, 2022-02-27 11:45:07.013
164.0, -1206.52481395302, -3888.0859480006634, -2013.4898440229708, -9516.657533247177, -113.56921357741518, 234.58155805844763, -4940.719001378894, -1522.4443700843299, -2982.192096971524, -4861.81734345166, -3762.6479581174804, -2896.607267452153, -3017.7760741443726, -1806.1103589666318, -8297.012245298893, -15204.371834322434, 0.017, -0.10600000000000001, 0.9875, 192.0, 0.0, 72.0, 126.0, 88.0, 15.0, 120.0, 0.0, 0.0, 0.0, 1.64592270702025E9, 0.0, 2022-02-27 11:45:07.020
166.0, -814.0058295733726, -3578.402528572384, -1738.7645529227916, -9175.52520937028, 246.04800296402016, 478.12616564347337, -4767.850609761549, -1240.00772714707, -1667.7307090438258, -4187.6887306796, -3568.9924441567, -2713.8147012966515, -2853.0437175087595, -1612.633658961494, -8000.58341033261, -14503.041148548264, 0.017, -0.10600000000000001, 0.9875, 192.0, 0.0, 0.0, 0.0, 0.0, 0.0, 0.0, 0.0, 0.0, 0.0, 1.645922707027222E9, 0.0, 2022-02-27 11:45:07.027
168.0, -991.4116253151448, -3718.7491320072572, -1914.2704503858627, -9370.879455909664, 38.9367388411449, 308.4093699943268, -4964.903588879537, -1510.2403176117323, -3477.3949953788515, -4783.005092502248, -3595.9486479698003, -2840.7726098027956, -2843.857150537628, -1686.4167674084626, -8303.963637824492, -15215.771223994641, 0.017, -0.10600000000000001, 0.9875, 192.0, 0.0, 0.0, 0.0, 0.0, 0.0, 0.0, 0.0, 0.0, 0.0, 1.645922707034734E9, 0.0, 2022-02-27 11:45:07.034
170.0, -1039.8702072942506, -3745.4818183758043, -1905.3968078371058, -9382.681176982067, 6.504357636494356, 339.6794604873014, -4848.71922120085, -1356.7285366926833, -1794.5768588276935, -4437.201254034192, -3728.7403617787795, -2786.569629498676, -3018.916013111593, -1736.0599918436997, -8105.0778156611705, -14724.368122144715, 0.017, -0.10600000000000001, 0.9875, 192.0, 0.0, 0.0, 0.0, 0.0, 0.0, 0.0, 0.0, 0.0, 0.0, 1.645922707042879E9, 0.0, 2022-02-27 11:45:07.042
172.0, -695.2286595378708, -3483.5417251040612, -1723.498311459817, -9145.082133422153, 283.10719527091925, 468.09023238304053, -4837.319831528644, -1329.101780545924, -2570.562371082589, -4373.007043958551, -3506.1393387483763, -2748.996347069305, -2778.634760217042, -1595.4228157309076, -8120.70168503543, -14772.938462846098, 0.017, -0.10600000000000001, 0.9875, 192.0, 0.0, 0.0, 0.0, 0.0, 0.0, 0.0, 0.0, 0.0, 0.0, 1.645922707050736E9, 0.0, 2022-02-27 11:45:07.050
174.0, -1123.331621090367, -3811.03948486322, -2012.2381463334737, -9514.489414035013, -121.90641425924473, 227.16077889928567, -4970.893856393559, -1520.6115270389948, -2964.7130328074736, -4840.605537963574, -3734.2612426592405, -2878.94938933246, -3013.171614786579, -1806.8703182781123, -8311.74204489494, -15207.232857612713, 0.0155, -0.10300000000000001, 0.99075, 192.0, 0.0, 56.0, 126.0, 112.0, 15.5, 8.0, 0.0, 0.0, 0.0, 1.645922707057432E9, 0.0, 2022-02-27 11:45:07.057
176.0, -728.3762965650913, -3493.778824064592, -1745.3136140481968, -9175.48050588137, 227.31724111047282, 471.13006962896225, -4761.793287014161, -1250.1107156408686, -1636.728839484315, -4165.202875757561, -3556.27430156163, -2704.516375603244, -2865.09130777017, -1607.3586472700415, -8007.557154602666, -14498.146116512551, 0.0155, -0.10300000000000001, 0.99075, 192.0, 0.0, 0.0, 0.0, 0.0, 0.0, 0.0, 0.0, 0.0, 0.0, 1.645922707065419E9, 0.0, 2022-02-27 11:45:07.065
178.0, -894.1144817011931, -3632.113770498487, -1907.006133437888, -9371.438249521047, 38.33324174085161, 297.63582916686886, -4963.048394089746, -1514.0401141691345, -3431.350401800919, -4738.480417547276, -3567.047842389088, -2826.51219684031, -2842.9854325038714, -1687.5343546312279, -8304.768300624884, -15204.975331422727, 0.0155, -0.10300000000000001, 0.99075, 192.0, 0.0, 0.0, 0.0, 0.0, 0.0, 0.0, 0.0, 0.0, 0.0, 1.645922707073451E9, 0.0, 2022-02-27 11:45:07.073
180.0, -934.0123455539162, -3650.53160792966, -1893.4162728090612, -9372.935816399553, 7.53253788143848, 337.80191395305565, -4829.04968608018, -1358.1814000822783, -1747.5711402381828, -4416.995277046594, -3694.072806128598, -2763.0108908427824, -3010.221184518479, -1738.943366878434, -8099.735748736352, -14725.39630238966, 0.0155, -0.10300000000000001, 0.99075, 192.0, 0.0, 0.0, 0.0, 0.0, 0.0, 0.0, 0.0, 0.0, 0.0, 1.645922707079999E9, 0.0, 2022-02-27 11:45:07.079
182.0, -614.3376963541147, -3409.1104160678883, -1721.7995788812136, -9139.583604286147, 275.90993355631036, 464.7821742036551, -4793.577467629608, -1305.9006698013152, -2526.395324038902, -4341.491084276568, -3475.3609866334186, -2721.414294411456, -2779.5958852286203, -1591.019522073212, -8116.208984399914, -14766.769381376433, 0.0155, -0.10300000000000001, 0.99075, 192.0, 0.0, 0.0, 0.0, 0.0, 0.0, 0.0, 0.0, 0.0, 0.0, 1.645922707095063E9, 0.0, 2022-02-27 11:45:07.095
184.0, -1044.8322945633286, -3739.7374200507907, -2015.032114390387, -9514.131786123728, -135.1609987212418, 207.2900780785177, -4946.463399703908, -1535.0060504682126, -2963.282521162334, -4831.776598903728, -3717.0503994286537, -2861.09034551267, -3018.8266061337717, -1808.949030512456, -8307.83048961526, -15213.468994315745, 0.01475, -0.10250000000000001, 0.989375, 192.0, 0.0, 56.0, 126.0, 104.0, 15.0, 112.0, 0.0, 0.0, 0.0, 1.645922707103014E9, 0.0, 2022-02-27 11:45:07.103
186.0, -669.3453394586253, -3437.474779781673, -1749.3816315390625, -9183.86241005211, 212.20746185868526, 453.27102580917193, -4764.98958647127, -1263.0300239360363, -1606.9563158698459, -4152.06005001784, -3541.991536854689, -2687.9537329618615, -2872.7132526294295, -1619.562699742639, -8010.686398826409, -14505.924523582999, 0.01475, -0.10250000000000001, 0.989375, 192.0, 0.0, 0.0, 0.0, 0.0, 0.0, 0.0, 0.0, 0.0, 0.0, 1.6459227071098E9, 0.0, 2022-02-27 11:45:07.109
188.0, -819.347896498191, -3558.531827751616, -1901.105272901687, -9360.865874393687, 38.69086965213653, 290.1703465187963, -4998.878240451603, -1539.2752336591761, -3409.378637001352, -4735.373525067988, -3549.3229090360296, -2809.279001865268, -2841.443162136455, -1696.3856454355296, -8305.818832614283, -15212.329055348524, 0.01475, -0.10250000000000001, 0.989375, 192.0, 0.0, 0.0, 0.0, 0.0, 0.0, 0.0, 0.0, 0.0, 0.0, 1.645922707117759E9, 0.0, 2022-02-27 11:45:07.117
190.0, -878.6247227936653, -3592.7523485126912, -1895.0032466653881, -9378.814325191299, -0.46938663356144833, 319.22761431069546, -4873.350843590599, -1395.4641098337306, -1748.688727460948, -4399.717378582643, -3675.1632303194083, -2747.811704613174, -3011.338771741244, -1739.4127535119956, -8117.885365234061, -14748.44095092308, 0.01475, -0.10250000000000001, 0.989375, 192.0, 0.0, 0.0, 0.0, 0.0, 0.0, 0.0, 0.0, 0.0, 0.0, 1.645922707125587E9, 0.0, 2022-02-27 11:45:07.125
192.0, -557.3630997375369, -3351.264101417554, -1709.1931950084204, -9138.935403696943, 283.46482318220416, 458.9483689008199, -4787.743662326773, -1315.6907338727397, -2477.9590938042516, -4315.1383775637605, -3455.0432509235443, -2702.6164773245428, -2774.767908426274, -1582.1682312689104, -8111.22454538638, -14764.556558675356, 0.01475, -0.10250000000000001, 0.989375, 192.0, 0.0, 0.0, 0.0, 0.0, 0.0, 0.0, 0.0, 0.0, 0.0, 1.645922707132816E9, 0.0, 2022-02-27 11:45:07.132
194.0, -991.791604970885, -3688.574276992593, -1995.809614158823, -9505.25814357497, -131.316498674929, 212.9674211701657, -4958.622748687595, -1547.5453791076397, -2982.236800460434, -4812.263525994244, -3690.138899104464, -2847.2993191837454, -3004.052103048814, -1801.7741205423024, -8302.331960479256, -15225.762453766163, 0.016375, -0.10325000000000001, 0.9906874999999999, 192.0, 0.0, 72.0, 126.0, 96.0, 15.5, 0.0, 0.0, 0.0, 0.0, 1.645922707140335E9, 0.0, 2022-02-27 11:45:07.140
196.0, -618.6739347784442, -3397.6886746512264, -1729.756799907303, -9176.620444848591, 222.55631954149243, 454.67918570985626, -4771.449240618854, -1254.0446226650029, -1555.9049315339246, -4133.038715486374, -3523.707809890248, -2666.9207414294174, -2866.320653715212, -1610.1302635824995, -8000.225782421325, -14504.382253215583, 0.016375, -0.10325000000000001, 0.9906874999999999, 192.0, 0.0, 0.0, 0.0, 0.0, 0.0, 0.0, 0.0, 0.0, 0.0, 1.645922707147281E9, 0.0, 2022-02-27 11:45:07.147
198.0, -786.3790734266131, -3532.1344175498984, -1888.074205884243, -9358.89892088162, 44.72584065506943, 295.3112477435169, -4943.378858969076, -1508.8768611999585, -3375.1357644958216, -4709.870184644483, -3524.758341879647, -2795.800899958718, -2826.445141606944, -1678.3477876600966, -8287.579809138753, -15193.777107450618, 0.016375, -0.10325000000000001, 0.9906874999999999, 192.0, 0.0, 0.0, 0.0, 0.0, 0.0, 0.0, 0.0, 0.0, 0.0, 1.645922707155315E9, 0.0, 2022-02-27 11:45:07.155
200.0, -853.0990306257047, -3569.573589512538, -1885.3696448051508, -9374.813362933799, 2.3022296788966274, 322.93800389027643, -4846.3052327996775, -1381.7624904826273, -1742.854922158113, -4387.558029598955, -3665.5519802036265, -2749.711602891875, -3010.3552949852105, -1728.3486400066186, -8099.244010358336, -14740.148453730162, 0.016375, -0.10325000000000001, 0.9906874999999999, 192.0, 0.0, 0.0, 0.0, 0.0, 0.0, 0.0, 0.0, 0.0, 0.0, 1.645922707162541E9, 0.0, 2022-02-27 11:45:07.162
202.0, -527.7917418231657, -3326.9230517057244, -1700.2524972262977, -9127.223089602363, 277.2063347347182, 458.300168311616, -4823.864081366549, -1315.578975150463, -2459.0495179950617, -4307.248211771037, -3443.263881595598, -2688.3337126176016, -2770.2081525573913, -1584.5598679256284, -8109.525812807777, -14762.388439463191, 0.016375, -0.10325000000000001, 0.9906874999999999, 192.0, 0.0, 0.0, 0.0, 0.0, 0.0, 0.0, 0.0, 0.0, 0.0, 1.645922707170795E9, 0.0, 2022-02-27 11:45:07.170
204.0, -970.9150756496282, -3664.210875536308, -1997.3965880151497, -9502.419472029147, -138.98314702309932, 205.21136584417414, -4987.903533924047, -1553.6921088328493, -2970.1668584545682, -4819.4831394533085, -3682.9416373898553, -2838.246862679346, -3002.733350125951, -1800.589478086171, -8311.965562339492, -15232.222107913747, 0.0151875, -0.104625, 0.98934375, 192.0, 0.0, 56.0, 126.0, 88.0, 15.0, 112.0, 0.0, 0.0, 0.0, 1.645922707177891E9, 0.0, 2022-02-27 11:45:07.177
206.0, -605.6652195054555, -3376.253351718587, -1734.5847767096493, -9173.871180280588, 213.12388338135284, 448.3536420290044, -4770.532819096186, -1272.3059978849885, -1550.9204925203912, -4126.824930527799, -3514.4318359412955, -2658.1141541140264, -2862.632615880086, -1611.0913885940777, -8005.545497601688, -14508.025587561797, 0.0151875, -0.104625, 0.98934375, 192.0, 0.0, 0.0, 0.0, 0.0, 0.0, 0.0, 0.0, 0.0, 0.0, 1.645922707184994E9, 0.0, 2022-02-27 11:45:07.184
208.0, -757.2994538902586, -3499.1432427338655, -1886.1966593499972, -9345.7560951419, 50.55964595790458, 288.53866917355884, -4962.7578214118275, -1529.3957626099304, -3368.2514272035874, -4692.189954780335, -3520.3103447330413, -2783.261571319291, -2826.0875136956593, -1670.3905666340074, -8291.670178374074, -15203.29895058858, 0.0151875, -0.104625, 0.98934375, 192.0, 0.0, 0.0, 0.0, 0.0, 0.0, 0.0, 0.0, 0.0, 0.0, 1.64592270719264E9, 0.0, 2022-02-27 11:45:07.192
210.0, -847.0640596227718, -3562.510438264661, -1895.0032466653881, -9382.301197326327, -9.96887802706695, 313.2149950522179, -4865.05834639768, -1383.2377056166777, -1760.5798555111714, -4410.155643243271, -3671.6763581843807, -2742.290823732713, -3012.0093240749034, -1735.3894395100403, -8113.102091920626, -14764.198930764072, 0.0151875, -0.104625, 0.98934375, 192.0, 0.0, 0.0, 0.0, 0.0, 0.0, 0.0, 0.0, 0.0, 0.0, 1.645922707200577E9, 0.0, 2022-02-27 11:45:07.200
212.0, -513.91130851642, -3309.153414863755, -1700.0289797817445, -9129.078284392153, 280.58144814746953, 462.7258137137668, -4832.6259651930295, -1328.3418212344434, -2425.0972181674506, -4300.766205878997, -3446.8178089639914, -2695.3745121210236, -2767.324777522657, -1575.3733009544972, -8108.519984307288, -14751.905471313654, 0.0151875, -0.104625, 0.98934375, 192.0, 0.0, 0.0, 0.0, 0.0, 0.0, 0.0, 0.0, 0.0, 0.0, 1.645922707214766E9, 0.0, 2022-02-27 11:45:07.214
214.0, -958.6663196881199, -3648.698764884325, -1999.4082450161275, -9507.02393138694, -131.47296088611614, 204.89844142179984, -4972.883161650081, -1561.3811089254748, -3001.012265802892, -4827.127436057024, -3680.1253175884867, -2846.4276011499887, -2991.7139401094846, -1802.2211554314085, -8314.558364696308, -15246.63898308742, 0.01559375, -0.1043125, 0.988671875, 192.0, 0.0, 64.0, 126.0, 96.0, 15.0, 112.0, 0.0, 0.0, 0.0, 1.645922707222483E9, 0.0, 2022-02-27 11:45:07.222
216.0, -601.776015970232, -3366.798563813992, -1738.5410354782387, -9180.263779194805, 206.37365655585012, 448.1301245844513, -4781.172249456912, -1262.4712303246536, -1533.1732074228773, -4119.270040901904, -3523.797216868069, -2663.9256076724064, -2869.2934357277677, -1615.5617374851392, -8006.439567379901, -14509.389043973571, 0.01559375, -0.1043125, 0.988671875, 192.0, 0.0, 0.0, 0.0, 0.0, 0.0, 0.0, 0.0, 0.0, 0.0, 1.645922707230146E9, 0.0, 2022-02-27 11:45:07.230
218.0, -742.3461368496581, -3494.5834868649827, -1886.2860663278184, -9345.152598041606, 54.40414600421739, 288.8515935959332, -4974.380728528587, -1538.0011842252236, -3349.0736304609336, -4685.5291349326535, -3514.834167341491, -2779.5288299952545, -2824.478188094877, -1670.0105869782672, -8290.887867318139, -15193.173610350324, 0.01559375, -0.1043125, 0.988671875, 192.0, 0.0, 0.0, 0.0, 0.0, 0.0, 0.0, 0.0, 0.0, 0.0, 1.645922707238387E9, 0.0, 2022-02-27 11:45:07.238
220.0, -838.4809897519339, -3550.127571836421, -1901.9322874465333, -9383.798764204832, -10.371209427262476, 310.3763235063939, -4863.471372541353, -1383.8635544614262, -1762.9267886789787, -4404.098320495882, -3668.0330238381657, -2752.3044052486903, -3017.4855014664536, -1739.7703814232805, -8117.505385578322, -14769.54099768889, 0.01559375, -0.1043125, 0.988671875, 192.0, 0.0, 0.0, 0.0, 0.0, 0.0, 0.0, 0.0, 0.0, 0.0, 1.645922707245357E9, 0.0, 2022-02-27 11:45:07.245
222.0, -507.4516543688362, -3298.066949613923, -1706.5556891626943, -9125.502005279304, 286.1246807723857, 461.13883985744, -4825.227537778323, -1330.0405538130467, -2413.206090117227, -4290.104423773816, -3446.326070585975, -2695.3745121210236, -2774.253818303802, -1579.3966149564524, -8106.620086028587, -14750.430256179603, 0.01559375, -0.1043125, 0.988671875, 192.0, 0.0, 0.0, 0.0, 0.0, 0.0, 0.0, 0.0, 0.0, 0.0, 1.645922707252914E9, 0.0, 2022-02-27 11:45:07.252
224.0, -952.2290172849915, -3641.657965380903, -2007.1419485976637, -9503.917038907652, -137.55263537795966, 204.60786874388086, -4987.836478690681, -1561.4928676477514, -2995.334922711244, -4822.210052276856, -3677.44310825385, -2834.7823422887736, -2997.301876223311, -1797.3261233956962, -8320.101597321225, -15247.309535421078, 0.01, -0.106, 0.984, 192.0, 0.0, 40.0, 126.0, 88.0, 15.0, 96.0, 0.0, 0.0, 0.0, 1.645922707260885E9, 0.0, 2022-02-27 11:45:07.260
226.0, -605.7993299721874, -3373.325273194942, -1751.5050472623168, -9188.91390429901, 191.68856044871336, 448.82302866256583, -4793.577467629608, -1270.2719891395557, -1535.2966231461314, -4115.112616433217, -3525.473597702217, -2661.936302415884, -2881.4974882003653, -1613.0806938506, -8012.2733726827355, -14509.612561418124, 0.01, -0.106, 0.984, 192.0, 0.0, 0.0, 0.0, 0.0, 0.0, 0.0, 0.0, 0.0, 0.0, 1.645922707268016E9, 0.0, 2022-02-27 11:45:07.268
228.0, -732.3102035892252, -3480.2783704135863, -1885.8390314387123, -9342.358629984694, 40.814285375390696, 291.01971280809795, -4986.607132745639, -1544.8184662840924, -3344.6926885476937, -4688.680730900852, -3514.923574319312, -2777.8971526500172, -2832.0777812096812, -1672.1340027015215, -8297.2581144879, -15196.951055163272, 0.01, -0.106, 0.984, 192.0, 0.0, 0.0, 0.0, 0.0, 0.0, 0.0, 0.0, 0.0, 0.0, 1.645922707274551E9, 0.0, 2022-02-27 11:45:07.274
230.0, -836.8269606622412, -3546.439534001295, -1908.0790171717426, -9386.615084006202, -31.135980026242738, 305.9283263597878, -4886.068986185669, -1394.547688311063, -1781.5010883213388, -4416.637649135309, -3671.8328203955675, -2738.9827655533277, -3025.8674056371938, -1751.3262333066743, -8127.407208372022, -14780.649814683178, 0.01, -0.106, 0.984, 192.0, 0.0, 0.0, 0.0, 0.0, 0.0, 0.0, 0.0, 0.0, 0.0, 1.645922707282523E9, 0.0, 2022-02-27 11:45:07.282
232.0, -500.76848277669944, -3291.003798366046, -1709.7743403642585, -9122.752740711301, 270.07612825347525, 458.38957528943723, -4843.399506020487, -1334.488550959653, -2394.788252686054, -4270.725461331065, -3446.5942915194382, -2683.572791048621, -2786.0555393762043, -1586.057434804134, -8110.799862241729, -14746.362238688736, 0.01, -0.106, 0.984, 192.0, 0.0, 0.0, 0.0, 0.0, 0.0, 0.0, 0.0, 0.0, 0.0, 1.645922707290608E9, 0.0, 2022-02-27 11:45:07.290
234.0, -949.9491393505501, -3632.896081554423, -2012.0816841222866, -9502.754748195977, -143.63230986980318, 204.1161303658641, -4990.675150236506, -1567.8631148175139, -3041.6030337337297, -4809.804834104161, -3676.884314642467, -2832.2118916764134, -3009.885908351649, -1800.790643786269, -8324.437835745553, -15254.238576202224, 0.014, -0.106, 0.982, 192.0, 0.0, 56.0, 126.0, 88.0, 15.0, 88.0, 0.0, 0.0, 0.0, 1.645922707297303E9, 0.0, 2022-02-27 11:45:07.297
236.0, -602.8936031929974, -3358.036679987512, -1757.0259281427775, -9186.969302531399, 194.10254884988655, 444.3303280270491, -4800.193583988379, -1284.2194776796673, -1534.8719400014807, -4114.620878055201, -3529.4522082152616, -2654.023784878705, -2894.305037773256, -1625.3518015565637, -8009.121776714537, -14513.367654486616, 0.014, -0.106, 0.982, 192.0, 0.0, 0.0, 0.0, 0.0, 0.0, 0.0, 0.0, 0.0, 0.0, 1.64592270730506E9, 0.0, 2022-02-27 11:45:07.305
238.0, -724.4200377965019, -3467.403765607329, -1884.6767407270363, -9337.50830143789, 58.33805302835143, 299.87100361239953, -4988.1270513686, -1529.6639835433941, -3339.3729733673304, -4662.328024188045, -3508.8438998274687, -2773.2032863144027, -2833.284775410268, -1680.113575472066, -8286.953960294004, -15185.305796302056, 0.014, -0.106, 0.982, 192.0, 0.0, 0.0, 0.0, 0.0, 0.0, 0.0, 0.0, 0.0, 0.0, 1.645922707313096E9, 0.0, 2022-02-27 11:45:07.313
240.0, -837.2963472958025, -3539.376382753418, -1912.3482003627064, -9394.19232537655, -30.174855014664534, 305.79421589305593, -4875.988349436325, -1399.0403889465797, -1809.5301758682938, -4422.359695715868, -3673.620959951992, -2740.4356289429224, -3033.466998751998, -1750.4545152729172, -8125.864938004606, -14787.26593104195, 0.014, -0.106, 0.982, 192.0, 0.0, 0.0, 0.0, 0.0, 0.0, 0.0, 0.0, 0.0, 0.0, 1.645922707320061E9, 0.0, 2022-02-27 11:45:07.320
242.0, -488.74324425974424, -3278.620931937806, -1708.0309042967444, -9125.122025623563, 269.2938171975395, 464.02221489217465, -4838.884453640515, -1323.1115130319015, -2380.0361013455513, -4264.51167637249, -3441.051058894522, -2678.5660002906325, -2791.442309789933, -1594.4616907193292, -8103.133213893559, -14739.500253140957, 0.014, -0.106, 0.982, 192.0, 0.0, 0.0, 0.0, 0.0, 0.0, 0.0, 0.0, 0.0, 0.0, 1.645922707327827E9, 0.0, 2022-02-27 11:45:07.327
244.0, -939.3767642231899, -3624.2012529613085, -2011.2323178329848, -9506.196916842095, -148.4155831832389, 206.10543562238644, -4996.196031116967, -1577.4520131888407, -3045.671051224596, -4800.417101432932, -3668.6141691940034, -2827.473321851888, -3012.7022281530176, -1802.8693560206123, -8325.376609012677, -15260.20649197179, 0.012, -0.108, 0.982, 192.0, 0.0, 48.0, 126.0, 80.0, 15.0, 88.0, 0.0, 0.0, 0.0, 1.64592270734296E9, 0.0, 2022-02-27 11:45:07.342
246.0, -592.1871175989053, -3347.33019439342, -1754.7907536972468, -9186.05288100873, 189.45338600318266, 441.7822291591441, -4816.018619062736, -1285.6723410692623, -1527.8311404980589, -4112.095130931751, -3522.769036623125, -2651.3415755440683, -2895.221459295924, -1625.664725978938, -8009.591163348099, -14515.289904509773, 0.012, -0.108, 0.982, 192.0, 0.0, 0.0, 0.0, 0.0, 0.0, 0.0, 0.0, 0.0, 0.0, 1.645922707349908E9, 0.0, 2022-02-27 11:45:07.349
248.0, -708.8185201666976, -3452.092820655444, -1880.8322406807233, -9327.382961199637, 57.66750069469222, 304.7436839036565, -4964.478905734886, -1520.767989250182, -3333.606223297861, -4656.449515396299, -3505.178213736798, -2770.901056635506, -2834.670583566497, -1669.4741451113398, -8286.59633238272, -15185.663424213342, 0.012, -0.108, 0.982, 192.0, 0.0, 0.0, 0.0, 0.0, 0.0, 0.0, 0.0, 0.0, 0.0, 1.645922707357444E9, 0.0, 2022-02-27 11:45:07.357
250.0, -832.8930536381071, -3538.8175891420356, -1915.4327410975388, -9396.606313777724, -27.894977080223214, 305.4142362373157, -4879.765794249272, -1405.5447465830741, -1832.6195278906262, -4427.344134729402, -3672.0563378401207, -2743.0060795552827, -3036.7974086758386, -1753.2261315853755, -8127.518967094299, -14803.40389053868, 0.012, -0.108, 0.982, 192.0, 0.0, 0.0, 0.0, 0.0, 0.0, 0.0, 0.0, 0.0, 0.0, 1.645922707365423E9, 0.0, 2022-02-27 11:45:07.365
252.0, -483.267066868194, -3277.4139377372194, -1707.852090341102, -9121.925726166455, 278.1004045129305, 464.64806373692323, -4855.178875348434, -1328.4982834456305, -2340.384106681837, -4258.990795492029, -3432.8256169349693, -2681.2705613697244, -2784.826193431162, -1586.1468417819551, -8098.037016157748, -14731.095997225762, 0.012, -0.108, 0.982, 192.0, 0.0, 0.0, 0.0, 0.0, 0.0, 0.0, 0.0, 0.0, 0.0, 1.645922707373444E9, 0.0, 2022-02-27 11:45:07.373
254.0, -938.7062118895307, -3626.0340960066437, -2014.518024267915, -9508.812070943364, -144.77224883702385, 199.6904849637133, -4988.417624046519, -1570.858248574525, -3081.523249330908, -4814.252831250767, -3665.9766633482773, -2839.252691179835, -3010.4447019630315, -1806.4679868779167, -8333.110312594214, -15271.158846754892, 0.014, -0.108, 0.99, 192.0, 0.0, 56.0, 126.0, 80.0, 15.0, 120.0, 0.0, 0.0, 0.0, 1.645922707380049E9, 0.0, 2022-02-27 11:45:07.380
0.0, -603.005361915274, -3361.7917730560034, -1759.596378755138, -9200.91679107151, 186.7041214351799, 434.45085697780337, -4802.875793323015, -1288.198088192712, -1518.152835148911, -4121.929898492086, -3526.390019224885, -2667.4571832963447, -2902.3069622882563, -1640.7745052307255, -8009.010017992261, -14522.30835226874, 0.014, -0.108, 0.99, 192.0, 0.0, 0.0, 0.0, 0.0, 0.0, 0.0, 0.0, 0.0, 0.0, 1.645922707388061E9, 0.0, 2022-02-27 11:45:07.388
2.0, -703.0964735861389, -3446.191960119243, -1875.7583946893687, -9330.176929256551, 68.61985547779268, 307.49294847165925, -4977.331158796687, -1529.3957626099304, -3318.384685323797, -4654.63902409542, -3499.344408433963, -2776.377234027056, -2832.4577608654217, -1679.5994853495938, -8282.34950093621, -15181.930682889306, 0.014, -0.108, 0.99, 192.0, 0.0, 0.0, 0.0, 0.0, 0.0, 0.0, 0.0, 0.0, 0.0, 1.645922707395146E9, 0.0, 2022-02-27 11:45:07.395
4.0, -848.539274756822, -3547.311252035052, -1927.2568139143962, -9410.509098828925, -45.46344822209456, 295.7135791437124, -4885.912523974482, -1413.6584298203504, -1862.3696997606398, -4446.253710538592, -3677.152535575931, -2758.6299489295425, -3043.145304101146, -1766.2124951139087, -8137.823121288196, -14826.850870472297, 0.014, -0.108, 0.99, 192.0, 0.0, 0.0, 0.0, 0.0, 0.0, 0.0, 0.0, 0.0, 0.0, 1.645922707403162E9, 0.0, 2022-02-27 11:45:07.403
6.0, -490.8443082385431, -3274.061176068923, -1710.9589828203898, -9124.004438400798, 270.2102387202071, 476.6062470205125, -4849.881511912527, -1328.2747660010775, -2319.596984338401, -4252.307623899892, -3445.7672769745923, -2681.583485792099, -2797.5890395151428, -1591.1089290510333, -8098.014664413294, -14725.82098553431, 0.014, -0.108, 0.99, 192.0, 0.0, 0.0, 0.0, 0.0, 0.0, 0.0, 0.0, 0.0, 0.0, 1.645922707409666E9, 0.0, 2022-02-27 11:45:07.409
8.0, -934.6605461431201, -3614.299430167607, -2012.931050411588, -9504.542887752401, -150.40488843976124, 216.4542933051936, -5031.020048978335, -1571.059414274623, -3076.047071939358, -4801.8699648225265, -3667.2060092933193, -2830.1108276976142, -3007.2931059948332, -1789.4806610918833, -8333.020905616391, -15269.840093832028, 0.014, -0.108, 0.986, 192.0, 0.0, 56.0, 126.0, 80.0, 15.0, 104.0, 0.0, 0.0, 0.0, 1.645922707417857E9, 0.0, 2022-02-27 11:45:07.417
10.0, -603.5641555266566, -3352.2028746846768, -1762.2785880897748, -9197.385215447572, 171.79550788349007, 450.7005751968116, -4807.033217791703, -1282.3195794009662, -1507.8039774661038, -4109.882308230675, -3529.8545396154573, -2658.0247471362054, -2902.351665777167, -1615.3605717850414, -8018.040122752205, -14513.166488786519, 0.014, -0.108, 0.986, 192.0, 0.0, 0.0, 0.0, 0.0, 0.0, 0.0, 0.0, 0.0, 0.0, 1.645922707425732E9, 0.0, 2022-02-27 11:45:07.425
12.0, -704.6610956980105, -3447.197788619732, -1875.0654906112543, -9326.779464099343, 63.590712975348595, 319.7640561776228, -4969.061013348224, -1526.9370707198466, -3318.1835196236993, -4650.3698409044555, -3505.737007348181, -2777.405414272, -2833.754162043829, -1669.2282759223315, -8282.997701525415, -15175.247511297168, 0.014, -0.108, 0.986, 192.0, 0.0, 0.0, 0.0, 0.0, 0.0, 0.0, 0.0, 0.0, 0.0, 1.645922707432374E9, 0.0, 2022-02-27 11:45:07.432
14.0, -845.991175888917, -3542.349164765974, -1921.3783051226503, -9409.615029050712, -45.39639298872864, 305.7718641486006, -4881.531582061241, -1420.4980636236744, -1864.716632928447, -4447.438352994723, -3680.058262355121, -2751.4997424482995, -3041.3124610558107, -1768.2912073482523, -8137.063161976715, -14824.481585560035, 0.014, -0.108, 0.986, 192.0, 0.0, 0.0, 0.0, 0.0, 0.0, 0.0, 0.0, 0.0, 0.0, 1.645922707440285E9, 0.0, 2022-02-27 11:45:07.440
16.0, -486.396311091937, -3269.8590481113256, -1703.0017617943004, -9127.647772747014, 274.4347184222601, 472.58293301855724, -4828.177968046423, -1330.0182020685916, -2312.310315645971, -4245.177417418649, -3447.0413264085446, -2677.6048752790543, -2791.352902812112, -1580.2012777568434, -8093.007873655305, -14720.590677331767, 0.014, -0.108, 0.986, 192.0, 0.0, 0.0, 0.0, 0.0, 0.0, 0.0, 0.0, 0.0, 0.0, 1.645922707448332E9, 0.0, 2022-02-27 11:45:07.448
18.0, -946.886950360173, -3625.072970995065, -2014.741541712468, -9513.952972168085, -152.90828381875562, 211.0675228914646, -5003.661513765039, -1569.40538518493, -3111.429883412109, -4811.704732382862, -3673.7774221631794, -2835.475246366888, -3004.5438414268306, -1800.7682920418135, -8332.529167238376, -15282.088849793536, 0.01, -0.10400000000000001, 0.988, 192.0, 0.0, 40.0, 126.0, 96.0, 15.0, 112.0, 0.0, 0.0, 0.0, 1.645922707462345E9, 0.0, 2022-02-27 11:45:07.462
20.0, -620.2162051458604, -3370.687767349216, -1766.2124951139087, -9209.67867489799, 170.70027240518004, 441.1340285699402, -4805.915630568938, -1266.2486751376005, -1514.6659630138831, -4126.310840405326, -3548.6300049579154, -2669.8264682086074, -2911.0017908813707, -1632.3478975710748, -8014.01680875025, -14516.54160219927, 0.01, -0.10400000000000001, 0.988, 192.0, 0.0, 0.0, 0.0, 0.0, 0.0, 0.0, 0.0, 0.0, 0.0, 1.645922707469894E9, 0.0, 2022-02-27 11:45:07.469
22.0, -703.4093980085132, -3445.0073176631117, -1869.4104992640614, -9325.79598734331, 64.06009960891004, 311.0468758400531, -4961.260254533321, -1520.0303816831567, -3317.5353190344954, -4643.038468723115, -3510.699094617259, -2775.751385182308, -2839.4315051354774, -1681.432328394929, -8282.461259658487, -15171.403011250855, 0.01, -0.10400000000000001, 0.988, 192.0, 0.0, 0.0, 0.0, 0.0, 0.0, 0.0, 0.0, 0.0, 0.0, 1.6459227074781E9, 0.0, 2022-02-27 11:45:07.478
24.0, -865.9512836875062, -3563.806839443069, -1933.9846889954435, -9421.327343145293, -66.49643975453851, 289.96918081869853, -4891.858087999593, -1417.1676536998336, -1909.844804983712, -4476.205048108703, -3691.770576449702, -2766.1624868109807, -3054.142362373157, -1777.2989603637411, -8148.641365604564, -14846.341591637325, 0.01, -0.10400000000000001, 0.988, 192.0, 0.0, 0.0, 0.0, 0.0, 0.0, 0.0, 0.0, 0.0, 0.0, 1.645922707485114E9, 0.0, 2022-02-27 11:45:07.485
26.0, -498.60036356453463, -3285.2146965521215, -1711.048389798211, -9130.195871614918, 256.95565425821, 464.6033602480126, -4854.262453825767, -1333.8179986259936, -2289.623295023834, -4241.668193539166, -3459.312434114508, -2688.8925062289845, -2805.479205307866, -1591.2206877733097, -8100.875687703573, -14713.192249917061, 0.01, -0.10400000000000001, 0.988, 192.0, 0.0, 0.0, 0.0, 0.0, 0.0, 0.0, 0.0, 0.0, 0.0, 1.645922707492518E9, 0.0, 2022-02-27 11:45:07.492
28.0, -946.7751916378966, -3633.790151332635, -2018.1166551252193, -9514.444710546102, -166.8110688699566, 200.13751985281945, -5007.640124278084, -1576.6920538773602, -3131.7029156330727, -4823.417046477442, -3681.0640908556097, -2842.18076970348, -3013.3280769977664, -1802.2211554314085, -8354.724449482495, -15287.006233573704, 0.014, -0.106, 0.986, 192.0, 0.0, 56.0, 126.0, 88.0, 15.0, 104.0, 0.0, 0.0, 0.0, 1.645922707500514E9, 0.0, 2022-02-27 11:45:07.500
30.0, -627.681687793933, -3381.841287832414, -1771.465155060906, -9216.987695334876, 156.9539495651662, 433.10975231048496, -4790.403519916955, -1283.8618497683824, -1517.638745026439, -4124.187424682072, -3552.0051183706664, -2671.234628109292, -2915.762712450351, -1640.9980226752787, -8023.337486188113, -14520.050826078752, 0.014, -0.106, 0.986, 192.0, 0.0, 0.0, 0.0, 0.0, 0.0, 0.0, 0.0, 0.0, 0.0, 1.645922707508726E9, 0.0, 2022-02-27 11:45:07.508
32.0, -699.5201944732898, -3445.0743728964776, -1868.5611329747599, -9326.533594910336, 66.22821882107483, 314.6231549529022, -4952.587777684663, -1529.35105912102, -3306.6276677403057, -4659.019966008659, -3506.9216498043124, -2780.3334927956457, -2830.0661242087035, -1669.4741451113398, -8287.3562916942, -15168.899615871862, 0.014, -0.106, 0.986, 192.0, 0.0, 0.0, 0.0, 0.0, 0.0, 0.0, 0.0, 0.0, 0.0, 1.645922707514827E9, 0.0, 2022-02-27 11:45:07.514
34.0, -863.4925917974224, -3561.3034440640745, -1931.168369194075, -9419.6733140556, -59.030957106465955, 294.6853988987683, -4889.488803087331, -1422.9120520248475, -1893.8633076981673, -4474.372205063368, -3689.602457237537, -2764.2402367878244, -3045.4922372689534, -1769.4534980599283, -8151.010650516827, -14843.838196258332, 0.014, -0.106, 0.986, 192.0, 0.0, 0.0, 0.0, 0.0, 0.0, 0.0, 0.0, 0.0, 0.0, 1.645922707522342E9, 0.0, 2022-02-27 11:45:07.522
36.0, -498.0862734420626, -3279.9843883495796, -1709.5731746641607, -9128.027752402753, 260.91191302679937, 466.95029341581983, -4855.089468370613, -1345.127981320379, -2300.7991672514877, -4248.373716875758, -3463.6263207943825, -2686.478517827811, -2806.037998919249, -1587.309132493631, -8105.301333105724, -14720.545973842858, 0.014, -0.108, 0.987, 192.0, 0.0, 56.0, 126.0, 72.0, 15.0, 112.0, 0.0, 0.0, 0.0, 1.64592270753026E9, 0.0, 2022-02-27 11:45:07.530
38.0, -946.5069707044329, -3631.1973489758193, -2013.1992713450518, -9516.299905335893, -153.5341326635042, 195.15308083928596, -5002.342760842176, -1588.2032022718433, -3149.1819797971225, -4835.822264650138, -3676.571390220093, -2840.3032231692346, -3007.1366437836464, -1800.0530362192437, -8349.024754646392, -15300.551390713621, 0.014, -0.108, 0.987, 192.0, 0.0, 0.0, 0.0, 0.0, 0.0, 0.0, 0.0, 0.0, 0.0, 1.645922707537328E9, 0.0, 2022-02-27 11:45:07.537
40.0, -633.0237547187513, -3384.255276233587, -1773.432108572973, -9223.134425060085, 151.5895308958925, 421.37508647144875, -4813.828148106116, -1296.937620274737, -1506.7087419877937, -4139.72188707851, -3553.1674090823426, -2674.1180031440263, -2921.5071107753647, -1644.5519500436724, -8026.0643990116605, -14533.551279729758, 0.014, -0.108, 0.987, 192.0, 0.0, 0.0, 0.0, 0.0, 0.0, 0.0, 0.0, 0.0, 0.0, 1.645922707546314E9, 0.0, 2022-02-27 11:45:07.546
42.0, -689.9312961019631, -3435.3290123139636, -1855.4853624684051, -9310.373283669149, 82.32147482889592, 319.7417044331675, -4961.036737088769, -1511.7825879791485, -3300.8385659263813, -4641.0938669555035, -3512.3307719624963, -2780.735824195841, -2839.2079876909243, -1668.1553921884768, -8294.084166775247, -15168.184360049292, 0.014, -0.108, 0.987, 192.0, 0.0, 0.0, 0.0, 0.0, 0.0, 0.0, 0.0, 0.0, 0.0, 1.645922707552956E9, 0.0, 2022-02-27 11:45:07.552
44.0, -881.3516356172128, -3572.1663918693534, -1938.2538721864073, -9434.827796796299, -74.99010264755519, 280.38028244737177, -4898.138928191534, -1434.0432207635906, -1992.4121490016162, -4494.131147161859, -3708.377922579995, -2774.410280514989, -3059.2162083645117, -1778.7741754977912, -8176.983377573893, -14884.18309500016, 0.014, -0.108, 0.987, 192.0, 0.0, 0.0, 0.0, 0.0, 0.0, 0.0, 0.0, 0.0, 0.0, 1.645922707561347E9, 0.0, 2022-02-27 11:45:07.561
46.0, -496.65576179692295, -3283.7618331625263, -1698.4867094143283, -9129.346505325617, 273.115965499397, 470.10188938401814, -4829.720238413839, -1322.0833327869575, -2213.96264004262, -4224.949088686596, -3452.6516142668265, -2673.9615409328394, -2801.6123535170977, -1574.8145073431144, -8093.209039355403, -14695.869647964199, 0.014, -0.109, 0.9864999999999999, 192.0, 0.0, 56.0, 126.0, 72.0, 15.0, 104.0, 0.0, 0.0, 0.0, 1.645922707567553E9, 0.0, 2022-02-27 11:45:07.567
48.0, -952.2737207739021, -3640.9427095583333, -2009.1089021097307, -9516.277553591437, -147.54386514948192, 199.24345007460715, -4991.345702570165, -1586.8844493489803, -3170.125564351745, -4839.979689118825, -3671.8104686511124, -2842.4936941258543, -3002.6215914036743, -1792.6769605489924, -8345.828455189283, -15298.226809290269, 0.014, -0.109, 0.9864999999999999, 192.0, 0.0, 0.0, 0.0, 0.0, 0.0, 0.0, 0.0, 0.0, 0.0, 1.64592270757564E9, 0.0, 2022-02-27 11:45:07.575
50.0, -649.1840659599384, -3399.8567938633914, -1773.58857078416, -9225.660172183534, 156.90924607625558, 420.2351475042281, -4818.589069675097, -1291.9308295167482, -1511.1120356454892, -4151.009518028441, -3560.543484752594, -2679.683587513398, -2926.4915497888983, -1639.8357319636027, -8025.662067611464, -14537.01580012033, 0.014, -0.109, 0.9864999999999999, 192.0, 0.0, 0.0, 0.0, 0.0, 0.0, 0.0, 0.0, 0.0, 0.0, 1.645922707590505E9, 0.0, 2022-02-27 11:45:07.590
52.0, -712.2606888128148, -3456.1831898907653, -1862.1014788271762, -9314.597763371201, 74.52071601399375, 320.61342246692453, -4960.992033599858, -1505.5464512761178, -3292.9931036225685, -4639.082209954526, -3511.1908329952757, -2776.64545496052, -2834.759990544318, -1654.8114007486583, -8287.088070760736, -15154.773313376107, 0.014, -0.109, 0.9864999999999999, 192.0, 0.0, 0.0, 0.0, 0.0, 0.0, 0.0, 0.0, 0.0, 0.0, 1.645922707597342E9, 0.0, 2022-02-27 11:45:07.597
54.0, -892.1698799335815, -3589.243124633208, -1941.0701919877758, -9432.39145665067, -71.63734097925914, 281.8778493258774, -4886.270151885767, -1429.930499783814, -1960.002119541421, -4502.714217032697, -3708.824957469101, -2777.964207883383, -3068.782754991383, -1773.2532946173305, -8169.719060625918, -14869.542702381934, 0.014, -0.109, 0.9864999999999999, 192.0, 0.0, 0.0, 0.0, 0.0, 0.0, 0.0, 0.0, 0.0, 0.0, 1.64592270760521E9, 0.0, 2022-02-27 11:45:07.605
56.0, -519.812169052621, -3305.219507839621, -1710.7354653758366, -9135.068551906175, 267.28216019656185, 465.5421335151355, -4832.648316937485, -1320.1834345082564, -2270.758422703555, -4250.541836087923, -3470.1306784308767, -2693.742834775786, -2819.694914781441, -1590.1701557839103, -8102.306199348713, -14713.214601661517, 0.015, -0.10650000000000001, 0.98625, 192.0, 0.0, 64.0, 126.0, 96.0, 15.0, 104.0, 0.0, 0.0, 0.0, 1.645922707613179E9, 0.0, 2022-02-27 11:45:07.613
58.0, -960.4544592445445, -3647.827046850568, -2013.7357132119791, -9519.876184448742, -144.34756569237302, 198.28232506302896, -5004.0861969096895, -1582.7493766247485, -3201.6415240337283, -4843.868892654049, -3677.0407768536543, -2847.634595350575, -3008.50010019542, -1794.3086378942298, -8354.165655871113, -15313.403643775422, 0.015, -0.10650000000000001, 0.98625, 192.0, 0.0, 0.0, 0.0, 0.0, 0.0, 0.0, 0.0, 0.0, 0.0, 1.64592270762052E9, 0.0, 2022-02-27 11:45:07.620
60.0, -661.5669323881784, -3412.9102126252906, -1779.8694109761013, -9235.137311832585, 146.8509610713674, 422.2021010162951, -4804.015732290236, -1284.4429951242203, -1514.0177624246792, -4160.240788488482, -3568.925388923334, -2682.701073014864, -2935.8122272267615, -1643.344955843086, -8028.567794390655, -14538.870994910121, 0.015, -0.10650000000000001, 0.98625, 192.0, 0.0, 0.0, 0.0, 0.0, 0.0, 0.0, 0.0, 0.0, 0.0, 1.645922707627838E9, 0.0, 2022-02-27 11:45:07.627
62.0, -710.5619562342115, -3464.453335339229, -1852.6690426670366, -9318.08463550623, 78.43227129367249, 321.70865794523456, -4972.2126093164225, -1506.1275966319558, -3282.2419145395656, -4648.469942625755, -3510.6543911283484, -2779.417071272978, -2838.4927318683544, -1663.4168223639515, -8284.361157937188, -15153.499263942154, 0.015, -0.10650000000000001, 0.98625, 192.0, 0.0, 0.0, 0.0, 0.0, 0.0, 0.0, 0.0, 0.0, 0.0, 1.645922707635729E9, 0.0, 2022-02-27 11:45:07.635
64.0, -895.0756067127713, -3592.5958863015044, -1933.3811918951503, -9433.464340384524, -63.657768208714515, 282.9954365486427, -4907.0572742292015, -1435.5631393865515, -1967.847581845234, -4515.521766605588, -3706.790948723668, -2780.1770305844584, -3061.4737345544977, -1777.6342365305707, -8171.551903671254, -14877.589330385845, 0.015, -0.10650000000000001, 0.98625, 192.0, 0.0, 0.0, 0.0, 0.0, 0.0, 0.0, 0.0, 0.0, 0.0, 1.645922707642775E9, 0.0, 2022-02-27 11:45:07.642
66.0, -540.7781053516991, -3333.360354108853, -1708.8579188415908, -9137.61665077408, 274.9935120336428, 464.2010288478171, -4806.5638311581415, -1314.550794905519, -2256.1403818297845, -4259.124905958761, -3469.4601260972177, -2691.328846374613, -2812.3411908556454, -1590.7513011397484, -8096.830021957162, -14708.476031836992, 0.014499999999999999, -0.10525000000000001, 0.9881249999999999, 192.0, 0.0, 56.0, 126.0, 96.0, 15.0, 120.0, 0.0, 0.0, 0.0, 1.645922707650071E9, 0.0, 2022-02-27 11:45:07.650
68.0, -999.726474252519, -3695.793890451657, -2017.2002336025519, -9523.02778041694, -145.35339419286183, 199.33285705242838, -4989.4681560359195, -1577.9437515668574, -3222.4062946327085, -4871.205076122889, -3692.5528875056375, -2860.3080344567343, -3017.1278735551687, -1799.9412774969671, -8352.712792481518, -15311.16846932989, 0.014499999999999999, -0.10525000000000001, 0.9881249999999999, 192.0, 0.0, 0.0, 0.0, 0.0, 0.0, 0.0, 0.0, 0.0, 0.0, 1.645922707657523E9, 0.0, 2022-02-27 11:45:07.657
70.0, -717.9156801600076, -3468.968387719201, -1779.4223760869952, -9234.310297287739, 158.40681295476116, 423.2749847501498, -4798.606610132052, -1292.9143062727817, -1524.5677858075842, -4180.312655009348, -3580.570647784549, -2695.620381310032, -2933.8229219702393, -1645.0436884216892, -8026.198509478392, -14540.279154810805, 0.014499999999999999, -0.10525000000000001, 0.9881249999999999, 192.0, 0.0, 0.0, 0.0, 0.0, 0.0, 0.0, 0.0, 0.0, 0.0, 1.645922707665374E9, 0.0, 2022-02-27 11:45:07.665
72.0, -797.0185037873392, -3550.574606725527, -1855.2618450238522, -9312.206126714484, 95.62076277980361, 334.5162075181255, -4946.329289237176, -1502.8865936859363, -3299.944496148169, -4665.121992244958, -3527.641716914382, -2795.063292391693, -2834.648231822042, -1653.984386203812, -8280.717823590974, -15147.151368516848, 0.014499999999999999, -0.10525000000000001, 0.9881249999999999, 192.0, 0.0, 0.0, 0.0, 0.0, 0.0, 0.0, 0.0, 0.0, 0.0, 1.645922707672543E9, 0.0, 2022-02-27 11:45:07.672
74.0, -1046.463971908566, -3739.2903851616843, -1942.09837223272, -9439.499311387457, -54.225332048574934, 299.8263001234889, -4879.072890171157, -1411.5350140970963, -2033.673469266113, -4563.175685784303, -3737.725763049813, -2812.0059146888157, -3064.915903200615, -1774.8402684736573, -8172.490676938377, -14884.674833378176, 0.014499999999999999, -0.10525000000000001, 0.9881249999999999, 192.0, 0.0, 0.0, 0.0, 0.0, 0.0, 0.0, 0.0, 0.0, 0.0, 1.645922707680123E9, 0.0, 2022-02-27 11:45:07.680
76.0, -728.9797936653846, -3503.50183290265, -1710.3554857200963, -9137.549595540715, 295.5571169325253, 488.81029949311016, -4799.098348510069, -1305.677152356762, -2285.6223327663342, -4296.966409321596, -3507.8157195825247, -2729.840902071107, -2808.5190425537876, -1582.1011760355445, -8086.615274741087, -14694.461488063514, 0.01525, -0.107625, 0.9880625, 192.0, 0.0, 64.0, 126.0, 72.0, 15.0, 112.0, 0.0, 0.0, 0.0, 1.645922707688002E9, 0.0, 2022-02-27 11:45:07.688
78.0, -1230.6870497092068, -3903.9780383083867, -2026.6326697626914, -9528.213385130572, -126.77909455050165, 222.55631954149243, -4989.758728713838, -1560.6882048473603, -3310.785092208993, -4925.050428515724, -3741.659670073947, -2909.5489274917754, -3000.699341380518, -1786.0608441902214, -8342.74391445445, -15309.112108840003, 0.01525, -0.107625, 0.9880625, 192.0, 0.0, 0.0, 0.0, 0.0, 0.0, 0.0, 0.0, 0.0, 0.0, 1.645922707696051E9, 0.0, 2022-02-27 11:45:07.696
80.0, -949.1444765501591, -3688.797794437146, -1799.494242607861, -9251.49878877387, 162.87716184582257, 440.1952553028173, -4781.731043068296, -1261.6889192687177, -1604.2964582796644, -4238.673059782155, -3650.6433666519365, -2751.678556403942, -2935.8122272267615, -1642.1603133869546, -8020.275297197735, -14537.775759431812, 0.01525, -0.107625, 0.9880625, 192.0, 0.0, 0.0, 0.0, 0.0, 0.0, 0.0, 0.0, 0.0, 0.0, 1.645922707709719E9, 0.0, 2022-02-27 11:45:07.709
82.0, -977.9558751530499, -3728.293326889673, -1868.0246911078325, -9324.074903020251, 111.02111470951019, 343.59101576698015, -4937.254480988322, -1491.2636865691766, -3358.8860462768134, -4716.910984147905, -3588.863144977468, -2849.7803628182846, -2838.2021591904354, -1654.7443455152925, -8271.866532786671, -15138.501243412644, 0.01525, -0.107625, 0.9880625, 192.0, 0.0, 0.0, 0.0, 0.0, 0.0, 0.0, 0.0, 0.0, 0.0, 1.645922707717604E9, 0.0, 2022-02-27 11:45:07.717
84.0, -1174.0924327483694, -3866.8964942570324, -1965.6347591441584, -9455.30199471736, -63.09897459733184, 302.1732332912962, -4887.7453670198165, -1405.8800227499037, -2101.935696832621, -4609.309686340057, -3787.011359573765, -2852.0825924971814, -3074.7059672720397, -1782.0375301882661, -8179.844400864173, -14895.269560249992, 0.01525, -0.107625, 0.9880625, 192.0, 0.0, 0.0, 0.0, 0.0, 0.0, 0.0, 0.0, 0.0, 0.0, 1.645922707725799E9, 0.0, 2022-02-27 11:45:07.725
86.0, -780.4558611459568, -3560.543484752594, -1725.5546719497052, -9145.14918865552, 292.4278727087823, 498.4439013533475, -4799.478328165809, -1288.354550403899, -2318.1217692043506, -4318.088807831861, -3548.764115424647, -2760.3286815081456, -2829.9096619975167, -1573.02636778669, -8094.483088789355, -14684.023223402886, 0.015625, -0.1038125, 0.98903125, 192.0, 0.0, 64.0, 126.0, 112.0, 15.0, 120.0, 0.0, 0.0, 0.0, 1.645922707732438E9, 0.0, 2022-02-27 11:45:07.732
88.0, -1201.5627266839417, -3885.850773555133, -2027.6608500076354, -9526.961687441075, -125.52739686100446, 220.65642126279133, -4990.004597902846, -1570.7241381077931, -3321.0221911695235, -4910.901774275515, -3741.860835774045, -2908.7219129469295, -3009.014190317892, -1784.3174081227075, -8352.198702359045, -15310.117937340492, 0.015625, -0.1038125, 0.98903125, 192.0, 0.0, 0.0, 0.0, 0.0, 0.0, 0.0, 0.0, 0.0, 0.0, 1.645922707740289E9, 0.0, 2022-02-27 11:45:07.740
90.0, -894.8073857793077, -3641.4120961918948, -1793.1463471825539, -9252.884596930098, 156.50691467606006, 432.46155172128107, -4783.206258202345, -1288.2427916816225, -1582.8834870914802, -4235.990850447518, -3639.020459535177, -2743.0507830441934, -2945.53523606482, -1644.7754674882256, -8025.818529822652, -14540.905003655555, 0.015625, -0.1038125, 0.98903125, 192.0, 0.0, 0.0, 0.0, 0.0, 0.0, 0.0, 0.0, 0.0, 0.0, 1.645922707748312E9, 0.0, 2022-02-27 11:45:07.748
92.0, -895.7908625353411, -3650.4869044407496, -1854.4124787345504, -9318.241097717417, 105.88021348478955, 348.86602745843265, -4942.976527568881, -1487.1509655894001, -3322.251537114565, -4682.35518722, -3563.8738946764347, -2825.5287200842763, -2843.9689092599046, -1654.789049004203, -8270.838352541728, -15132.935659043273, 0.015625, -0.1038125, 0.98903125, 192.0, 0.0, 0.0, 0.0, 0.0, 0.0, 0.0, 0.0, 0.0, 0.0, 1.645922707755553E9, 0.0, 2022-02-27 11:45:07.755
94.0, -1082.9420188596273, -3779.679987392424, -1953.9000933051223, -9457.023079040418, -69.15629734472004, 286.61641915040246, -4903.190422438433, -1432.5233021406295, -2102.650952655191, -4592.411767531845, -3762.2232749728296, -2834.6258800775863, -3077.432880095587, -1781.0093499433221, -8185.1417643000805, -14909.149993556739, 0.015625, -0.1038125, 0.98903125, 192.0, 0.0, 0.0, 0.0, 0.0, 0.0, 0.0, 0.0, 0.0, 0.0, 1.645922707762002E9, 0.0, 2022-02-27 11:45:07.762
96.0, -682.711682642899, -3468.767222019103, -1715.496386944817, -9142.7575519988, 279.03917778005336, 478.3049795991158, -4800.081825266102, -1326.8666061003933, -2248.406678248248, -4278.928551546162, -3521.830263356002, -2732.9477945503945, -2833.79886553274, -1591.9135918514244, -8089.2304288423575, -14683.464429791502, 0.0138125, -0.10290625, 0.990515625, 192.0, 0.0, 48.0, 126.0, 104.0, 15.5, 0.0, 0.0, 0.0, 0.0, 1.64592270777E9, 0.0, 2022-02-27 11:45:07.770
98.0, -1093.5143939869874, -3780.0599670481647, -2018.3401725697724, -9516.813995458364, -130.31067017444016, 208.72058972365735, -5004.890859710081, -1596.2721820202091, -3312.8861561877916, -4892.34982637761, -3710.0990069030536, -2884.470270212921, -3009.4835769514534, -1789.301847136241, -8358.188969873068, -15324.311295069612, 0.0138125, -0.10290625, 0.990515625, 192.0, 0.0, 0.0, 0.0, 0.0, 0.0, 0.0, 0.0, 0.0, 0.0, 1.645922707778844E9, 0.0, 2022-02-27 11:45:07.778
100.0, -799.8348235887079, -3533.9672605952337, -1798.2872484072743, -9243.698029958967, 135.69744058816917, 432.9532900992978, -4807.882584081004, -1288.0416259815247, -1545.0643354731008, -4188.49339347999, -3617.205156946797, -2708.070302971638, -2958.1639716820687, -1650.5869210466053, -8033.954564804383, -14545.285945568794, 0.0138125, -0.10290625, 0.990515625, 192.0, 0.0, 0.0, 0.0, 0.0, 0.0, 0.0, 0.0, 0.0, 0.0, 1.645922707784621E9, 0.0, 2022-02-27 11:45:07.784
102.0, -795.2080124864593, -3547.4006590128733, -1850.1879990324974, -9300.538516108814, 103.08624542787618, 346.2061698682511, -4956.588739942163, -1504.5629745200843, -3259.0855072838676, -4621.714904512752, -3535.6659931738373, -2779.8417544176286, -2839.99029874686, -1633.241967349287, -8268.379660651644, -15114.651932078832, 0.0138125, -0.10290625, 0.990515625, 192.0, 0.0, 0.0, 0.0, 0.0, 0.0, 0.0, 0.0, 0.0, 0.0, 1.645922707792493E9, 0.0, 2022-02-27 11:45:07.792
104.0, -1011.0364569469043, -3704.6228295115034, -1957.8787038181667, -9459.101791274761, -85.92010568620034, 272.24424746564, -4904.5315271057525, -1449.8459040934927, -2080.0086355219646, -4553.430325201789, -3743.0678299746314, -2800.383007572056, -3081.165621419623, -1770.0793469046769, -8189.09802306867, -14914.022673847996, 0.0138125, -0.10290625, 0.990515625, 192.0, 0.0, 0.0, 0.0, 0.0, 0.0, 0.0, 0.0, 0.0, 0.0, 1.645922707800577E9, 0.0, 2022-02-27 11:45:07.800
106.0, -613.3318678536258, -3399.0744828074558, -1713.7529508773032, -9145.775037500267, 270.3219974424836, 463.1504968584176, -4811.414159704943, -1322.7315333761615, -2217.2036429886393, -4255.950958246107, -3505.9158213038236, -2710.7972157951854, -2843.097191226148, -1598.6191151880164, -8087.710510219397, -14688.180647871572, 0.008, -0.10400000000000001, 0.988, 192.0, 0.0, 32.0, 126.0, 96.0, 15.0, 112.0, 0.0, 0.0, 0.0, 1.645922707807653E9, 0.0, 2022-02-27 11:45:07.807
108.0, -1038.9761375160383, -3724.5158820767265, -2016.864957435722, -9526.268783362959, -141.08421100189818, 191.4650430041603, -5000.644028263572, -1612.566603728128, -3294.3565600343422, -4878.223523881856, -3696.2185735963076, -2872.7132526294295, -3014.043332820336, -1795.4709286059058, -8351.572853514297, -15329.407492805421, 0.008, -0.10400000000000001, 0.988, 192.0, 0.0, 0.0, 0.0, 0.0, 0.0, 0.0, 0.0, 0.0, 0.0, 1.645922707815166E9, 0.0, 2022-02-27 11:45:07.815
110.0, -745.9447677069626, -3488.481460628684, -1791.9170012375118, -9251.632899240602, 136.1668272217306, 412.9037753228874, -4816.398598718476, -1317.903556573815, -1521.4385415838412, -4179.8432683757865, -3599.0331887046327, -2696.3356371326017, -2957.113439692669, -1648.5529123011725, -8023.628058866032, -14554.651326495568, 0.008, -0.10400000000000001, 0.988, 192.0, 0.0, 0.0, 0.0, 0.0, 0.0, 0.0, 0.0, 0.0, 0.0, 1.6459227078233E9, 0.0, 2022-02-27 11:45:07.823
112.0, -746.123581662605, -3496.863364799424, -1848.6680804095365, -9299.666798075057, 99.06293142592091, 341.26643434362825, -4948.810332871715, -1503.512442530685, -3249.228387979077, -4616.305782354568, -3528.2005105257645, -2777.0477863607152, -2843.6336330930753, -1645.311909355153, -8266.032727483836, -15123.994961261149, 0.008, -0.10400000000000001, 0.988, 192.0, 0.0, 0.0, 0.0, 0.0, 0.0, 0.0, 0.0, 0.0, 0.0, 1.645922707837471E9, 0.0, 2022-02-27 11:45:07.837
114.0, -961.437936000578, -3650.308090485107, -1953.2965962048288, -9452.910358060642, -86.7247684865914, 276.46872716769303, -4903.458643371898, -1449.1753517598333, -2086.378882691727, -4551.66453738982, -3732.2272339138076, -2788.9836178998494, -3082.75259527595, -1779.1541551535315, -8191.444956236477, -14924.282124552981, 0.008, -0.10400000000000001, 0.988, 192.0, 0.0, 0.0, 0.0, 0.0, 0.0, 0.0, 0.0, 0.0, 0.0, 1.64592270784484E9, 0.0, 2022-02-27 11:45:07.844
116.0, -553.0268613132073, -3340.289394889998, -1699.4254826814513, -9133.28041234975, 272.1771922322741, 470.16894461738406, -4833.184758804412, -1321.7927601090385, -2168.700357520623, -4220.8140159623645, -3480.5689430915054, -2684.288046871191, -2826.9145282405057, -1580.5812574125837, -8083.0613473726935, -14676.28951982135, 0.01, -0.10400000000000001, 0.99, 192.0, 0.0, 40.0, 126.0, 96.0, 15.0, 120.0, 0.0, 0.0, 0.0, 1.645922707852899E9, 0.0, 2022-02-27 11:45:07.852
118.0, -980.8392501877845, -3672.212800051308, -2001.129329339186, -9515.227021602037, -139.38547842329484, 195.42130177274964, -4997.090100895179, -1601.2566210337427, -3273.100051057345, -4843.108933342568, -3662.758012146713, -2846.382897661078, -2992.004512787403, -1778.170678397498, -8353.204530859533, -15328.98280966077, 0.01, -0.10400000000000001, 0.99, 192.0, 0.0, 0.0, 0.0, 0.0, 0.0, 0.0, 0.0, 0.0, 0.0, 1.645922707860932E9, 0.0, 2022-02-27 11:45:07.860
120.0, -706.8515666546306, -3452.6292625223714, -1782.2833993772745, -9248.905986417054, 133.14934172026418, 404.85714731897684, -4814.364589973044, -1328.7665043790942, -1489.967285390769, -4161.7607071114435, -3580.436537317817, -2685.4056340939565, -2945.468180831454, -1648.9775954458232, -8024.522128644244, -14559.769875975833, 0.01, -0.10400000000000001, 0.99, 192.0, 0.0, 0.0, 0.0, 0.0, 0.0, 0.0, 0.0, 0.0, 0.0, 1.645922707867983E9, 0.0, 2022-02-27 11:45:07.867
122.0, -708.3044300442255, -3463.7157277722035, -1833.7594668578467, -9290.74845203739, 114.06095195543195, 336.77373370811154, -4942.753010124327, -1503.1548146194, -3212.459768350097, -4600.905430424861, -3512.666048129326, -2775.6843299489415, -2833.1730166879915, -1647.2341593783092, -8259.997756480903, -15121.491565882156, 0.01, -0.10400000000000001, 0.99, 192.0, 0.0, 0.0, 0.0, 0.0, 0.0, 0.0, 0.0, 0.0, 0.0, 1.645922707875532E9, 0.0, 2022-02-27 11:45:07.875
124.0, -932.2242059974917, -3619.9320697703447, -1944.5347123783486, -9449.915224303631, -87.75294873153553, 271.5513433875255, -4927.866748317093, -1479.1713928188556, -2092.637371139213, -4545.85308383144, -3724.2923646321733, -2789.8776876780616, -3075.711795772528, -1780.8081842432243, -8192.786060903796, -14938.877813682297, 0.01, -0.10400000000000001, 0.99, 192.0, 0.0, 0.0, 0.0, 0.0, 0.0, 0.0, 0.0, 0.0, 0.0, 1.645922707883449E9, 0.0, 2022-02-27 11:45:07.883
126.0, -533.0220500257075, -3314.7637027220376, -1693.3458081896079, -9130.486444292837, 275.954637045221, 473.94638943033095, -4798.897182809971, -1327.291289245044, -2132.982269881042, -4207.7829489449205, -3468.2307801521756, -2679.124793902015, -2816.1409874130472, -1577.4967166777512, -8081.608483983098, -14678.256473333417, 0.008, -0.108, 0.996, 192.0, 0.0, 32.0, 126.0, 80.0, 15.5, 16.0, 0.0, 0.0, 0.0, 1.645922707889617E9, 0.0, 2022-02-27 11:45:07.889
128.0, -955.4029649976451, -3639.691011868836, -1996.2566490479292, -9500.564277239357, -131.78588530849044, 202.10447336488647, -5015.083255181701, -1591.1983360288546, -3285.013530852024, -4838.48212224032, -3655.24782600973, -2842.9183772705055, -2984.9860650284368, -1781.8363644881683, -8356.713754739018, -15328.535774771664, 0.008, -0.108, 0.996, 192.0, 0.0, 0.0, 0.0, 0.0, 0.0, 0.0, 0.0, 0.0, 0.0, 1.645922707897193E9, 0.0, 2022-02-27 11:45:07.897
130.0, -694.5581072042116, -3435.3290123139636, -1787.9607424689225, -9246.514349760337, 124.58862359388156, 412.38968520041533, -4806.027389291214, -1312.0697512709799, -1483.0158928651683, -4160.799582099865, -3580.6153512734595, -2677.1801921344036, -2950.7208407784515, -1653.0232611922338, -8034.558061904677, -14557.914681186043, 0.008, -0.108, 0.996, 192.0, 0.0, 0.0, 0.0, 0.0, 0.0, 0.0, 0.0, 0.0, 0.0, 1.645922707905207E9, 0.0, 2022-02-27 11:45:07.905
132.0, -671.0887755261392, -3423.862567408391, -1829.9596703004445, -9271.6377105281, 116.18436767868612, 351.6376437708907, -4942.64125140205, -1504.8088437090928, -3175.847610932304, -4564.919121851816, -3497.5786206219937, -2748.9292918359392, -2829.060295708215, -1631.0514963926669, -8263.64109082712, -15100.950312727728, 0.008, -0.108, 0.996, 192.0, 0.0, 0.0, 0.0, 0.0, 0.0, 0.0, 0.0, 0.0, 0.0, 1.645922707913113E9, 0.0, 2022-02-27 11:45:07.913
134.0, -929.5643484073101, -3615.640534834926, -1956.805820084312, -9460.867579086731, -94.45847206812765, 261.89538978283286, -4919.7977685687265, -1489.6543609683945, -2141.341822307327, -4561.834581116985, -3722.347762864562, -2784.1779928419583, -3072.202571893045, -1781.2105156434197, -8209.974552389927, -14961.453075582156, 0.008, -0.108, 0.996, 192.0, 0.0, 0.0, 0.0, 0.0, 0.0, 0.0, 0.0, 0.0, 0.0, 1.645922707919685E9, 0.0, 2022-02-27 11:45:07.919
136.0, -521.4214946534031, -3305.1748043507105, -1695.9609622908788, -9131.916955937977, 282.5931051484472, 475.73452898675555, -4827.216843034845, -1325.0784665439685, -2089.8881065712103, -4200.272762807937, -3479.2278384241868, -2680.1976776358697, -2828.0544672077262, -1589.41019647243, -8077.763983936786, -14663.169045826084, 0.01, -0.11, 0.99, 192.0, 0.0, 40.0, 126.0, 72.0, 15.0, 120.0, 0.0, 0.0, 0.0, 1.645922707927826E9, 0.0, 2022-02-27 11:45:07.927
138.0, -948.6303864276871, -3636.33825020054, -1999.7658729274124, -9506.509841264467, -121.95111774815534, 202.8644326763669, -4990.853964192148, -1615.0923508515777, -3286.980484364091, -4836.761037917261, -3654.8678463539895, -2842.873673781595, -2982.3709109271663, -1776.4719458188947, -8357.876045450694, -15325.384178803466, 0.01, -0.11, 0.99, 192.0, 0.0, 0.0, 0.0, 0.0, 0.0, 0.0, 0.0, 0.0, 0.0, 1.645922707935886E9, 0.0, 2022-02-27 11:45:07.935
140.0, -699.4978427288345, -3433.3397070574415, -1794.2192309164086, -9255.678564987013, 120.96764099212183, 408.2322607317282, -4816.711523140851, -1322.0162775535916, -1482.4347475093302, -4164.1076402792505, -3587.7455577547025, -2687.193773650381, -2949.7150122779626, -1650.5869210466053, -8026.623192623043, -14555.724210229422, 0.01, -0.11, 0.99, 192.0, 0.0, 0.0, 0.0, 0.0, 0.0, 0.0, 0.0, 0.0, 0.0, 1.645922707942787E9, 0.0, 2022-02-27 11:45:07.942
142.0, -678.0401680517398, -3431.193939589732, -1828.5291586553049, -9278.589103053702, 114.32917288889563, 347.5249227911142, -4957.4828097203745, -1509.9497449338132, -3176.4064045436867, -4571.512886466132, -3505.6923038592704, -2763.636739687531, -2830.781380031274, -1638.9640139298456, -8261.741192548418, -15099.922132482783, 0.01, -0.11, 0.99, 192.0, 0.0, 0.0, 0.0, 0.0, 0.0, 0.0, 0.0, 0.0, 0.0, 1.64592270795741E9, 0.0, 2022-02-27 11:45:07.957
144.0, -930.5701769077989, -3622.077837238054, -1958.258683473907, -9459.191198252583, -95.5984110353483, 267.0809944964641, -4913.673390587973, -1480.803070164093, -2128.6013279678023, -4560.940511338772, -3724.694696032369, -2794.929181924961, -3077.4105283511317, -1785.010312200822, -8211.896802413083, -14959.039087180983, 0.01, -0.11, 0.99, 192.0, 0.0, 0.0, 0.0, 0.0, 0.0, 0.0, 0.0, 0.0, 0.0, 1.645922707965467E9, 0.0, 2022-02-27 11:45:07.965
146.0, -525.847140055554, -3309.84631894187, -1700.0513315261999, -9133.593336772125, 277.2063347347182, 478.4837935547583, -4811.682380638406, -1322.7315333761615, -2102.4274352106377, -4198.372864529236, -3483.385262892874, -2688.780747506708, -2829.127350941581, -1586.5491731821505, -8079.507420004299, -14661.716182436488, 0.01, -0.11, 0.988, 192.0, 0.0, 40.0, 126.0, 72.0, 15.0, 112.0, 0.0, 0.0, 0.0, 1.645922707974089E9, 0.0, 2022-02-27 11:45:07.974
148.0, -948.7868486388742, -3640.249805480219, -2003.1186345957083, -9505.593419741801, -128.63428934029216, 210.59813625790315, -5009.137691156589, -1612.633658961494, -3302.22437408261, -4838.795046662694, -3656.5218754436823, -2847.746354072852, -2981.9685795269706, -1768.045338159244, -8361.89935945265, -15331.597963762042, 0.01, -0.11, 0.988, 192.0, 0.0, 0.0, 0.0, 0.0, 0.0, 0.0, 0.0, 0.0, 0.0, 1.645922707980235E9, 0.0, 2022-02-27 11:45:07.980
150.0, -702.001238107829, -3438.8158844489917, -1801.6847135644812, -9256.97496616542, 115.02207696701015, 413.75314161218904, -4826.278069767723, -1321.5692426644855, -1487.218020822766, -4171.1484397826725, -3594.406377602384, -2692.513488830744, -2958.6780618045404, -1649.5810925461165, -8037.486140428322, -14562.720306243935, 0.01, -0.11, 0.988, 192.0, 0.0, 0.0, 0.0, 0.0, 0.0, 0.0, 0.0, 0.0, 0.0, 1.64592270798802E9, 0.0, 2022-02-27 11:45:07.988
152.0, -666.3502057016142, -3420.554509229006, -1825.8245975762127, -9268.061431415252, 124.56627184942626, 358.9913676966867, -4939.288489733754, -1503.6242012529615, -3166.7057474500834, -4567.757793397641, -3505.535841648083, -2762.2509315313023, -2831.2060631759246, -1632.9737464158234, -8265.943320506016, -15099.542152827044, 0.01, -0.11, 0.988, 192.0, 0.0, 0.0, 0.0, 0.0, 0.0, 0.0, 0.0, 0.0, 0.0, 1.645922707996176E9, 0.0, 2022-02-27 11:45:07.996
154.0, -934.0794007872821, -3619.373276158962, -1963.287825976351, -9465.136762277694, -93.96673369011089, 265.91870378478814, -4912.756969065305, -1497.3880645499307, -2184.4583373616147, -4583.851049405462, -3727.958050722844, -2798.4384058044443, -3073.65543528264, -1782.7751377552913, -8216.76948270434, -14985.660014827254, 0.01, -0.11, 0.988, 192.0, 0.0, 0.0, 0.0, 0.0, 0.0, 0.0, 0.0, 0.0, 0.0, 1.645922708002734E9, 0.0, 2022-02-27 11:45:08.002
156.0, -520.8179975531099, -3302.4031880382527, -1698.3525989475966, -9130.911127437488, 281.5649249035031, 482.77532849017723, -4802.272296222723, -1319.7587513636056, -2039.5966815467696, -4182.480774221513, -3478.803155279536, -2682.946942203873, -2825.1710921729914, -1574.4121759429188, -8074.008890868294, -14649.378019497159, 0.012, -0.10400000000000001, 0.986, 192.0, 0.0, 48.0, 126.0, 96.0, 15.0, 104.0, 0.0, 0.0, 0.0, 1.645922708009744E9, 0.0, 2022-02-27 11:45:08.009
158.0, -936.8733688441955, -3634.9300902998557, -1997.7989194153452, -9501.748919695488, -116.63140256779225, 210.86635719136683, -5007.595420789173, -1603.827071646103, -3314.4954817885737, -4838.884453640515, -3648.564654417593, -2848.2157407064133, -2971.9773497554484, -1762.3903468120513, -8361.832304219282, -15330.055693394626, 0.012, -0.10400000000000001, 0.986, 192.0, 0.0, 0.0, 0.0, 0.0, 0.0, 0.0, 0.0, 0.0, 0.0, 1.6459227080178E9, 0.0, 2022-02-27 11:45:08.017
160.0, -711.9924678793511, -3450.4611433102064, -1805.171585699509, -9274.297568118283, 113.14453043276436, 398.64336236040145, -4842.170160075446, -1338.6683271727952, -1486.413358022375, -4189.745091169488, -3603.481185851239, -2704.2034511808697, -2967.372890397655, -1657.627720550027, -8045.935099832428, -14573.940881960498, 0.012, -0.10400000000000001, 0.986, 192.0, 0.0, 0.0, 0.0, 0.0, 0.0, 0.0, 0.0, 0.0, 0.0, 1.645922708025072E9, 0.0, 2022-02-27 11:45:08.025
162.0, -667.5571999022008, -3422.2308900631538, -1822.717705096925, -9278.231475142416, 132.72465857561335, 360.7348037642007, -4936.762742610305, -1509.3015443446095, -3130.4735696880307, -4558.414764215322, -3505.4240829258065, -2771.4374985024333, -2824.1429119280474, -1629.5092260252509, -8258.522541346854, -15082.152495640816, 0.012, -0.10400000000000001, 0.986, 192.0, 0.0, 0.0, 0.0, 0.0, 0.0, 0.0, 0.0, 0.0, 0.0, 1.645922708032404E9, 0.0, 2022-02-27 11:45:08.032
164.0, -936.0240025548939, -3623.6871628388362, -1966.551180666826, -9471.574064680823, -94.68198951268072, 252.32884315596144, -4918.9707540238805, -1505.0323611536458, -2181.3067413934164, -4586.801479673562, -3735.5129403487376, -2810.798920488229, -3079.6457027966626, -1788.8995157360455, -8216.009523392859, -14982.530770603511, 0.012, -0.10400000000000001, 0.986, 192.0, 0.0, 0.0, 0.0, 0.0, 0.0, 0.0, 0.0, 0.0, 0.0, 1.645922708040436E9, 0.0, 2022-02-27 11:45:08.040
166.0, -529.781047079688, -3313.713170732638, -1704.7451978618144, -9138.957755441399, 273.16066898830763, 469.3866335614483, -4813.515223683742, -1329.6382224128513, -2060.1379347011966, -4200.317466296848, -3487.7215013172035, -2691.194735907881, -2834.6258800775863, -1584.9845510702792, -8079.820344426674, -14656.441170745036, 0.014, -0.10200000000000001, 0.982, 192.0, 0.0, 56.0, 126.0, 104.0, 15.0, 88.0, 0.0, 0.0, 0.0, 1.645922708048457E9, 0.0, 2022-02-27 11:45:08.048
168.0, -944.182389281081, -3632.7172675987804, -2005.5326229968814, -9506.800413942387, -126.75674280604635, 208.4970722791043, -5006.9025167110585, -1619.5403479981837, -3327.6383075282943, -4843.153636831479, -3657.214779521797, -2850.2721011963013, -2978.660521347585, -1767.5088962923166, -8365.520342054408, -15338.504652798732, 0.014, -0.10200000000000001, 0.982, 192.0, 0.0, 0.0, 0.0, 0.0, 0.0, 0.0, 0.0, 0.0, 0.0, 1.64592270805507E9, 0.0, 2022-02-27 11:45:08.055
170.0, -706.6504009545328, -3436.826579192469, -1810.1113212241319, -9267.569693037236, 119.6488880692587, 406.4441211753036, -4818.432607463909, -1333.9297573482702, -1484.0664248545677, -4179.552695697867, -3604.3976073739063, -2693.1840411644034, -2962.63432057313, -1654.274958881731, -8045.666878898965, -14570.677527270023, 0.014, -0.10200000000000001, 0.982, 192.0, 0.0, 0.0, 0.0, 0.0, 0.0, 0.0, 0.0, 0.0, 0.0, 1.645922708062968E9, 0.0, 2022-02-27 11:45:08.062
172.0, -648.5135136262791, -3408.0151805895784, -1819.946088784467, -9265.870960458633, 150.49429541758246, 366.38979511139337, -4927.576175639174, -1501.6348959964391, -3131.389991210698, -4554.324394980001, -3503.9712195362117, -2762.385041998034, -2818.5996793031313, -1635.3877348169965, -8254.901558745094, -15082.17484738527, 0.014, -0.10200000000000001, 0.982, 192.0, 0.0, 0.0, 0.0, 0.0, 0.0, 0.0, 0.0, 0.0, 0.0, 1.645922708071109E9, 0.0, 2022-02-27 11:45:08.071
174.0, -923.2835082153688, -3609.3596946429843, -1971.1779917690747, -9474.703308904565, -93.65380926773659, 257.5591513585033, -4916.646172600529, -1504.3618088199864, -2218.924727311698, -4596.703302467264, -3729.299155390162, -2807.22264137538, -3069.6321212806847, -1783.2892278777633, -8221.418645551044, -15001.775622579531, 0.013000000000000001, -0.10200000000000001, 0.983, 192.0, 0.0, 48.0, 126.0, 104.0, 15.0, 96.0, 0.0, 0.0, 0.0, 1.645922708084683E9, 0.0, 2022-02-27 11:45:08.084
176.0, -526.7635615782216, -3305.711246217638, -1712.0989217876104, -9139.628307775058, 273.51829689959254, 478.32733134357113, -4804.641581134985, -1314.4390361832425, -2007.1643003421188, -4175.216457273538, -3487.83326003948, -2681.739948003286, -2832.2565951653237, -1577.697882377849, -8071.259626300291, -14640.437321715037, 0.013000000000000001, -0.10200000000000001, 0.983, 192.0, 0.0, 0.0, 0.0, 0.0, 0.0, 0.0, 0.0, 0.0, 0.0, 1.645922708092668E9, 0.0, 2022-02-27 11:45:08.092
178.0, -945.4564387150334, -3628.8727675524674, -2011.3664282997167, -9502.374768540236, -112.31751588791799, 213.6379735038249, -4990.786908958782, -1612.3654380280302, -3346.0114414705567, -4847.735744444817, -3663.8979511139337, -2855.502409398843, -2978.884038792138, -1765.653701502526, -8363.061650164325, -15329.385141060966, 0.013000000000000001, -0.10200000000000001, 0.983, 192.0, 0.0, 0.0, 0.0, 0.0, 0.0, 0.0, 0.0, 0.0, 0.0, 1.645922708100797E9, 0.0, 2022-02-27 11:45:08.100
180.0, -714.8758429140858, -3442.2133496061983, -1822.5388911412826, -9274.677547774023, 111.57990832089286, 402.9125455513651, -4804.462767179342, -1325.5255014330749, -1491.1072243579895, -4189.856849891764, -3616.8475290355123, -2703.130567447015, -2970.9491695105044, -1655.437249593407, -8043.632870153531, -14568.911739458053, 0.013000000000000001, -0.10200000000000001, 0.983, 192.0, 0.0, 0.0, 0.0, 0.0, 0.0, 0.0, 0.0, 0.0, 0.0, 1.645922708107862E9, 0.0, 2022-02-27 11:45:08.107
182.0, -646.1442287140165, -3401.935506097735, -1826.1151702541317, -9265.021594169331, 155.41167919775, 367.2168096562397, -4920.155396480012, -1488.4473667678078, -3115.095569502779, -4544.400220441845, -3509.2238794832087, -2767.570646711665, -2826.601603818131, -1626.469388779329, -8249.760657520374, -15065.813370443986, 0.013000000000000001, -0.10200000000000001, 0.983, 192.0, 0.0, 0.0, 0.0, 0.0, 0.0, 0.0, 0.0, 0.0, 0.0, 1.645922708115339E9, 0.0, 2022-02-27 11:45:08.115
184.0, -937.4768659444888, -3619.3285726700515, -1983.7396721529572, -9481.54294270789, -104.71792277311359, 253.26761642308432, -4936.248652487833, -1502.1042826300006, -2242.3270037564043, -4605.085206638004, -3740.5420828511815, -2817.9514787139274, -3087.915848245126, -1794.0627687052213, -8232.81803522325, -15006.268323215047, 0.0125, -0.10200000000000001, 0.9844999999999999, 192.0, 0.0, 48.0, 126.0, 104.0, 15.0, 104.0, 0.0, 0.0, 0.0, 1.645922708123423E9, 0.0, 2022-02-27 11:45:08.123
186.0, -525.5789191220903, -3304.638362483783, -1711.4954246873172, -9146.222072389373, 276.7592998456121, 466.5032585267137, -4802.495813667276, -1343.8762836308817, -2009.6900474655686, -4182.458422477058, -3494.6505420983485, -2699.777805778719, -2841.1749412029912, -1593.7240831523043, -8077.540466492233, -14642.76190313839, 0.0125, -0.10200000000000001, 0.9844999999999999, 192.0, 0.0, 0.0, 0.0, 0.0, 0.0, 0.0, 0.0, 0.0, 0.0, 1.645922708130551E9, 0.0, 2022-02-27 11:45:08.130
188.0, -939.7120403900195, -3627.1516832294087, -2010.8970416661552, -9511.695445978099, -116.31847814541796, 203.8479094324004, -5004.443824820974, -1620.5238247542175, -3345.1397234367996, -4835.91167162796, -3652.72207888628, -2867.058261282237, -2974.63720734563, -1774.2591231178194, -8366.615577532719, -15340.873937710994, 0.0125, -0.10200000000000001, 0.9844999999999999, 192.0, 0.0, 0.0, 0.0, 0.0, 0.0, 0.0, 0.0, 0.0, 0.0, 1.645922708137057E9, 0.0, 2022-02-27 11:45:08.137
190.0, -714.5629184917115, -3439.6876024827484, -1822.0695045077211, -9277.873847231132, 111.78107402099062, 396.5646501260579, -4807.882584081004, -1350.6488622008399, -1488.2462010677102, -4190.460346992058, -3613.4277121338505, -2708.0479512271827, -2973.765489311873, -1664.5120578422616, -8048.349088233601, -14575.93018721702, 0.0125, -0.10200000000000001, 0.9844999999999999, 192.0, 0.0, 0.0, 0.0, 0.0, 0.0, 0.0, 0.0, 0.0, 0.0, 1.64592270814502E9, 0.0, 2022-02-27 11:45:08.145
192.0, -642.7020600678993, -3395.252334505598, -1825.3775626871065, -9259.679527244512, 159.30088273297343, 367.37327186742687, -4921.362390680599, -1506.0158379096792, -3102.9585722635475, -4536.107723248926, -3505.8487660704573, -2759.3228530076567, -2821.863033993606, -1628.2575283357537, -8251.772314521351, -15068.964966412184, 0.0125, -0.10200000000000001, 0.9844999999999999, 192.0, 0.0, 0.0, 0.0, 0.0, 0.0, 0.0, 0.0, 0.0, 0.0, 1.645922708153113E9, 0.0, 2022-02-27 11:45:08.153
194.0, -934.7052496320307, -3615.4617208792833, -1983.2032302860298, -9477.229056028016, -95.03961742396564, 256.665081580291, -4913.136948721046, -1489.609657479484, -2232.224015262606, -4602.648866492375, -3740.9667659958322, -2813.883461223061, -3077.4105283511317, -1790.4194343590063, -8228.079465398725, -15001.328587690425, 0.01225, -0.10400000000000001, 0.98725, 192.0, 0.0, 48.0, 126.0, 88.0, 15.0, 120.0, 0.0, 0.0, 0.0, 1.645922708160191E9, 0.0, 2022-02-27 11:45:08.160
196.0, -525.3106981886266, -3305.778301451004, -1716.591622423127, -9144.366877599583, 271.9089712988104, 470.3254068285712, -4795.343255441578, -1311.0862745149464, -2013.6239544897026, -4185.230038789516, -3495.4999083876505, -2699.7107505453528, -2835.5199498557986, -1591.086577306578, -8071.4384402559335, -14635.676400146056, 0.01225, -0.10400000000000001, 0.98725, 192.0, 0.0, 0.0, 0.0, 0.0, 0.0, 0.0, 0.0, 0.0, 0.0, 1.64592270816761E9, 0.0, 2022-02-27 11:45:08.167
198.0, -922.9258803040839, -3611.8630900219787, -2004.0127043739205, -9504.162908096661, -114.59739382235931, 196.27066806205133, -5020.827653506715, -1631.9455661708791, -3356.4050026422747, -4846.551101988685, -3652.9679480752884, -2864.8454385811615, -2973.765489311873, -1780.7634807543136, -8365.587397287774, -15342.684429011873, 0.01225, -0.10400000000000001, 0.98725, 192.0, 0.0, 0.0, 0.0, 0.0, 0.0, 0.0, 0.0, 0.0, 0.0, 1.645922708175564E9, 0.0, 2022-02-27 11:45:08.175
200.0, -709.4443690114462, -3436.223082092176, -1821.3989521740618, -9279.25965538736, 108.60712630833702, 385.8134610430552, -4806.943810813882, -1354.515713991608, -1477.1597358178778, -4188.44868999108, -3608.8679562649677, -2705.2092796813586, -2972.022053244359, -1672.6480928239935, -8050.673669656953, -14586.591969322202, 0.01225, -0.10400000000000001, 0.98725, 192.0, 0.0, 0.0, 0.0, 0.0, 0.0, 0.0, 0.0, 0.0, 0.0, 1.645922708183734E9, 0.0, 2022-02-27 11:45:08.183
202.0, -632.2414436628155, -3387.585686157428, -1815.0287050042994, -9255.678564987013, 152.95298730766623, 362.7017572762677, -4922.815254070193, -1494.996427893213, -3077.4105283511317, -4530.363324923912, -3499.1432427338655, -2760.6639576749753, -2824.545243328243, -1632.1914353598877, -8247.838407497216, -15058.481998262645, 0.01225, -0.10400000000000001, 0.98725, 192.0, 0.0, 0.0, 0.0, 0.0, 0.0, 0.0, 0.0, 0.0, 0.0, 1.645922708190161E9, 0.0, 2022-02-27 11:45:08.190
204.0, -937.4992176889441, -3612.623049333459, -1980.2751517623844, -9477.83255312831, -106.0143239515214, 251.92651175576592, -4913.069893487679, -1493.543564503618, -2248.3619747593375, -4608.505023539666, -3738.2845566611954, -2817.213871146902, -3082.6408365536736, -1795.8062047727353, -8231.096950900192, -15012.482108173623, 0.013125000000000001, -0.10500000000000001, 0.988625, 192.0, 0.0, 56.0, 126.0, 88.0, 15.0, 120.0, 0.0, 0.0, 0.0, 1.645922708205212E9, 0.0, 2022-02-27 11:45:08.205
206.0, -524.0813522435847, -3298.8269089254036, -1714.0658752996774, -9138.018982174275, 275.0158637780981, 469.83366845055446, -4808.1508050144685, -1328.7665043790942, -2003.3421520402615, -4184.112451566751, -3497.64567585536, -2695.5309743322105, -2845.667641838508, -1590.8630598620248, -8074.724146690864, -14635.98932456843, 0.013125000000000001, -0.10500000000000001, 0.988625, 192.0, 0.0, 0.0, 0.0, 0.0, 0.0, 0.0, 0.0, 0.0, 0.0, 1.645922708213337E9, 0.0, 2022-02-27 11:45:08.213
208.0, -930.1231420186928, -3614.3217819120628, -2007.5889834867698, -9498.35145453828, -110.93170773168895, 202.77502569854568, -5015.463234837441, -1618.6686299644268, -3360.227150944132, -4840.67259319694, -3651.380974218962, -2854.630691365086, -2976.5818091132414, -1765.5419427802497, -8371.600016546252, -15344.405513334932, 0.013125000000000001, -0.10500000000000001, 0.988625, 192.0, 0.0, 0.0, 0.0, 0.0, 0.0, 0.0, 0.0, 0.0, 0.0, 1.645922708219916E9, 0.0, 2022-02-27 11:45:08.219
210.0, -719.9720406498958, -3440.9393001722456, -1823.2764987083078, -9281.941864721997, 104.13677741727561, 385.94757150978705, -4812.531746927709, -1343.965690608703, -1483.6193899654616, -4195.02010286094, -3618.3003924251075, -2706.8856605155065, -2987.1988877295125, -1671.8657817680578, -8049.757248134286, -14581.808696008766, 0.013125000000000001, -0.10500000000000001, 0.988625, 192.0, 0.0, 0.0, 0.0, 0.0, 0.0, 0.0, 0.0, 0.0, 0.0, 1.645922708228014E9, 0.0, 2022-02-27 11:45:08.228
212.0, -624.775961014743, -3380.5672383984615, -1808.3902369010732, -9256.170303365028, 166.27462700302925, 361.20419039776215, -4910.030056241758, -1495.8681459269699, -3070.459135825531, -4527.301135933535, -3500.21612646772, -2759.814591385674, -2827.808598018718, -1630.2244818478207, -8240.976421949437, -15058.370239540369, 0.013125000000000001, -0.10500000000000001, 0.988625, 192.0, 0.0, 0.0, 0.0, 0.0, 0.0, 0.0, 0.0, 0.0, 0.0, 1.645922708235889E9, 0.0, 2022-02-27 11:45:08.235
214.0, -929.0726100292934, -3609.449101620806, -1976.7212243939907, -9485.186277054105, -98.79471049245721, 253.35702340090555, -4914.053370243713, -1487.4638900117743, -2271.11605061484, -4619.144453900391, -3734.2165391703297, -2816.811539746707, -3078.237542895978, -1791.045283203755, -8230.918136944549, -15024.887326346317, 0.013562500000000002, -0.10450000000000001, 0.9883124999999999, 192.0, 0.0, 56.0, 126.0, 96.0, 15.0, 112.0, 0.0, 0.0, 0.0, 1.645922708242916E9, 0.0, 2022-02-27 11:45:08.242
216.0, -514.5818608500792, -3290.132080332289, -1703.7393693613255, -9138.644831019024, 288.4269104512823, 478.39438657693705, -4780.23347618979, -1304.872489556371, -1959.868009074689, -4173.3836142282025, -3493.734120575681, -2690.323017874124, -2834.670583566497, -1581.3635684685194, -8062.363632007079, -14624.478176173947, 0.013562500000000002, -0.10450000000000001, 0.9883124999999999, 192.0, 0.0, 0.0, 0.0, 0.0, 0.0, 0.0, 0.0, 0.0, 0.0, 1.645922708250415E9, 0.0, 2022-02-27 11:45:08.250
218.0, -906.4973481294332, -3595.5463165696046, -1997.6201054597027, -9492.361187024258, -99.42055933720582, 205.34547631090598, -4998.341798584676, -1622.1331503549995, -3366.418584158252, -4830.077866325124, -3641.501503169716, -2846.3605459166224, -2961.382622883633, -1754.3213670636853, -8364.112182153724, -15337.901155698439, 0.013562500000000002, -0.10450000000000001, 0.9883124999999999, 192.0, 0.0, 0.0, 0.0, 0.0, 0.0, 0.0, 0.0, 0.0, 0.0, 1.645922708257564E9, 0.0, 2022-02-27 11:45:08.257
220.0, -710.5172527453009, -3433.4738175241732, -1826.428094676506, -9281.36071936616, 105.23201289558565, 385.0758534760301, -4811.704732382862, -1340.4341149847646, -1483.954666132291, -4192.248486548482, -3615.1040929679984, -2700.24719241228, -2982.1697452270682, -1666.3001973986861, -8056.30630925969, -14590.83880076871, 0.013562500000000002, -0.10450000000000001, 0.9883124999999999, 192.0, 0.0, 0.0, 0.0, 0.0, 0.0, 0.0, 0.0, 0.0, 0.0, 1.645922708265539E9, 0.0, 2022-02-27 11:45:08.265
222.0, -609.3085538516706, -3361.52355212254, -1800.3883123860733, -9240.25586131285, 177.78577539751237, 371.12836493591846, -4909.650076586017, -1487.1733173338555, -3041.155998844624, -4502.825975754974, -3490.6495798408487, -2747.16350402397, -2823.695877038941, -1616.5899177300832, -8245.312660373767, -15041.584079454433, 0.013562500000000002, -0.10450000000000001, 0.9883124999999999, 192.0, 0.0, 0.0, 0.0, 0.0, 0.0, 0.0, 0.0, 0.0, 0.0, 1.645922708272124E9, 0.0, 2022-02-27 11:45:08.272
224.0, -929.8996245741397, -3606.85629926399, -1980.096337806742, -9488.539038722402, -101.81219599392367, 237.9790232156543, -4916.065027244691, -1507.245183854721, -2328.9400135207193, -4635.684744797319, -3731.4225711134163, -2817.2362228913576, -3078.908095229637, -1791.492318092861, -8240.81995973825, -15051.575309225955, 0.013781250000000002, -0.10625000000000001, 0.98815625, 192.0, 0.0, 56.0, 126.0, 80.0, 15.0, 112.0, 0.0, 0.0, 0.0, 1.645922708280633E9, 0.0, 2022-02-27 11:45:08.280
226.0, -513.3972183939479, -3288.656865198239, -1703.3146862166748, -9143.830435732656, 286.728177872679, 470.0571858951075, -4788.771842571717, -1318.6188123963848, -1925.9157092470778, -4167.147477525172, -3490.873097285402, -2689.741872518286, -2844.5500546157427, -1583.0175975582122, -8058.273262771758, -14618.577315637747, 0.013781250000000002, -0.10625000000000001, 0.98815625, 192.0, 0.0, 0.0, 0.0, 0.0, 0.0, 0.0, 0.0, 0.0, 0.0, 1.645922708288155E9, 0.0, 2022-02-27 11:45:08.288
228.0, -903.6139730946986, -3592.6852932793254, -1988.5676489553034, -9497.278570804427, -99.84524248185664, 213.74973222610143, -5002.9686096869245, -1621.3061358101531, -3363.0881742344113, -4832.8047791486715, -3634.7065728553025, -2856.865865810617, -2959.058041460281, -1750.4545152729172, -8357.540769283863, -15338.571708032097, 0.013781250000000002, -0.10625000000000001, 0.98815625, 192.0, 0.0, 0.0, 0.0, 0.0, 0.0, 0.0, 0.0, 0.0, 0.0, 1.645922708295459E9, 0.0, 2022-02-27 11:45:08.295
230.0, -714.0935318581501, -3434.9713844026787, -1823.008277774844, -9289.69792004799, 103.64503903925885, 390.41792040084846, -4815.19160451789, -1343.8539318864266, -1474.7457474167047, -4196.808242417364, -3616.579308102049, -2710.3948843949897, -2976.5371056243307, -1661.4945723407952, -8042.604689908588, -14590.972911235442, 0.013781250000000002, -0.10625000000000001, 0.98815625, 192.0, 0.0, 0.0, 0.0, 0.0, 0.0, 0.0, 0.0, 0.0, 0.0, 1.645922708303817E9, 0.0, 2022-02-27 11:45:08.303
232.0, -608.3697805845476, -3362.6858428342157, -1798.331951896185, -9239.048867112264, 180.9820748546213, 381.2984086630832, -4903.548050349718, -1467.1685060463556, -3027.5884899602524, -4504.681170544764, -3495.052873498544, -2752.97495758235, -2814.5540135567207, -1610.957278127346, -8229.91230844406, -15030.654076415787, 0.013781250000000002, -0.10625000000000001, 0.98815625, 192.0, 0.0, 0.0, 0.0, 0.0, 0.0, 0.0, 0.0, 0.0, 0.0, 1.645922708310108E9, 0.0, 2022-02-27 11:45:08.310
234.0, -925.9433658055503, -3598.3849881154288, -1976.6094656717141, -9481.967625852541, -106.14843441825325, 246.67385180876875, -4910.365332408587, -1497.2316023387436, -2303.637838797312, -4620.686724267808, -3729.232100156796, -2806.328571597168, -3073.364862604721, -1781.1658121545092, -8239.478855070933, -15036.219660785158, 0.010890625000000001, -0.10412500000000001, 0.987078125, 192.0, 0.0, 32.0, 126.0, 104.0, 15.0, 104.0, 0.0, 0.0, 0.0, 1.645922708318048E9, 0.0, 2022-02-27 11:45:08.318
236.0, -510.40208463693676, -3280.520830216507, -1705.7733781067584, -9139.605956030602, 274.4347184222601, 474.5051830417136, -4803.523993912219, -1309.8122250809938, -1936.7563053079016, -4161.134858266694, -3489.800213551547, -2682.030520681205, -2841.7560865588293, -1574.9933212987569, -8066.141076820026, -14616.856231314689, 0.010890625000000001, -0.10412500000000001, 0.987078125, 192.0, 0.0, 0.0, 0.0, 0.0, 0.0, 0.0, 0.0, 0.0, 0.0, 1.645922708333156E9, 0.0, 2022-02-27 11:45:08.333
238.0, -897.0872637137489, -3589.2654763776636, -1992.7250734239906, -9492.517649235446, -94.0337889234768, 205.88191817783334, -4999.32527534071, -1635.9241766839239, -3380.2990174649976, -4829.452017480376, -3633.3654681879843, -2841.867845281106, -2953.8053815132835, -1747.4593815159062, -8365.497990309954, -15340.784530733174, 0.010890625000000001, -0.10412500000000001, 0.987078125, 192.0, 0.0, 0.0, 0.0, 0.0, 0.0, 0.0, 0.0, 0.0, 0.0, 1.645922708339719E9, 0.0, 2022-02-27 11:45:08.339
240.0, -719.3461918051472, -3446.124904885877, -1827.657440621548, -9299.376225397138, 94.79374823495725, 375.4869551047033, -4808.307267225655, -1353.0404988575576, -1491.0178173801683, -4217.371847316247, -3625.117674483976, -2713.3006111741797, -2984.8072510727943, -1672.75985154627, -8053.7135069028745, -14603.355777663683, 0.010890625000000001, -0.10412500000000001, 0.987078125, 192.0, 0.0, 0.0, 0.0, 0.0, 0.0, 0.0, 0.0, 0.0, 0.0, 1.645922708347714E9, 0.0, 2022-02-27 11:45:08.347
242.0, -606.6933997503996, -3365.6362731023164, -1794.2192309164086, -9243.720381703422, 185.0947958343978, 378.75030979517817, -4898.16127993599, -1475.2151340502662, -3007.538975183842, -4509.1962229247365, -3489.6884548292705, -2757.3558994955897, -2814.822234490184, -1620.1214933540218, -8227.431264809522, -15029.201213026192, 0.010890625000000001, -0.10412500000000001, 0.987078125, 192.0, 0.0, 0.0, 0.0, 0.0, 0.0, 0.0, 0.0, 0.0, 0.0, 1.64592270835577E9, 0.0, 2022-02-27 11:45:08.355
244.0, -935.5099124324219, -3609.9184882543673, -1977.3470732387393, -9488.986073611508, -98.88411747027844, 246.00329947510954, -4911.661733586995, -1510.8214629675704, -2336.27138570206, -4643.530207101132, -3737.010507227243, -2821.5501095712316, -3080.271551641411, -1797.1026059511432, -8237.4448463255, -15048.580175468944, 0.0134453125, -0.1050625, 0.9855390625, 192.0, 0.0, 64.0, 126.0, 88.0, 15.0, 96.0, 0.0, 0.0, 0.0, 1.645922708362822E9, 0.0, 2022-02-27 11:45:08.362
246.0, -523.9025382879422, -3295.429443768197, -1702.1523955049988, -9144.590395044135, 279.2403434801511, 468.0678806385852, -4785.620246603518, -1319.1999577522229, -1928.62027032617, -4164.487619934991, -3497.511565388628, -2685.1374131604925, -2843.9689092599046, -1585.6551034039383, -8052.528864446744, -14617.146803992608, 0.0134453125, -0.1050625, 0.9855390625, 192.0, 0.0, 0.0, 0.0, 0.0, 0.0, 0.0, 0.0, 0.0, 0.0, 1.645922708370425E9, 0.0, 2022-02-27 11:45:08.370
