%OpenBCI Raw EEG Data
%Number of channels = 16
%Sample Rate = 125 Hz
%Board = OpenBCI_GUI$BoardCytonSerialDaisy
Sample Index, EXG Channel 0, EXG Channel 1, EXG Channel 2, EXG Channel 3, EXG Channel 4, EXG Channel 5, EXG Channel 6, EXG Channel 7, EXG Channel 8, EXG Channel 9, EXG Channel 10, EXG Channel 11, EXG Channel 12, EXG Channel 13, EXG Channel 14, EXG Channel 15, Accel Channel 0, Accel Channel 1, Accel Channel 2, Other, Other, Other, Other, Other, Other, Other, Analog Channel 0, Analog Channel 1, Analog Channel 2, Timestamp, Other, Timestamp (Formatted)
0.0, -593.2376495883047, -3014.1997950315235, -2355.672699889267, -9449.714058603533, -67.94930314413347, 326.983669636687, -4778.3335779110885, -1744.754820436814, 0.0, 0.0, 0.0, 0.0, 0.0, 0.0, 0.0, 0.0, 0.0, 0.0, 0.0, 192.0, 0.0, 0.0, 0.0, 0.0, 0.0, 0.0, 0.0, 0.0, 0.0, 1.645922931504796E9, 0.0, 2022-02-27 11:48:51.504
172.0, -529.4681226573138, -2922.4011805535774, -2253.9499108731643, -9364.956243629009, 20.898881065712104, 452.7792874311552, -4637.227015164735, -1612.9912868727788, -2713.4347216409114, -4432.261518509569, -3743.626623586014, -2746.3364894791234, -3217.645373063728, -2013.7133614675238, -8196.362340016645, -15086.354623598412, 0.0, 0.0, 0.0, 192.0, 0.0, 0.0, 0.0, 0.0, 0.0, 0.0, 0.0, 0.0, 0.0, 1.645922931504799E9, 0.0, 2022-02-27 11:48:51.504
0.0, -105.16495766221973, -1341.7528679076277, -1034.3269746693343, -4567.243703275169, 142.76059183604622, 308.3870182498715, -2302.9672864636527, -687.9419908454407, -1348.547798222041, -2186.9393809961534, -1846.3211472417292, -1356.1473913368454, -1582.637617902472, -982.6497414886644, -4079.908618916109, -7541.21035828714, 0.006, -0.057, 0.494, 192.0, 0.0, 48.0, 126.0, 56.0, 15.0, 112.0, 0.0, 0.0, 0.0, 1.645922931620594E9, 0.0, 2022-02-27 11:48:51.620
2.0, -411.71913286675607, -2858.698708855952, -2274.692329727689, -9347.253662020405, 56.88518963875647, 418.7822841146331, -4861.862046940571, -1732.528416219761, -3550.0381648585994, -4484.184620879248, -3525.7865221245916, -2661.0869361265823, -2962.6790240620408, -1875.9819121339217, -8159.437258176477, -15275.74095436823, 0.006, -0.057, 0.494, 192.0, 0.0, 0.0, 0.0, 0.0, 0.0, 0.0, 0.0, 0.0, 0.0, 1.645922931627484E9, 0.0, 2022-02-27 11:48:51.627
4.0, -730.4326570549795, -3089.1004907012575, -2435.535482828079, -9585.187981747149, -208.13944436781938, 350.56476003703597, -4835.464636738853, -1655.8395809936026, -1969.970997568488, -4388.385044143802, -3856.7711540187784, -2708.606744838565, -3322.899737703769, -2125.3603250217825, -8087.911675919495, -14964.984651206096, 0.006, -0.057, 0.494, 192.0, 0.0, 0.0, 0.0, 0.0, 0.0, 0.0, 0.0, 0.0, 0.0, 1.645922931635504E9, 0.0, 2022-02-27 11:48:51.635
6.0, -152.90828381875562, -2644.2113690628257, -2052.5606933308477, -9102.18913581242, 319.0711520995083, 629.3804203725363, -4641.496198355699, -1450.7623256161603, -2123.147502320707, -3938.5338352362915, -3481.1053849584328, -2548.3000336051027, -2942.562454052264, -1793.8392512606683, -7923.358133239524, -14632.413045455582, 0.006, -0.057, 0.494, 192.0, 0.0, 0.0, 0.0, 0.0, 0.0, 0.0, 0.0, 0.0, 0.0, 1.645922931642734E9, 0.0, 2022-02-27 11:48:51.642
8.0, -796.7279311094203, -3153.115886821257, -2531.0891903745164, -9671.465715344633, -288.76218661811197, 242.4493721067157, -4962.333138267176, -1856.133563057609, -3613.561822600582, -4809.2683922372335, -3760.435135416405, -2769.872876390562, -3193.751358241005, -2090.0669205268528, -8281.96952128047, -15542.464320953408, 0.012, -0.10400000000000001, 0.992, 192.0, 0.0, 48.0, 126.0, 96.0, 15.5, 0.0, 0.0, 0.0, 0.0, 1.645922931649221E9, 0.0, 2022-02-27 11:48:51.649
10.0, -400.8561850614769, -2833.8882725105614, -2197.9811427570753, -9290.212010170462, 120.23003342509669, 526.7635615782216, -4659.087021242025, -1443.0733255235345, -1219.9805641151147, -3862.5602558327028, -3664.3896894919503, -2567.880161747952, -3145.2480727729885, -1935.9069390186, -7868.305786646103, -14447.273546132274, 0.012, -0.10400000000000001, 0.992, 192.0, 0.0, 0.0, 0.0, 0.0, 0.0, 0.0, 0.0, 0.0, 0.0, 1.645922931657098E9, 0.0, 2022-02-27 11:48:51.657
12.0, -386.4393098878038, -2838.671545823997, -2257.63794870829, -9327.539423410824, 78.61108524931494, 425.15253128439565, -4859.850389939594, -1732.371954008574, -3517.538728420583, -4472.517010273577, -3518.186929009787, -2647.0053371197387, -2958.096916448703, -1874.6631592110587, -8145.333307425179, -15253.277451190646, 0.012, -0.10400000000000001, 0.992, 192.0, 0.0, 0.0, 0.0, 0.0, 0.0, 0.0, 0.0, 0.0, 0.0, 1.645922931665183E9, 0.0, 2022-02-27 11:48:51.665
14.0, -736.9146629470185, -3090.955685491048, -2442.4868753536794, -9598.599028420333, -221.9081189522885, 333.1080476174412, -4833.72120067134, -1659.438211850907, -2045.8328182498, -4410.44621592119, -3853.5748545616693, -2709.769035550241, -3317.356505078853, -2134.189264081629, -8093.074928888671, -14998.422860911234, 0.012, -0.10400000000000001, 0.992, 192.0, 0.0, 0.0, 0.0, 0.0, 0.0, 0.0, 0.0, 0.0, 0.0, 1.645922931671761E9, 0.0, 2022-02-27 11:48:51.671
16.0, -146.20276048216348, -2642.289119039669, -2049.4985043404704, -9099.752795666791, 325.3743440359049, 616.3717050995475, -4639.305727399079, -1453.1092587839676, -2049.163228173641, -3920.384218738582, -3478.9372657462677, -2541.683917246332, -2941.7801429963283, -1805.2833444217856, -7903.75565335222, -14612.609399868179, 0.01, -0.10400000000000001, 0.993, 192.0, 0.0, 32.0, 126.0, 96.0, 15.5, 8.0, 0.0, 0.0, 0.0, 1.645922931679776E9, 0.0, 2022-02-27 11:48:51.679
18.0, -799.3207334662359, -3152.467686232053, -2531.938556663818, -9677.120706691827, -287.3540267174276, 235.54268307002582, -4981.846211176659, -1858.9275311145225, -3600.1731276718533, -4816.555060929663, -3755.853027803067, -2768.576475212154, -3191.851459962304, -2089.0387402819088, -8281.790707324828, -15539.960925574414, 0.01, -0.10400000000000001, 0.993, 192.0, 0.0, 0.0, 0.0, 0.0, 0.0, 0.0, 0.0, 0.0, 0.0, 1.645922931687757E9, 0.0, 2022-02-27 11:48:51.687
20.0, -390.4626238897591, -2820.2313566483685, -2185.1735931841845, -9290.54728633729, 115.1785391781973, 542.2086169968387, -4680.343530219023, -1441.5087034116632, -1201.1603952837463, -3854.200703406418, -3656.3877649769506, -2566.65081580291, -3140.2859855039105, -1924.4181423685723, -7871.122106447471, -14441.23857512934, 0.01, -0.10400000000000001, 0.993, 192.0, 0.0, 0.0, 0.0, 0.0, 0.0, 0.0, 0.0, 0.0, 0.0, 1.64592293169491E9, 0.0, 2022-02-27 11:48:51.694
22.0, -383.9582662532647, -2834.2682521663014, -2249.054878837452, -9335.206071758994, 79.23693409406354, 434.36144999998214, -4857.503456771786, -1715.8987183450126, -3504.7758823366025, -4468.091364871427, -3509.3579899499405, -2652.1238866000044, -2948.642128544108, -1871.6680254540474, -8144.662755091519, -15252.40573315689, 0.01, -0.10400000000000001, 0.993, 192.0, 0.0, 0.0, 0.0, 0.0, 0.0, 0.0, 0.0, 0.0, 0.0, 1.645922931701536E9, 0.0, 2022-02-27 11:48:51.701
24.0, -732.3996105670465, -3081.299731886355, -2436.0272212060954, -9597.682606897666, -207.35713331188362, 347.12259139091867, -4829.787293647206, -1646.0048134332674, -2018.7648557144232, -4385.971055742629, -3846.8916829695327, -2709.3667041500457, -3323.3020691039646, -2123.3710197652604, -8090.660940487497, -14986.82230553893, 0.01, -0.10400000000000001, 0.993, 192.0, 0.0, 0.0, 0.0, 0.0, 0.0, 0.0, 0.0, 0.0, 0.0, 1.64592293171799E9, 0.0, 2022-02-27 11:48:51.717
26.0, -145.06282151494284, -2628.967479344306, -2046.2798531389062, -9094.254266530785, 324.1897015797736, 629.9839174728296, -4662.797410821607, -1449.6447383933948, -2060.2720451679284, -3917.791416381767, -3477.3502918899408, -2538.7334869782317, -2951.659614045574, -1792.6769605489924, -7908.4942231767445, -14612.22942021244, 0.007, -0.10400000000000001, 0.9935, 192.0, 0.0, 16.0, 126.0, 96.0, 15.5, 8.0, 0.0, 0.0, 0.0, 1.645922931724608E9, 0.0, 2022-02-27 11:48:51.724
28.0, -789.7541868393645, -3128.439560942598, -2525.076571116039, -9663.62025304082, -299.20045127874033, 239.36483137188333, -4983.567295499718, -1883.335636059718, -3621.474340137761, -4810.09540678208, -3744.520693364226, -2752.863198860073, -3197.037064675935, -2074.7559755749676, -8286.953960294004, -15545.995896577348, 0.007, -0.10400000000000001, 0.9935, 192.0, 0.0, 0.0, 0.0, 0.0, 0.0, 0.0, 0.0, 0.0, 0.0, 1.645922931732131E9, 0.0, 2022-02-27 11:48:51.732
30.0, -396.98933327070876, -2819.024362447782, -2189.8451077753434, -9289.876734003632, 102.68391402768064, 535.6595558714338, -4668.362995190978, -1466.1179740569562, -1199.0593313049474, -3852.2784533832614, -3649.8387038515457, -2555.2514261307033, -3146.946805351592, -1923.5464243348151, -7864.818914511075, -14448.949926966421, 0.007, -0.10400000000000001, 0.9935, 192.0, 0.0, 0.0, 0.0, 0.0, 0.0, 0.0, 0.0, 0.0, 0.0, 1.645922931740069E9, 0.0, 2022-02-27 11:48:51.740
32.0, -374.23525741520615, -2823.293545638746, -2244.91980611322, -9318.822243073255, 89.07170165439865, 436.7083831677894, -4850.574415990641, -1715.0046485668004, -3482.066509970011, -4451.372260018857, -3502.6524666133487, -2638.5116742267223, -2955.1688379250572, -1865.297778284285, -8133.710400308419, -15237.988857983215, 0.007, -0.10400000000000001, 0.9935, 192.0, 0.0, 0.0, 0.0, 0.0, 0.0, 0.0, 0.0, 0.0, 0.0, 1.645922931747236E9, 0.0, 2022-02-27 11:48:51.747
34.0, -742.9049304610409, -3088.5640488343297, -2444.297366654559, -9602.532935444468, -222.57867128594773, 344.0827541449969, -4827.552119201675, -1668.2671509107533, -2065.3905946481937, -4422.784378860519, -3853.910130728499, -2716.1169309755483, -3329.7617232515486, -2128.444865756615, -8092.203210854914, -15003.228485969126, 0.007, -0.10400000000000001, 0.9935, 192.0, 0.0, 0.0, 0.0, 0.0, 0.0, 0.0, 0.0, 0.0, 0.0, 1.645922931754713E9, 0.0, 2022-02-27 11:48:51.754
36.0, -147.70032736066906, -2636.388258503468, -2046.4363153500935, -9099.015188099766, 327.81068418153336, 630.6991732953994, -4620.396151589889, -1436.3230986980318, -2019.8600911927333, -3910.4153407115155, -3480.6359983248713, -2544.969623681262, -2954.0288989578366, -1799.8742222636013, -7898.7488625942315, -14598.237228183418, 0.006500000000000001, -0.10300000000000001, 0.99075, 192.0, 0.0, 24.0, 126.0, 104.0, 15.0, 112.0, 0.0, 0.0, 0.0, 1.645922931762659E9, 0.0, 2022-02-27 11:48:51.762
38.0, -780.9475995239735, -3129.981831310014, -2517.3875710234133, -9667.308290875948, -284.89533482734385, 256.5086193691038, -4964.657719690528, -1858.0558130807656, -3621.8766715379566, -4815.124549284524, -3739.31273690614, -2761.0439373307154, -3187.2022971156, -2077.1476122316853, -8275.39810841061, -15542.151396531035, 0.006500000000000001, -0.10300000000000001, 0.99075, 192.0, 0.0, 0.0, 0.0, 0.0, 0.0, 0.0, 0.0, 0.0, 0.0, 1.645922931769655E9, 0.0, 2022-02-27 11:48:51.769
40.0, -384.7629290536558, -2810.88832746605, -2179.3844913702596, -9292.178963682529, 114.99972522255484, 543.2367972417828, -4655.197817706802, -1445.6214243914396, -1178.205153728146, -3849.4844853263485, -3642.8202560925793, -2555.8325714865414, -3141.0906483043013, -1924.0605144572874, -7858.023984196661, -14445.552461809215, 0.006500000000000001, -0.10300000000000001, 0.99075, 192.0, 0.0, 0.0, 0.0, 0.0, 0.0, 0.0, 0.0, 0.0, 0.0, 1.645922931777501E9, 0.0, 2022-02-27 11:48:51.777
42.0, -367.3956236118822, -2814.6657722789973, -2239.890663610776, -9323.024371030853, 100.2922773709628, 440.4411244918257, -4828.62500293553, -1711.920107831968, -3462.285216127064, -4450.634652451832, -3496.6621990993262, -2634.756581158231, -2941.4001633405883, -1860.4474497374833, -8125.015571715305, -15237.966506238761, 0.006500000000000001, -0.10300000000000001, 0.99075, 192.0, 0.0, 0.0, 0.0, 0.0, 0.0, 0.0, 0.0, 0.0, 0.0, 1.645922931784365E9, 0.0, 2022-02-27 11:48:51.784
44.0, -742.3461368496581, -3088.8769732567043, -2442.106895697939, -9599.716615643098, -218.22008111716286, 349.2683588586282, -4832.849482637583, -1658.0524036946779, -2046.6598327946465, -4411.072064765938, -3852.4349155944487, -2709.34435240559, -3326.453665072163, -2128.310755289883, -8090.213905598392, -15007.072986015439, 0.006500000000000001, -0.10300000000000001, 0.99075, 192.0, 0.0, 0.0, 0.0, 0.0, 0.0, 0.0, 0.0, 0.0, 0.0, 1.645922931792392E9, 0.0, 2022-02-27 11:48:51.792
46.0, -159.05501354396506, -2646.513598741722, -2049.3420421292835, -9101.85385964559, 321.5745474785027, 629.1121994390726, -4640.825646022039, -1452.3045959835763, -2043.2400158929845, -3926.195672296962, -3482.8711727704017, -2538.4652660447678, -2957.3146053927667, -1800.1200914526096, -7909.969438310795, -14610.284818444827, 0.01025, -0.10550000000000001, 0.990375, 192.0, 0.0, 56.0, 126.0, 80.0, 15.0, 120.0, 0.0, 0.0, 0.0, 1.645922931800384E9, 0.0, 2022-02-27 11:48:51.800
48.0, -790.737663595398, -3142.364697738254, -2518.169882079349, -9657.71939250462, -270.41140442030485, 260.9342647712547, -4981.935618154481, -1866.5271242293268, -3665.2614075257075, -4824.780502889216, -3742.7772572967124, -2763.2791117762463, -3188.2081256160886, -2075.0688999973418, -8282.215390469479, -15554.601318192641, 0.01025, -0.10550000000000001, 0.990375, 192.0, 0.0, 0.0, 0.0, 0.0, 0.0, 0.0, 0.0, 0.0, 0.0, 1.645922931806958E9, 0.0, 2022-02-27 11:48:51.806
50.0, -430.3604877424822, -2852.641386108564, -2201.311552680916, -9312.474347647947, 97.90064071424493, 544.555550164646, -4663.289149199623, -1444.123857512934, -1211.397494244277, -3899.0606545282194, -3676.9066663869226, -2577.8937432639295, -3163.8000206708934, -1931.2354244274409, -7873.89372275993, -14459.90228174952, 0.01025, -0.10550000000000001, 0.990375, 192.0, 0.0, 0.0, 0.0, 0.0, 0.0, 0.0, 0.0, 0.0, 0.0, 1.645922931815062E9, 0.0, 2022-02-27 11:48:51.815
52.0, -384.1817836978178, -2835.005859733327, -2237.3649164873264, -9316.072978505252, 119.80535028044585, 462.85992418049864, -4810.47538643782, -1714.401151466507, -3443.085067639955, -4441.73865815862, -3504.9099928033347, -2648.458200509334, -2941.444866829499, -1848.1092867981538, -8117.214812900403, -15208.037520413105, 0.01025, -0.10550000000000001, 0.990375, 192.0, 0.0, 0.0, 0.0, 0.0, 0.0, 0.0, 0.0, 0.0, 0.0, 1.645922931822931E9, 0.0, 2022-02-27 11:48:51.822
54.0, -770.4646313744345, -3118.2918689598882, -2449.3265091570033, -9605.908048857218, -219.3376683399282, 346.72025999072315, -4813.336409728099, -1651.4586390803622, -2087.6305803812243, -4443.772666904052, -3863.9684157333872, -2729.572681137643, -3328.5100255620514, -2126.1426360777186, -8090.303312576212, -15006.089509259406, 0.01025, -0.10550000000000001, 0.990375, 192.0, 0.0, 0.0, 0.0, 0.0, 0.0, 0.0, 0.0, 0.0, 0.0, 1.645922931836635E9, 0.0, 2022-02-27 11:48:51.836
56.0, -166.3863857253058, -2653.330880800591, -2046.7939432613784, -9099.529278222237, 332.1022191169523, 634.7224872973546, -4639.261023910168, -1436.5019126536743, -2040.133123413697, -3936.3433642796713, -3494.896411287357, -2554.98320519724, -2964.377756640644, -1795.5379838392716, -7906.504917920222, -14593.096326958695, 0.010125, -0.10775000000000001, 0.9881875, 192.0, 0.0, 40.0, 126.0, 72.0, 15.0, 104.0, 0.0, 0.0, 0.0, 1.6459229318447E9, 0.0, 2022-02-27 11:48:51.844
58.0, -800.3042102222694, -3146.6115291847623, -2516.8958326453967, -9667.665918787232, -269.5843898754585, 254.04992747902008, -4941.568367668196, -1862.5485137162823, -3657.147724288431, -4819.4831394533085, -3742.576091596615, -2765.290768777224, -3181.301436579399, -2062.21664693554, -8279.644939857119, -15546.532338444275, 0.010125, -0.10775000000000001, 0.9881875, 192.0, 0.0, 0.0, 0.0, 0.0, 0.0, 0.0, 0.0, 0.0, 0.0, 1.645922931852805E9, 0.0, 2022-02-27 11:48:51.852
60.0, -437.13306631244023, -2854.831857065184, -2193.287276421461, -9304.561830110768, 107.19896640765268, 546.2095792543387, -4641.5632535890645, -1429.8410928059927, -1215.7337326686065, -3884.621427610091, -3679.63357921047, -2582.028815988161, -3158.145029323701, -1925.2228051689633, -7859.789772008631, -14444.18900539744, 0.010125, -0.10775000000000001, 0.9881875, 192.0, 0.0, 0.0, 0.0, 0.0, 0.0, 0.0, 0.0, 0.0, 0.0, 1.645922931859119E9, 0.0, 2022-02-27 11:48:51.859
62.0, -403.2254699737394, -2853.0437175087595, -2231.151131528751, -9314.7989290713, 115.5361670894822, 470.6383312509455, -4808.262563736745, -1686.3497121750966, -3471.4717830981954, -4458.234245566636, -3517.8069493540465, -2655.297834312658, -2946.786933754317, -1852.9596153449554, -8121.238126902357, -15216.374721094933, 0.010125, -0.10775000000000001, 0.9881875, 192.0, 0.0, 0.0, 0.0, 0.0, 0.0, 0.0, 0.0, 0.0, 0.0, 1.645922931867413E9, 0.0, 2022-02-27 11:48:51.867
64.0, -783.093366991683, -3125.4220754411313, -2442.330413142492, -9610.937191359662, -213.3474008259059, 352.95639669375385, -4803.2781247232115, -1648.2846913677088, -2118.7218569185566, -4452.534550730533, -3870.3833663920605, -2732.6348701280203, -3325.380781338308, -2130.7247436910566, -8093.633722500053, -15020.841660599908, 0.010125, -0.10775000000000001, 0.9881875, 192.0, 0.0, 0.0, 0.0, 0.0, 0.0, 0.0, 0.0, 0.0, 0.0, 1.645922931875321E9, 0.0, 2022-02-27 11:48:51.875
66.0, -181.94319986619948, -2667.993625163272, -2038.188521646085, -9103.306723035184, 334.11387611793, 643.2161501903713, -4612.48363405271, -1418.4640548782415, -2010.3829515436832, -3928.0732188312077, -3495.2316874541866, -2554.0220801856617, -2951.8384280012165, -1797.0802542066879, -7889.025853756172, -14585.921416988544, 0.0110625, -0.106875, 0.99109375, 192.0, 0.0, 48.0, 126.0, 88.0, 15.5, 8.0, 0.0, 0.0, 0.0, 1.645922931882352E9, 0.0, 2022-02-27 11:48:51.882
68.0, -808.1049690371716, -3157.139200823212, -2509.720922675243, -9666.146000164272, -263.3706049168831, 267.28216019656185, -4960.276777777288, -1850.7914961327906, -3687.523745003193, -4828.982630846815, -3741.927891007411, -2771.3033880357016, -3169.9243986516476, -2065.1447254591853, -8274.034651998836, -15550.466245468408, 0.0110625, -0.106875, 0.99109375, 192.0, 0.0, 0.0, 0.0, 0.0, 0.0, 0.0, 0.0, 0.0, 0.0, 1.645922931888915E9, 0.0, 2022-02-27 11:48:51.888
70.0, -450.25354030770546, -2871.2380374953796, -2198.9199160241983, -9313.904859293087, 105.65669604023648, 544.3096809756375, -4673.481544671243, -1457.7584216306714, -1211.0175145885366, -3891.6398753690573, -3679.343006532551, -2586.566220112589, -3152.5123897209633, -1938.5444448643264, -7866.495295345223, -14455.834264258656, 0.0110625, -0.106875, 0.99109375, 192.0, 0.0, 0.0, 0.0, 0.0, 0.0, 0.0, 0.0, 0.0, 0.0, 1.645922931896823E9, 0.0, 2022-02-27 11:48:51.896
72.0, -391.4684523902479, -2846.762877316818, -2228.2007012606505, -9308.339274923715, 120.85588226984528, 457.0261188776635, -4805.6250578910185, -1688.3166656871638, -3445.25318685212, -4448.757105917586, -3513.69422837427, -2650.581616232588, -2947.3233756212444, -1855.6641764240476, -8123.22743215888, -15210.853840214473, 0.0110625, -0.106875, 0.99109375, 192.0, 0.0, 0.0, 0.0, 0.0, 0.0, 0.0, 0.0, 0.0, 0.0, 1.645922931904953E9, 0.0, 2022-02-27 11:48:51.904
74.0, -798.2254979879258, -3141.4482762155862, -2451.0252417356064, -9619.229688552581, -236.86143599288894, 334.62796624040203, -4823.975840088826, -1661.9416072299014, -2161.614854528291, -4476.31680683098, -3873.713776315901, -2743.54252142221, -3338.322441377931, -2149.924892178165, -8109.257591874313, -15044.243937044614, 0.0110625, -0.106875, 0.99109375, 192.0, 0.0, 0.0, 0.0, 0.0, 0.0, 0.0, 0.0, 0.0, 0.0, 1.645922931911998E9, 0.0, 2022-02-27 11:48:51.911
76.0, -185.00538885657656, -2675.6155700225318, -2039.8201989913225, -9102.502060234792, 323.31798354601665, 635.2142256753714, -4641.697364055796, -1441.8216278340374, -1990.8251751452894, -3930.6436694435683, -3497.668027599815, -2558.4477255878123, -2962.0978787062027, -1812.0559229917435, -7899.061787016605, -14589.184771679018, 0.01353125, -0.1054375, 0.991546875, 192.0, 0.0, 64.0, 126.0, 96.0, 15.5, 0.0, 0.0, 0.0, 0.0, 1.645922931919454E9, 0.0, 2022-02-27 11:48:51.919
78.0, -812.7094283949648, -3166.214009072067, -2512.1796145653266, -9663.329680362902, -274.83704982245564, 260.5766368599697, -4950.956100339425, -1857.3852607471063, -3703.952277177844, -4841.454904252876, -3741.927891007411, -2772.3092165361904, -3171.690186463617, -2071.5820278623137, -8280.851934057706, -15555.853015882138, 0.01353125, -0.1054375, 0.991546875, 192.0, 0.0, 0.0, 0.0, 0.0, 0.0, 0.0, 0.0, 0.0, 0.0, 1.645922931927494E9, 0.0, 2022-02-27 11:48:51.927
80.0, -449.91826414087586, -2870.120450272614, -2196.5953346008464, -9313.614286615168, 103.10859717233149, 545.6507856429561, -4644.983070490726, -1444.995575546691, -1212.9174128672378, -3897.6748463719905, -3683.1428030899533, -2589.6060573585105, -3158.81558165736, -1952.3354711932507, -7866.428240111857, -14456.638927059046, 0.01353125, -0.1054375, 0.991546875, 192.0, 0.0, 0.0, 0.0, 0.0, 0.0, 0.0, 0.0, 0.0, 0.0, 1.645922931935556E9, 0.0, 2022-02-27 11:48:51.935
82.0, -384.29354242009435, -2841.3537551586337, -2220.444645934659, -9298.526859107837, 126.15324570575306, 475.77923247566616, -4800.819432833127, -1665.0261479647338, -3426.2318523206536, -4436.329536000435, -3503.7253503472034, -2649.0169941207164, -2937.823884227739, -1854.1442578010867, -8113.012684942804, -15194.693528973286, 0.01353125, -0.1054375, 0.991546875, 192.0, 0.0, 0.0, 0.0, 0.0, 0.0, 0.0, 0.0, 0.0, 0.0, 1.645922931942191E9, 0.0, 2022-02-27 11:48:51.942
84.0, -794.6045153861661, -3142.4764564605307, -2451.561683602534, -9617.933287374173, -230.29002312302867, 346.45203905725947, -4835.934023372415, -1645.6918890108932, -2178.0210349584863, -4477.568504520476, -3869.24342742484, -2740.8156085986625, -3334.0085546980567, -2139.8442554288217, -8110.2410686303465, -15041.360562009879, 0.01353125, -0.1054375, 0.991546875, 192.0, 0.0, 0.0, 0.0, 0.0, 0.0, 0.0, 0.0, 0.0, 0.0, 1.645922931949163E9, 0.0, 2022-02-27 11:48:51.949
86.0, -194.0131418720653, -2686.76909050573, -2042.0777251813086, -9104.8489934026, 338.09248663097463, 639.1704844439607, -4609.712017740252, -1418.2181856892332, -1974.1507737816303, -3921.971192594909, -3499.7467398341587, -2561.0852314335384, -2963.7072043069847, -1812.5923648586709, -7890.635179356955, -14572.55507380427, 0.013765625, -0.10471875, 0.9897734375, 192.0, 0.0, 56.0, 126.0, 96.0, 15.0, 112.0, 0.0, 0.0, 0.0, 1.645922931965246E9, 0.0, 2022-02-27 11:48:51.965
88.0, -806.2497742473811, -3165.0517183603906, -2508.737445919209, -9655.685383759188, -266.96923577418755, 265.62813110686915, -4964.903588879537, -1843.2142547624417, -3723.9123849764333, -4838.996212362792, -3735.2447194152737, -2773.873838648062, -3170.840820174315, -2053.745335786979, -8274.772259565862, -15551.628536180084, 0.013765625, -0.10471875, 0.9897734375, 192.0, 0.0, 0.0, 0.0, 0.0, 0.0, 0.0, 0.0, 0.0, 0.0, 1.645922931971801E9, 0.0, 2022-02-27 11:48:51.971
90.0, -452.1310868419513, -2876.75891837584, -2202.9432300261533, -9316.251792460895, 92.04448366695448, 531.5468348916572, -4677.214285995279, -1441.642813878395, -1214.0573518344584, -3891.48341315787, -3680.952332133333, -2584.8674875339852, -3160.9613491250693, -1957.2752067178735, -7874.050184971116, -14463.836188773656, 0.013765625, -0.10471875, 0.9897734375, 192.0, 0.0, 0.0, 0.0, 0.0, 0.0, 0.0, 0.0, 0.0, 0.0, 1.645922931979863E9, 0.0, 2022-02-27 11:48:51.979
92.0, -366.1215741779297, -2829.3285166416786, -2211.772169086, -9288.98266422542, 137.17265572221945, 472.91820918538684, -4789.732967583295, -1655.593711804594, -3397.286343251031, -4425.332477728424, -3498.450338655751, -2643.965499873817, -2938.315622605756, -1852.1773042890197, -8114.979638454872, -15181.640110211387, 0.013765625, -0.10471875, 0.9897734375, 192.0, 0.0, 0.0, 0.0, 0.0, 0.0, 0.0, 0.0, 0.0, 0.0, 1.645922931987735E9, 0.0, 2022-02-27 11:48:51.987
94.0, -790.0000560283728, -3140.7330203930164, -2447.0019277336514, -9618.112101329816, -216.05196190499808, 345.6473762568684, -4822.05359006567, -1643.4343628209072, -2197.444700890148, -4488.1855831367475, -3860.5038953428148, -2737.932233563928, -3328.04063892849, -2134.1669123371735, -8112.967981453894, -15057.230300573148, 0.013765625, -0.10471875, 0.9897734375, 192.0, 0.0, 0.0, 0.0, 0.0, 0.0, 0.0, 0.0, 0.0, 0.0, 1.645922931995004E9, 0.0, 2022-02-27 11:48:51.995
96.0, -184.08896733390895, -2673.6039130215545, -2040.0213646914203, -9107.173574825953, 344.6415477563796, 645.8983595250082, -4611.00841891866, -1412.3843803863979, -1949.3626891806948, -3913.969268079909, -3491.8789257858907, -2554.8043912415974, -2962.9025415065935, -1803.0034664873442, -7886.768327566187, -14567.16830339054, 0.012, -0.10200000000000001, 0.992, 192.0, 0.0, 48.0, 126.0, 104.0, 15.5, 0.0, 0.0, 0.0, 0.0, 1.645922932002456E9, 0.0, 2022-02-27 11:48:52.002
98.0, -796.6832276205097, -3160.5366659804185, -2501.7637016491535, -9662.614424540332, -256.5086193691038, 252.03827047804245, -4973.598417472651, -1860.425097993028, -3730.550853079659, -4831.508377970264, -3726.7063530333467, -2768.8223444011624, -3161.587197969818, -2060.7861352904006, -8279.06379450128, -15559.742219417361, 0.012, -0.10200000000000001, 0.992, 192.0, 0.0, 0.0, 0.0, 0.0, 0.0, 0.0, 0.0, 0.0, 0.0, 1.645922932010458E9, 0.0, 2022-02-27 11:48:52.010
100.0, -464.4916015257361, -2891.3322557607003, -2205.4913288940584, -9331.875661835154, 86.97063767559978, 529.4010674239478, -4641.742067544707, -1446.00140404718, -1220.3828955153103, -3914.1480820355514, -3689.535402004171, -2601.60894413101, -3166.526933494441, -1958.4822009184602, -7870.295091902625, -14477.180180213474, 0.012, -0.10200000000000001, 0.992, 192.0, 0.0, 0.0, 0.0, 0.0, 0.0, 0.0, 0.0, 0.0, 0.0, 1.645922932017588E9, 0.0, 2022-02-27 11:48:52.017
102.0, -365.36161486644926, -2828.0768189521814, -2207.1677097282063, -9288.60268456968, 145.68867035969143, 490.41962509389225, -4779.942903511871, -1649.983423946312, -3395.185279272232, -4419.744541614597, -3501.870155557413, -2648.2793865536914, -2940.148465651091, -1851.46204846645, -8105.435443572455, -15176.454505497755, 0.012, -0.10200000000000001, 0.992, 192.0, 0.0, 0.0, 0.0, 0.0, 0.0, 0.0, 0.0, 0.0, 0.0, 1.645922932024023E9, 0.0, 2022-02-27 11:48:52.024
104.0, -788.5918961276885, -3141.6717936601394, -2452.2545876806485, -9625.868156655808, -228.4348283332382, 346.11676289042987, -4834.883491383015, -1659.3935083619963, -2233.5874716743797, -4496.768653007585, -3869.3775378915716, -2739.4968556757995, -3332.287470374998, -2131.931737891643, -8119.382932112567, -15067.780323956053, 0.012, -0.10200000000000001, 0.992, 192.0, 0.0, 0.0, 0.0, 0.0, 0.0, 0.0, 0.0, 0.0, 0.0, 1.645922932032063E9, 0.0, 2022-02-27 11:48:52.032
106.0, -186.43590050171622, -2682.4328520814006, -2040.9824897029985, -9108.358217282082, 333.9350621622875, 642.9255775124524, -4604.146433370881, -1422.8002933025712, -1925.7592470358907, -3907.062579043219, -3496.6621990993262, -2549.395269083413, -2964.1765909405462, -1798.9354489964783, -7889.830516556563, -14560.93216668751, 0.016, -0.10400000000000001, 0.99, 192.0, 0.0, 64.0, 126.0, 96.0, 15.0, 120.0, 0.0, 0.0, 0.0, 1.645922932040155E9, 0.0, 2022-02-27 11:48:52.040
108.0, -802.4499776899788, -3168.6503492176953, -2507.5751552075335, -9661.586244295388, -257.5591513585033, 260.2413606931401, -4950.196141027945, -1831.4572371789502, -3748.9016352774665, -4838.236253051312, -3732.8977862474667, -2776.1090130935927, -3168.3150730508655, -2063.6918620695906, -8278.63911135663, -15555.897719371049, 0.016, -0.10400000000000001, 0.99, 192.0, 0.0, 0.0, 0.0, 0.0, 0.0, 0.0, 0.0, 0.0, 0.0, 1.645922932047323E9, 0.0, 2022-02-27 11:48:52.047
110.0, -466.68207248235615, -2893.2321540394014, -2210.2969539519495, -9339.721124138967, 75.72771021458033, 526.718858089311, -4658.0588409970815, -1443.2297877347216, -1224.5403199839975, -3917.836119870677, -3698.7443207197575, -2604.4699674212898, -3180.0497388899016, -1964.3830614546612, -7877.291187917136, -14475.593206357147, 0.016, -0.10400000000000001, 0.99, 192.0, 0.0, 0.0, 0.0, 0.0, 0.0, 0.0, 0.0, 0.0, 0.0, 1.645922932054839E9, 0.0, 2022-02-27 11:48:52.054
112.0, -357.918483962832, -2824.8134642617065, -2202.4514916481367, -9285.160515923562, 146.64979537126965, 486.28455236966045, -4808.083749781103, -1656.5995403050829, -3366.6868050917155, -4414.603640389877, -3499.970257278712, -2650.3133952991243, -2938.62854702813, -1860.55920845976, -8105.03311217226, -15167.223235037714, 0.016, -0.10400000000000001, 0.99, 192.0, 0.0, 0.0, 0.0, 0.0, 0.0, 0.0, 0.0, 0.0, 0.0, 1.645922932062674E9, 0.0, 2022-02-27 11:48:52.062
114.0, -794.6492188750767, -3149.874883875237, -2456.5461226160674, -9627.745703190054, -238.6495755493135, 335.34322206297185, -4833.989421604803, -1671.5081538567727, -2251.178294560706, -4510.4255688697785, -3870.0257384807755, -2741.35205046559, -3331.8180837414366, -2149.3660985667825, -8123.585060070165, -15081.191370629236, 0.016, -0.10400000000000001, 0.99, 192.0, 0.0, 0.0, 0.0, 0.0, 0.0, 0.0, 0.0, 0.0, 0.0, 1.645922932070668E9, 0.0, 2022-02-27 11:48:52.070
116.0, -185.40772025677208, -2681.0470439251717, -2042.6812222816018, -9108.000589370798, 316.2324805536843, 642.970281001363, -4637.048201209092, -1406.6846855502947, -1919.3889998661282, -3915.9585733364315, -3499.5232223896055, -2555.229074386248, -2966.344710152711, -1799.8965740080566, -7887.550638622122, -14557.333535830205, 0.01, -0.106, 0.99, 192.0, 0.0, 40.0, 126.0, 88.0, 15.0, 120.0, 0.0, 0.0, 0.0, 1.645922932084372E9, 0.0, 2022-02-27 11:48:52.084
118.0, -794.671570619532, -3160.4472590025975, -2504.624724939433, -9655.931252948196, -262.4094799053049, 262.0071485051094, -4950.039678816757, -1848.9363013430002, -3753.394335912983, -4840.404372263476, -3723.6441640429694, -2769.895228135017, -3162.0789363478348, -2041.0718966808197, -8284.11528874818, -15559.004611850336, 0.01, -0.106, 0.99, 192.0, 0.0, 0.0, 0.0, 0.0, 0.0, 0.0, 0.0, 0.0, 0.0, 1.645922932092317E9, 0.0, 2022-02-27 11:48:52.092
120.0, -466.2573893377053, -2893.1874505504907, -2207.7488550840444, -9335.027257803353, 80.62274225029257, 535.8383698270762, -4639.886872754917, -1434.6020143749731, -1220.5393577264974, -3927.6261839421018, -3695.995056151755, -2596.9597812843062, -3180.362663312276, -1964.7853928548568, -7873.871371015474, -14479.996500014842, 0.01, -0.106, 0.99, 192.0, 0.0, 0.0, 0.0, 0.0, 0.0, 0.0, 0.0, 0.0, 0.0, 1.645922932099551E9, 0.0, 2022-02-27 11:48:52.099
122.0, -349.2683588586282, -2817.996182202838, -2195.567154355902, -9275.21398964095, 154.1823332527081, 509.2397939252608, -4785.083804736591, -1650.341051857597, -3354.9521392526794, -4416.995277046594, -3493.734120575681, -2642.065601595116, -2930.380753324122, -1848.5786734317153, -8095.801841712218, -15161.009450079138, 0.01, -0.106, 0.99, 192.0, 0.0, 0.0, 0.0, 0.0, 0.0, 0.0, 0.0, 0.0, 0.0, 1.645922932106997E9, 0.0, 2022-02-27 11:48:52.106
124.0, -789.3965589280796, -3148.198503041089, -2455.272073182115, -9627.030447367484, -239.49894183861517, 342.853408199955, -4823.037066821703, -1663.1709531749432, -2255.8945126407757, -4512.303115404024, -3860.14626743153, -2741.7543818657855, -3322.1174266478333, -2139.196054839618, -8119.382932112567, -15084.253559619614, 0.01, -0.106, 0.99, 192.0, 0.0, 0.0, 0.0, 0.0, 0.0, 0.0, 0.0, 0.0, 0.0, 1.645922932114976E9, 0.0, 2022-02-27 11:48:52.114
126.0, -186.30179003498438, -2681.6281892810093, -2040.580158302803, -9104.267848046762, 324.2344050686842, 653.7214700843657, -4600.48074728021, -1402.035522703591, -1881.3686825476507, -3903.1510237635407, -3498.5397456335722, -2551.6304435289435, -2965.5847508412303, -1798.846042018657, -7880.822763541075, -14544.481282768404, 0.012, -0.106, 0.99, 192.0, 0.0, 48.0, 126.0, 88.0, 15.0, 120.0, 0.0, 0.0, 0.0, 1.645922932124413E9, 0.0, 2022-02-27 11:48:52.124
128.0, -775.8737535326187, -3149.71842166405, -2490.5878294215, -9638.899223673252, -251.03244197755362, 274.88175331136625, -4967.541094725263, -1860.3356910152067, -3760.2786732052177, -4831.95541285937, -3715.619887783514, -2765.1343065660367, -3146.276253017933, -2044.0223269489202, -8278.505000889898, -15552.924937358492, 0.012, -0.106, 0.99, 192.0, 0.0, 0.0, 0.0, 0.0, 0.0, 0.0, 0.0, 0.0, 0.0, 1.645922932130672E9, 0.0, 2022-02-27 11:48:52.130
130.0, -473.1640783743952, -2900.3400087761893, -2212.15214874174, -9336.658935148589, 59.433288506661476, 528.5964046235567, -4655.890721784916, -1448.996537804191, -1216.583098957908, -3934.4434660009706, -3694.2516200842406, -2594.65755160541, -3169.5667707403627, -1950.1897037255412, -7879.9063420184075, -14486.590264629158, 0.012, -0.106, 0.99, 192.0, 0.0, 0.0, 0.0, 0.0, 0.0, 0.0, 0.0, 0.0, 0.0, 1.645922932136973E9, 0.0, 2022-02-27 11:48:52.136
132.0, -340.2382540986841, -2813.4140745895, -2189.800404286433, -9264.328690091215, 156.52926642051537, 503.0260089666854, -4780.568752356619, -1632.3926010599855, -3321.9609644366465, -4392.922448268228, -3492.9518095197454, -2642.0208981062055, -2924.7704654658396, -1832.5971761461708, -8092.426728299467, -15142.345743458956, 0.012, -0.106, 0.99, 192.0, 0.0, 0.0, 0.0, 0.0, 0.0, 0.0, 0.0, 0.0, 0.0, 1.64592293214466E9, 0.0, 2022-02-27 11:48:52.144
134.0, -783.6968640919762, -3137.33555523581, -2456.7696400606205, -9629.690304957665, -239.40953486079394, 345.6250245124131, -4831.8660058815485, -1657.47125833884, -2298.116957916851, -4522.204938197725, -3861.755593032312, -2741.575567910143, -3317.5353190344954, -2126.679077944646, -8125.820234515695, -15101.352644127923, 0.012, -0.106, 0.99, 192.0, 0.0, 0.0, 0.0, 0.0, 0.0, 0.0, 0.0, 0.0, 0.0, 1.645922932152646E9, 0.0, 2022-02-27 11:48:52.152
136.0, -182.5914004554034, -2674.8556107110517, -2038.7920187463785, -9099.998664855799, 320.7475329336564, 651.9556822723964, -4598.871421679428, -1396.0452551895685, -1851.4844002109053, -3882.4533083979263, -3494.0470449980553, -2543.3826498249355, -2955.1017826916914, -1797.0802542066879, -7876.173600694371, -14537.708704198445, 0.01, -0.108, 0.992, 192.0, 0.0, 40.0, 126.0, 80.0, 15.5, 0.0, 0.0, 0.0, 0.0, 1.64592293215924E9, 0.0, 2022-02-27 11:48:52.159
138.0, -765.9719307389178, -3137.871997102737, -2485.3128177300478, -9628.28214505698, -239.00720346059842, 282.16842200379637, -4958.5333417097745, -1845.7623536303465, -3766.2242372303294, -4828.155616301968, -3706.1874516233747, -2760.798068141707, -3137.939052336103, -2035.8862919671885, -8272.224160697957, -15548.164015789513, 0.01, -0.108, 0.992, 192.0, 0.0, 0.0, 0.0, 0.0, 0.0, 0.0, 0.0, 0.0, 0.0, 1.645922932167322E9, 0.0, 2022-02-27 11:48:52.167
140.0, -464.2904358256383, -2886.727796402907, -2209.7828638294773, -9326.08656002123, 67.81519267740163, 539.5487594066572, -4667.3348149460335, -1431.6068806179621, -1207.3518284978663, -3906.1908610094624, -3685.668550213403, -2579.8830485204517, -3167.041023616913, -1944.7358780784464, -7879.79458329613, -14475.392040657049, 0.01, -0.108, 0.992, 192.0, 0.0, 0.0, 0.0, 0.0, 0.0, 0.0, 0.0, 0.0, 0.0, 1.645922932175267E9, 0.0, 2022-02-27 11:48:52.175
142.0, -321.2392713116731, -2792.068158634682, -2177.9763314695756, -9246.112018360142, 162.78775486800134, 507.9657444913083, -4765.548380082653, -1636.4159150619407, -3296.4129205242302, -4364.781601998997, -3483.8099460375247, -2619.110360039516, -2918.5790322517196, -1822.0695045077211, -8083.307216561701, -15123.749092072141, 0.01, -0.108, 0.992, 192.0, 0.0, 0.0, 0.0, 0.0, 0.0, 0.0, 0.0, 0.0, 0.0, 1.645922932182484E9, 0.0, 2022-02-27 11:48:52.182
144.0, -784.9485617814735, -3133.5134069339524, -2450.2429306796707, -9620.5707932199, -246.8303140199559, 348.82132396952204, -4830.323735514133, -1669.1835724334207, -2326.749542564099, -4509.352685135923, -3854.4242208509713, -2726.6222508695428, -3311.813272453937, -2129.473046001559, -8128.03305721677, -15115.769519301597, 0.01, -0.108, 0.992, 192.0, 0.0, 0.0, 0.0, 0.0, 0.0, 0.0, 0.0, 0.0, 0.0, 1.645922932189939E9, 0.0, 2022-02-27 11:48:52.189
146.0, -175.50589746307105, -2665.2667123397246, -2025.4033238176494, -9096.869420632056, 326.15665509184066, 661.678691110455, -4591.227125075713, -1388.2668481191217, -1816.6603823495368, -3850.9597004603984, -3488.637922839871, -2530.1504171073934, -2956.0405559588144, -1783.4456900889506, -7866.539998834133, -14526.622238948614, 0.012, -0.1, 0.994, 192.0, 0.0, 48.0, 126.0, 112.0, 15.5, 8.0, 0.0, 0.0, 0.0, 1.645922932196834E9, 0.0, 2022-02-27 11:48:52.196
148.0, -753.0526224437502, -3118.269517215433, -2467.8561053104527, -9614.625229194788, -231.0276306900538, 286.147032516841, -4950.509065450319, -1834.3182604692295, -3771.141621010497, -4810.9671248158365, -3693.8716404285005, -2746.8505796015957, -3123.812749840349, -2024.2186813615183, -8263.395221638111, -15552.768475147304, 0.012, -0.1, 0.994, 192.0, 0.0, 0.0, 0.0, 0.0, 0.0, 0.0, 0.0, 0.0, 0.0, 1.645922932211643E9, 0.0, 2022-02-27 11:48:52.211
150.0, -484.36230234650407, -2899.311828531245, -2215.3931516877597, -9339.56466192778, 49.0397273349437, 527.8811488009869, -4665.524323645154, -1456.5290756856293, -1229.6588694642628, -3938.6902974474788, -3702.3653033215173, -2587.1250137239713, -3181.301436579399, -1949.4297444140607, -7879.973397251773, -14500.448346191448, 0.012, -0.1, 0.994, 192.0, 0.0, 0.0, 0.0, 0.0, 0.0, 0.0, 0.0, 0.0, 0.0, 1.645922932219627E9, 0.0, 2022-02-27 11:48:52.219
152.0, -323.8097219240334, -2794.929181924961, -2169.5497238099247, -9244.234471825896, 174.47771721812694, 504.1212444449955, -4763.223798659301, -1640.1933598748876, -3255.129248515278, -4337.110142363327, -3477.3502918899408, -2609.677923879376, -2913.281668815812, -1815.8557195491458, -8070.589073966632, -15111.433280877267, 0.012, -0.1, 0.994, 192.0, 0.0, 0.0, 0.0, 0.0, 0.0, 0.0, 0.0, 0.0, 0.0, 1.64592293222754E9, 0.0, 2022-02-27 11:48:52.227
154.0, -801.153576511571, -3146.745639651494, -2455.4061836488468, -9625.91286014472, -254.51931411258153, 332.66101272833504, -4841.521959486242, -1676.8725725260465, -2344.340365450426, -4531.190339468759, -3864.8401337671444, -2735.0488585291932, -3322.7209237481266, -2130.0988948463078, -8128.413036872511, -15119.61401934791, 0.012, -0.1, 0.994, 192.0, 0.0, 0.0, 0.0, 0.0, 0.0, 0.0, 0.0, 0.0, 0.0, 1.645922932234691E9, 0.0, 2022-02-27 11:48:52.234
156.0, -189.76631042555695, -2683.4610323263446, -2031.348887842761, -9097.897600877, 317.0371433540754, 646.5018566253015, -4604.302895582067, -1402.9742959707137, -1818.6049841171484, -3870.875104770077, -3497.377454921896, -2544.209664369782, -2967.283483419834, -1792.006408215333, -7872.0385279701395, -14525.68346568149, 0.01, -0.10200000000000001, 0.996, 192.0, 0.0, 40.0, 126.0, 104.0, 15.5, 16.0, 0.0, 0.0, 0.0, 1.645922932242244E9, 0.0, 2022-02-27 11:48:52.242
158.0, -773.1468407090713, -3140.9341860931145, -2475.433346680802, -9620.324924030892, -237.6884505377353, 277.63101787936904, -4949.12325729409, -1859.0839933257096, -3780.685815892913, -4808.240211992289, -3697.2914573301623, -2748.191684268914, -3133.8933865896925, -2022.4752452940043, -8267.619701340163, -15550.957983846425, 0.01, -0.10200000000000001, 0.996, 192.0, 0.0, 0.0, 0.0, 0.0, 0.0, 0.0, 0.0, 0.0, 0.0, 1.645922932250195E9, 0.0, 2022-02-27 11:48:52.250
160.0, -501.39433162144803, -2917.0367618843034, -2209.380532429282, -9336.010734559386, 61.26613155199666, 524.6624975994226, -4667.200704479302, -1451.4999331831852, -1212.2468605335785, -3919.400741982549, -3694.5421927621596, -2579.5030688647116, -3173.34421555331, -1943.551235622315, -7873.781964037653, -14492.245255976351, 0.01, -0.10200000000000001, 0.996, 192.0, 0.0, 0.0, 0.0, 0.0, 0.0, 0.0, 0.0, 0.0, 0.0, 1.645922932258046E9, 0.0, 2022-02-27 11:48:52.258
162.0, -359.10312641896326, -2830.2672899088016, -2167.3592528533045, -9237.931279889499, 187.3970255132944, 516.1241312174953, -4768.454106861843, -1615.8970136519688, -3279.8279261383923, -4363.395793842768, -3490.828393796491, -2624.586537431066, -2923.0717328872365, -1815.8557195491458, -8078.389832781534, -15113.84726927844, 0.01, -0.10200000000000001, 0.996, 192.0, 0.0, 0.0, 0.0, 0.0, 0.0, 0.0, 0.0, 0.0, 0.0, 1.645922932264323E9, 0.0, 2022-02-27 11:48:52.264
164.0, -872.9026762131067, -3215.365495129287, -2462.9387215302854, -9630.986706136073, -252.5300088560592, 330.0458586270641, -4855.022413137247, -1690.0601017546776, -2432.0262589485956, -4561.946339839261, -3872.6855960709568, -2740.0109457982717, -3320.1057696468556, -2120.6888104306236, -8139.65596433353, -15151.532310430088, 0.011, -0.101, 0.992, 192.0, 0.0, 48.0, 126.0, 112.0, 15.0, 112.0, 0.0, 0.0, 0.0, 1.645922932271723E9, 0.0, 2022-02-27 11:48:52.271
166.0, -289.43273895177117, -2774.3432252816233, -2033.7628762439342, -9101.339769523116, 328.07890511499704, 655.4425544074243, -4582.755813927151, -1399.3980168578646, -1793.5486785827493, -3878.2735321847836, -3521.182062766798, -2546.4448388153123, -2973.6537305895963, -1786.1502511680426, -7860.437972597835, -14516.496898710358, 0.011, -0.101, 0.992, 192.0, 0.0, 0.0, 0.0, 0.0, 0.0, 0.0, 0.0, 0.0, 0.0, 1.645922932279802E9, 0.0, 2022-02-27 11:48:52.279
168.0, -883.1397751736373, -3250.614196135306, -2472.7958408350755, -9617.28508678497, -209.72641822414616, 289.7903668630561, -4936.4051146990205, -1846.7681821308354, -3814.615763976069, -4830.7484186587835, -3714.524652305204, -2768.7552891677965, -3119.9011945606703, -2011.9252219110992, -8255.750925034396, -15548.208719278422, 0.011, -0.101, 0.992, 192.0, 0.0, 0.0, 0.0, 0.0, 0.0, 0.0, 0.0, 0.0, 0.0, 1.645922932287675E9, 0.0, 2022-02-27 11:48:52.287
170.0, -666.1266882570611, -3069.3191968583105, -2226.9713553156084, -9352.439266734036, 62.56253273040447, 530.5186546467131, -4659.332890431034, -1447.968357559247, -1268.4167943497653, -3972.0391001747967, -3739.1786264394077, -2623.670115908398, -3180.9885121570246, -1948.9156542915887, -7869.333966891047, -14499.531924668781, 0.011, -0.101, 0.992, 192.0, 0.0, 0.0, 0.0, 0.0, 0.0, 0.0, 0.0, 0.0, 0.0, 1.645922932294699E9, 0.0, 2022-02-27 11:48:52.294
172.0, -514.1348259609731, -2974.950131768004, -2173.349520367327, -9242.669849714024, 199.98105764163228, 524.10370398804, -4752.293795620656, -1615.8970136519688, -3294.0436356119676, -4385.367558642335, -3527.015868069633, -2655.253130823747, -2921.9094421755603, -1814.0228765038105, -8062.363632007079, -15099.5645045715, 0.011, -0.101, 0.992, 192.0, 0.0, 0.0, 0.0, 0.0, 0.0, 0.0, 0.0, 0.0, 0.0, 1.645922932302452E9, 0.0, 2022-02-27 11:48:52.302
174.0, -1020.6030035737758, -3350.6606043172605, -2478.070852526528, -9645.045953398461, -246.29387215302853, 328.436533026282, -4835.039953594202, -1690.4400814104179, -2486.7880328640977, -4604.772282215629, -3920.5406809497695, -2789.2965423222236, -3328.711191262149, -2129.7859704239336, -8132.928089252483, -15153.968650575716, 0.010499999999999999, -0.1005, 0.988, 192.0, 0.0, 40.0, 126.0, 112.0, 15.0, 96.0, 0.0, 0.0, 0.0, 1.645922932310421E9, 0.0, 2022-02-27 11:48:52.310
176.0, -393.4130541578596, -2875.641331153075, -2049.297338640373, -9112.001551628298, 333.2198063397177, 651.5309991277455, -4588.947247141272, -1382.9247811943033, -1834.6758883805144, -3921.233585027884, -3557.257778317664, -2589.9189817808847, -2976.8276783022498, -1810.848928791157, -7854.64887078391, -14516.116919054619, 0.010499999999999999, -0.1005, 0.988, 192.0, 0.0, 0.0, 0.0, 0.0, 0.0, 0.0, 0.0, 0.0, 0.0, 1.645922932317585E9, 0.0, 2022-02-27 11:48:52.317
178.0, -947.0434125713602, -3305.867708428825, -2487.1009572864723, -9620.14611007525, -214.8673194488668, 295.9147448438102, -4954.107696307623, -1840.7332111279025, -3858.8945697420327, -4867.047651654202, -3740.5420828511815, -2797.2984668372237, -3129.7359621210057, -2023.391666816672, -8259.036631469326, -15549.572175690197, 0.010499999999999999, -0.1005, 0.988, 192.0, 0.0, 0.0, 0.0, 0.0, 0.0, 0.0, 0.0, 0.0, 0.0, 1.645922932332114E9, 0.0, 2022-02-27 11:48:52.332
180.0, -675.9838075618514, -3081.0091592084364, -2243.5116462125357, -9360.351784271215, 39.31671849688512, 524.9083667884311, -4675.850829583505, -1451.4999331831852, -1289.1592132042902, -3995.910763253065, -3754.4672196468377, -2637.036459092672, -3197.6629135206836, -1951.1284769926642, -7880.666301329888, -14505.991578816365, 0.010499999999999999, -0.1005, 0.988, 192.0, 0.0, 0.0, 0.0, 0.0, 0.0, 0.0, 0.0, 0.0, 0.0, 1.645922932339993E9, 0.0, 2022-02-27 11:48:52.339
182.0, -468.76078471669973, -2930.738381235407, -2178.892752992243, -9240.63584096859, 193.96843838315468, 525.7130295888221, -4766.889484749971, -1621.1943770878765, -3271.378966734286, -4377.991482972084, -3524.020734312622, -2656.1248488575043, -2930.157235879569, -1815.0510567487547, -8065.694041930919, -15093.708347524209, 0.010499999999999999, -0.1005, 0.988, 192.0, 0.0, 0.0, 0.0, 0.0, 0.0, 0.0, 0.0, 0.0, 0.0, 1.645922932346788E9, 0.0, 2022-02-27 11:48:52.346
184.0, -952.921921363106, -3290.7355774325824, -2481.2895037280923, -9645.492988287568, -252.39589838932736, 338.6065767534467, -4852.049631124692, -1706.2874682292306, -2476.796803092576, -4598.759662957152, -3904.2686109863057, -2780.355844540101, -3332.220415141632, -2138.7266682060563, -8144.662755091519, -15166.91031061534, 0.010249999999999999, -0.10325000000000001, 0.989, 192.0, 0.0, 40.0, 126.0, 88.0, 15.0, 120.0, 0.0, 0.0, 0.0, 1.645922932354659E9, 0.0, 2022-02-27 11:48:52.354
186.0, -322.468617256715, -2806.149757641525, -2048.5597310733474, -9111.241592316817, 321.66395445632395, 647.0159467477736, -4613.780035231118, -1403.5554413265518, -1800.008332730333, -3890.231715468373, -3540.9857083542, -2569.623597815466, -2981.6556551045965, -1805.2833444217856, -7860.683841786843, -14520.766081901322, 0.010249999999999999, -0.10325000000000001, 0.989, 192.0, 0.0, 0.0, 0.0, 0.0, 0.0, 0.0, 0.0, 0.0, 0.0, 1.645922932362672E9, 0.0, 2022-02-27 11:48:52.362
188.0, -850.9085596690845, -3221.556928343407, -2475.500401914168, -9610.847784381842, -213.3026973369953, 298.55225068953644, -4957.751030653838, -1831.747809856869, -3832.6983252404125, -4834.615270449552, -3716.1563296504414, -2775.773736926763, -3123.8351015848043, -2000.257611305429, -8264.646919327608, -15553.170806547501, 0.010249999999999999, -0.10325000000000001, 0.989, 192.0, 0.0, 0.0, 0.0, 0.0, 0.0, 0.0, 0.0, 0.0, 0.0, 1.645922932369881E9, 0.0, 2022-02-27 11:48:52.369
190.0, -598.9596961688634, -3009.1035972957134, -2240.181236288695, -9361.536426727347, 45.441096477639256, 524.9754220217969, -4658.483524141732, -1454.9421018293026, -1266.8298204934383, -3964.7971349712775, -3738.9104055059443, -2622.641935663454, -3201.5521170559073, -1975.3130644933065, -7886.1871822103485, -14518.01681733332, 0.010249999999999999, -0.10325000000000001, 0.989, 192.0, 0.0, 0.0, 0.0, 0.0, 0.0, 0.0, 0.0, 0.0, 0.0, 1.645922932377498E9, 0.0, 2022-02-27 11:48:52.377
192.0, -384.3829493979156, -2859.101040256148, -2161.95013069512, -9227.78358790679, 201.36686579786132, 535.4807419157913, -4756.4959235782535, -1620.568528243128, -3207.1847566586443, -4350.655299503243, -3494.9187630318124, -2628.9898310887615, -2920.791854952795, -1808.5243473678051, -8063.704736674397, -15078.84443746143, 0.010249999999999999, -0.10325000000000001, 0.989, 192.0, 0.0, 0.0, 0.0, 0.0, 0.0, 0.0, 0.0, 0.0, 0.0, 1.645922932384355E9, 0.0, 2022-02-27 11:48:52.384
194.0, -889.4206153655787, -3233.5374633714514, -2474.1145937579386, -9645.649450498755, -248.97608148766537, 323.7873701795781, -4838.370363518044, -1702.24180248282, -2463.8327913084977, -4596.256267578157, -3887.2142299669067, -2763.972015854361, -3326.9006999612693, -2134.3680780372715, -8146.94263302596, -15169.257243783146, 0.012125, -0.104625, 0.9895, 192.0, 0.0, 56.0, 126.0, 88.0, 15.0, 120.0, 0.0, 0.0, 0.0, 1.645922932392368E9, 0.0, 2022-02-27 11:48:52.392
196.0, -262.0071485051094, -2751.320928492657, -2042.7259257705125, -9110.258115560784, 324.6143847244245, 646.323042669659, -4600.324285069023, -1401.096749436468, -1768.5817800261714, -3888.6447416120463, -3531.4862169606945, -2561.9793012117507, -2974.994835256915, -1805.529213610794, -7858.672184785865, -14517.480375466392, 0.012125, -0.104625, 0.9895, 192.0, 0.0, 0.0, 0.0, 0.0, 0.0, 0.0, 0.0, 0.0, 0.0, 1.645922932399608E9, 0.0, 2022-02-27 11:48:52.399
198.0, -797.8455183321856, -3173.2548085754884, -2470.4489076672685, -9605.66217966821, -206.77598795604564, 292.78550062006724, -4952.565425940207, -1849.003356576366, -3814.459301764882, -4820.578374931619, -3702.3653033215173, -2761.870951875562, -3109.7758543224163, -2006.6278584751915, -8264.736326305429, -15559.585757206174, 0.012125, -0.104625, 0.9895, 192.0, 0.0, 0.0, 0.0, 0.0, 0.0, 0.0, 0.0, 0.0, 0.0, 1.64592293240713E9, 0.0, 2022-02-27 11:48:52.407
200.0, -558.0336520711961, -2967.7305183089397, -2238.7283728991, -9362.944586628031, 40.38960223073986, 521.3320876755819, -4666.597207379009, -1462.6534536663835, -1242.2429015926007, -3979.616341545146, -3734.730629292802, -2612.7401128697534, -3190.599762272807, -1951.8884363041445, -7885.60603685451, -14522.554221457747, 0.012125, -0.104625, 0.9895, 192.0, 0.0, 0.0, 0.0, 0.0, 0.0, 0.0, 0.0, 0.0, 0.0, 1.645922932414939E9, 0.0, 2022-02-27 11:48:52.414
202.0, -333.9127104178322, -2813.1682054004914, -2151.578921267858, -9223.804977393744, 211.38044731383889, 535.0560587711404, -4765.056641704637, -1625.5529672566615, -3178.395709800209, -4331.14222659376, -3494.2929141870636, -2626.0170490762057, -2914.667476972041, -1806.780911300291, -8060.620195939565, -15074.12821938136, 0.012125, -0.104625, 0.9895, 192.0, 0.0, 0.0, 0.0, 0.0, 0.0, 0.0, 0.0, 0.0, 0.0, 1.645922932422977E9, 0.0, 2022-02-27 11:48:52.422
204.0, -845.767658444364, -3193.3937303297203, -2471.7676605901315, -9649.00221216705, -252.75352630061226, 330.7164109607233, -4850.842636924104, -1700.9901047933229, -2482.630608395411, -4587.2708663071235, -3876.038357739253, -2757.5570651956878, -3309.4439875416742, -2121.9852116090315, -8149.46838014941, -15184.38937477939, 0.013062500000000001, -0.1033125, 0.98875, 192.0, 0.0, 56.0, 126.0, 104.0, 15.0, 112.0, 0.0, 0.0, 0.0, 1.645922932431073E9, 0.0, 2022-02-27 11:48:52.431
206.0, -216.94603168321035, -2703.9128785029507, -2035.5957192892695, -9109.811080671678, 324.2120533242289, 659.7787928317539, -4599.698436224275, -1395.2629441336328, -1709.5508229197053, -3867.008252979309, -3517.538728420583, -2545.4390103148235, -2960.8908845056158, -1789.6594750475258, -7853.17365564986, -14500.560104913726, 0.013062500000000001, -0.1033125, 0.98875, 192.0, 0.0, 0.0, 0.0, 0.0, 0.0, 0.0, 0.0, 0.0, 0.0, 1.645922932437565E9, 0.0, 2022-02-27 11:48:52.437
208.0, -738.0769536586945, -3116.168453236634, -2451.2711109246147, -9589.166592260193, -186.21238305716315, 312.6338496963799, -4932.046524530235, -1829.847911578168, -3798.1201765680526, -4797.198450231368, -3678.8736198989895, -2742.514341177266, -3090.9333337465923, -1990.6016577007365, -8253.87337850015, -15545.101826799135, 0.013062500000000001, -0.1033125, 0.98875, 192.0, 0.0, 0.0, 0.0, 0.0, 0.0, 0.0, 0.0, 0.0, 0.0, 1.645922932444687E9, 0.0, 2022-02-27 11:48:52.444
210.0, -515.9676690063083, -2924.7704654658396, -2229.0053640610413, -9353.46744697898, 47.63156743425935, 529.5798813795902, -4669.234713224735, -1474.5892852055176, -1230.0612008644582, -3960.192675613484, -3716.558661050637, -2588.779042813664, -3179.222724345055, -1947.8204188132786, -7883.639083342444, -14528.343323271672, 0.013062500000000001, -0.1033125, 0.98875, 192.0, 0.0, 0.0, 0.0, 0.0, 0.0, 0.0, 0.0, 0.0, 0.0, 1.645922932459197E9, 0.0, 2022-02-27 11:48:52.459
212.0, -297.7028844002348, -2773.9185421369725, -2137.251453072006, -9207.287038241273, 222.4222090747606, 542.0298030411963, -4758.351118368044, -1631.565586515139, -3131.457046444064, -4299.201583767126, -3467.2025999072316, -2595.551621383622, -2893.5003749728653, -1784.652684289537, -8047.857349855584, -15063.444085531723, 0.013062500000000001, -0.1033125, 0.98875, 192.0, 0.0, 0.0, 0.0, 0.0, 0.0, 0.0, 0.0, 0.0, 0.0, 1.64592293246719E9, 0.0, 2022-02-27 11:48:52.467
214.0, -821.3595534991687, -3164.6940904491057, -2464.101012241961, -9638.809816695431, -256.21804669118484, 327.78833243707805, -4864.320738830655, -1714.7140758888813, -2456.970805760718, -4574.820944645518, -3854.1783516619626, -2739.7203731203526, -3298.8492606698587, -2115.0785225723416, -8149.580138871687, -15182.847104411972, 0.013531250000000002, -0.10365625, 0.987375, 192.0, 0.0, 56.0, 126.0, 96.0, 15.0, 104.0, 0.0, 0.0, 0.0, 1.64592293247535E9, 0.0, 2022-02-27 11:48:52.475
216.0, -203.5349850100261, -2693.1840411644034, -2032.8241029768114, -9108.648789960002, 312.3879805073715, 656.7389555858321, -4641.920881500349, -1407.8246245175153, -1700.2524972262977, -3857.6875755414458, -3507.5922021379715, -2536.4759607882456, -2968.0657944757695, -1787.6701697910037, -7861.935539476341, -14503.666997393013, 0.013531250000000002, -0.10365625, 0.987375, 192.0, 0.0, 0.0, 0.0, 0.0, 0.0, 0.0, 0.0, 0.0, 0.0, 1.645922932482E9, 0.0, 2022-02-27 11:48:52.482
218.0, -729.516235532312, -3108.255935699455, -2452.4781051252016, -9596.94499933064, -205.7478077111015, 290.75149187463427, -4958.2204172874, -1860.358042759662, -3795.460318977871, -4793.197487973868, -3668.3235965160843, -2731.897262560995, -3090.888630257682, -1997.195422315052, -8266.21154143948, -15557.55174846074, 0.013531250000000002, -0.10365625, 0.987375, 192.0, 0.0, 0.0, 0.0, 0.0, 0.0, 0.0, 0.0, 0.0, 0.0, 1.645922932489869E9, 0.0, 2022-02-27 11:48:52.489
220.0, -511.07263697059597, -2924.05520964327, -2226.434913448681, -9362.408144761104, 36.545102184427044, 516.7276283177887, -4669.927617302849, -1477.092680584512, -1222.260442049556, -3965.7806117273108, -3714.725818005302, -2594.299923694125, -3186.2411721040216, -1961.2538172309182, -7885.628388598966, -14534.512404741337, 0.013531250000000002, -0.10365625, 0.987375, 192.0, 0.0, 0.0, 0.0, 0.0, 0.0, 0.0, 0.0, 0.0, 0.0, 1.645922932497906E9, 0.0, 2022-02-27 11:48:52.497
222.0, -287.0858057839639, -2770.901056635506, -2133.272842558961, -9207.510555685825, 213.41445605927183, 540.8898640739756, -4759.46870559081, -1628.5704527581279, -3130.7641423659497, -4301.0567785569165, -3469.2142569082093, -2603.41943543189, -2902.1728518215245, -1789.234791902875, -8049.399620223001, -15065.54514951052, 0.013531250000000002, -0.10365625, 0.987375, 192.0, 0.0, 0.0, 0.0, 0.0, 0.0, 0.0, 0.0, 0.0, 0.0, 1.645922932505198E9, 0.0, 2022-02-27 11:48:52.505
224.0, -831.0602105927719, -3178.9992069005025, -2474.0028350356624, -9648.91280518923, -275.23938122265116, 320.9039951448435, -4880.659864027484, -1719.6538114135042, -2535.73835322122, -4605.442834549289, -3862.850828510622, -2751.008004070283, -3312.1709003652218, -2131.015316368975, -8162.298281466757, -15211.703206503775, 0.014765625000000001, -0.105828125, 0.9906874999999999, 192.0, 0.0, 64.0, 126.0, 80.0, 15.5, 8.0, 0.0, 0.0, 0.0, 1.645922932511473E9, 0.0, 2022-02-27 11:48:52.511
226.0, -215.33670608242824, -2708.2714686717354, -2041.1389519141856, -9118.796481942712, 302.8214338805001, 640.3774786445473, -4582.599351715965, -1412.965525742236, -1677.699587070893, -3863.4766773553706, -3528.312269248041, -2544.656699258888, -2984.181402228046, -1818.0238387613106, -7853.21835913877, -14498.615503146113, 0.014765625000000001, -0.105828125, 0.9906874999999999, 192.0, 0.0, 0.0, 0.0, 0.0, 0.0, 0.0, 0.0, 0.0, 0.0, 1.645922932519572E9, 0.0, 2022-02-27 11:48:52.519
228.0, -731.706706488932, -3115.1849764806007, -2453.4168783923246, -9598.911952842707, -200.20457508618537, 292.78550062006724, -4929.386666940054, -1850.9926618328884, -3815.2192610763627, -4809.00017130377, -3682.4498990118386, -2749.5327889362325, -3101.304543173855, -2004.325628796295, -8250.073581942748, -15549.058085567724, 0.014765625000000001, -0.105828125, 0.9906874999999999, 192.0, 0.0, 0.0, 0.0, 0.0, 0.0, 0.0, 0.0, 0.0, 0.0, 1.645922932527709E9, 0.0, 2022-02-27 11:48:52.527
230.0, -516.973497506797, -2929.1067038901692, -2235.599128675357, -9376.33328155676, 24.452808434105926, 514.1795294498837, -4656.53892237412, -1478.2996747850984, -1240.00772714707, -3985.9865887149085, -3730.59555656857, -2602.0336272756613, -3192.365550084776, -1969.3675004681947, -7879.325196662569, -14540.457968766448, 0.014765625000000001, -0.105828125, 0.9906874999999999, 192.0, 0.0, 0.0, 0.0, 0.0, 0.0, 0.0, 0.0, 0.0, 0.0, 1.645922932535935E9, 0.0, 2022-02-27 11:48:52.535
232.0, -268.33269218596126, -2750.9856523258272, -2127.2155198115734, -9204.694235884457, 222.33280209693936, 543.8849978309868, -4748.493999063254, -1616.4111037744408, -3092.6097145807403, -4288.718615617588, -3472.2317424096755, -2601.2736679641807, -2896.2943430297787, -1793.7721960273025, -8034.200433993392, -15044.556861466988, 0.014765625000000001, -0.105828125, 0.9906874999999999, 192.0, 0.0, 0.0, 0.0, 0.0, 0.0, 0.0, 0.0, 0.0, 0.0, 1.645922932542247E9, 0.0, 2022-02-27 11:48:52.542
234.0, -819.8619866206631, -3172.6736632196503, -2471.0300530231066, -9651.013869168028, -258.1626484587966, 314.04200959706424, -4869.461640055375, -1724.2582707712975, -2531.178597352338, -4605.219317104736, -3862.33673838815, -2741.7320301213304, -3302.9843333940908, -2126.5002639890035, -8153.178769728991, -15214.072491416036, 0.02, -0.112, 0.992, 192.0, 0.0, 80.0, 126.0, 64.0, 15.5, 0.0, 0.0, 0.0, 0.0, 1.645922932550275E9, 0.0, 2022-02-27 11:48:52.550
236.0, -200.15987159727476, -2689.8536312405627, -2034.8581117222443, -9115.75664469679, 313.14793981885197, 658.2812259532483, -4609.6896659957965, -1408.226955917711, -1665.3167206426526, -3861.3532616321163, -3522.3890569673845, -2535.5371875211226, -2971.083279977236, -1797.2143646734196, -7844.389420078925, -14497.699081623447, 0.02, -0.112, 0.992, 192.0, 0.0, 0.0, 0.0, 0.0, 0.0, 0.0, 0.0, 0.0, 0.0, 1.645922932558291E9, 0.0, 2022-02-27 11:48:52.558
238.0, -708.192671321949, -3089.391063379176, -2449.371212645914, -9582.148144501227, -192.91790639375526, 304.78838739256713, -4954.577082941185, -1856.1112113131537, -3801.919973125455, -4786.134336725991, -3667.317768015596, -2733.1713119949477, -3075.1977056500564, -1981.1021663072308, -8245.022087695848, -15546.040600066257, 0.02, -0.112, 0.992, 192.0, 0.0, 0.0, 0.0, 0.0, 0.0, 0.0, 0.0, 0.0, 0.0, 1.64592293256491E9, 0.0, 2022-02-27 11:48:52.564
240.0, -529.1104947460287, -2939.7237825064403, -2248.227864292606, -9378.076717624273, 17.233194975041744, 508.5021863582357, -4666.485448656732, -1477.2714945401544, -1248.9484249291927, -3987.104175937674, -3735.2000159263634, -2601.296019708636, -3193.9972274300135, -1964.8524480882227, -7885.002539754217, -14540.25680306635, 0.02, -0.112, 0.992, 192.0, 0.0, 0.0, 0.0, 0.0, 0.0, 0.0, 0.0, 0.0, 0.0, 1.645922932579929E9, 0.0, 2022-02-27 11:48:52.579
242.0, -279.083881268964, -2761.803896642196, -2137.1396943497293, -9203.643703895057, 220.83523521843378, 550.165838022928, -4738.860397203016, -1605.9281356249019, -3093.4143773811315, -4304.476595458579, -3482.804117537036, -2612.0919122805494, -2903.4916047443876, -1801.7294170533917, -8035.116855516059, -15042.366390510368, 0.02, -0.112, 0.992, 192.0, 0.0, 0.0, 0.0, 0.0, 0.0, 0.0, 0.0, 0.0, 0.0, 1.645922932587044E9, 0.0, 2022-02-27 11:48:52.587
244.0, -829.540291969811, -3178.3510063112985, -2487.6373991533997, -9659.798104738964, -281.9672563036986, 314.9137276308212, -4885.309026874188, -1739.6362709565487, -2607.8674325784964, -4640.378611132934, -3873.266741426795, -2763.5249809652546, -3306.3147433179315, -2133.876339659255, -8166.053374535249, -15243.152110952391, 0.014, -0.112, 0.994, 192.0, 0.0, 56.0, 126.0, 64.0, 15.5, 8.0, 0.0, 0.0, 0.0, 1.645922932594462E9, 0.0, 2022-02-27 11:48:52.594
246.0, -209.569956012959, -2696.9838377218057, -2050.0796496963085, -9126.127854124052, 297.63582916686886, 654.3920224180249, -4607.186270616802, -1407.9810867287024, -1638.8075517186585, -3862.0238139657754, -3531.9779553387116, -2543.628519013944, -2987.3329981962443, -1806.7138560669252, -7852.592510294022, -14491.77586934279, 0.014, -0.112, 0.994, 192.0, 0.0, 0.0, 0.0, 0.0, 0.0, 0.0, 0.0, 0.0, 0.0, 1.645922932602655E9, 0.0, 2022-02-27 11:48:52.602
248.0, -712.2606888128148, -3095.8060140378493, -2450.8017242910537, -9594.352196973825, -188.2463918025961, 307.0012100936425, -4937.947385066436, -1864.9625021174554, -3823.914089669477, -4799.3442176990775, -3674.112698330009, -2753.0420128157157, -3082.551429575852, -1995.0720065917978, -8247.123151674647, -15547.784036133771, 0.014, -0.112, 0.994, 192.0, 0.0, 0.0, 0.0, 0.0, 0.0, 0.0, 0.0, 0.0, 0.0, 1.645922932610683E9, 0.0, 2022-02-27 11:48:52.610
250.0, -538.9005588174533, -2948.7985907552948, -2260.1189923428287, -9397.790956233854, 4.380941913240184, 500.09793044304024, -4685.797355866117, -1486.3686545334645, -1269.9143612282708, -4006.393731402604, -3746.6888125763912, -2617.188110016359, -3198.5346315544407, -1989.1040908222308, -7883.415565897891, -14560.395724820582, 0.014, -0.112, 0.994, 192.0, 0.0, 0.0, 0.0, 0.0, 0.0, 0.0, 0.0, 0.0, 0.0, 1.645922932617131E9, 0.0, 2022-02-27 11:48:52.617
252.0, -267.3939189188384, -2753.3325854936347, -2136.8044181829, -9204.135442273075, 229.4630085781823, 548.2435879997716, -4741.609661771019, -1626.4470370348738, -3068.2910166133665, -4280.9178568026855, -3485.665140827315, -2615.265859993203, -2901.1670233210357, -1798.6448763185592, -8029.663029868964, -15028.105977547883, 0.014, -0.112, 0.994, 192.0, 0.0, 0.0, 0.0, 0.0, 0.0, 0.0, 0.0, 0.0, 0.0, 1.645922932625199E9, 0.0, 2022-02-27 11:48:52.625
254.0, -825.9193093680512, -3174.595913242807, -2489.202021265271, -9658.38994483828, -274.3229596999836, 324.32381204650545, -4857.346994560599, -1726.9404801059343, -2593.3164469380913, -4628.688648782808, -3871.2774361702727, -2757.6688239179643, -3299.743330448071, -2127.126112833752, -8156.196255230458, -15238.01120972767, 0.014, -0.108, 0.99, 192.0, 0.0, 56.0, 126.0, 80.0, 15.0, 120.0, 0.0, 0.0, 0.0, 1.645922932632173E9, 0.0, 2022-02-27 11:48:52.632
0.0, -207.87122343435567, -2691.8652882415404, -2050.5043328409593, -9119.66819997647, 307.2917827715615, 661.611635877089, -4580.3418255259785, -1394.6594470333396, -1642.205016875865, -3836.6322322645465, -3527.7534756366585, -2540.7674957236645, -2975.9112567795823, -1781.2552191323305, -7838.600318265, -14480.331776181672, 0.014, -0.108, 0.99, 192.0, 0.0, 0.0, 0.0, 0.0, 0.0, 0.0, 0.0, 0.0, 0.0, 1.645922932640355E9, 0.0, 2022-02-27 11:48:52.640
2.0, -705.1528340760273, -3092.9002872586593, -2446.756058544643, -9581.812868334398, -191.66620870425805, 321.2169195672178, -4939.333193222666, -1852.6243391781259, -3818.773188444756, -4779.965255256326, -3664.1885237918527, -2735.764114351763, -3068.760403246928, -1984.3431692532504, -8238.16010214807, -15539.782111618772, 0.014, -0.108, 0.99, 192.0, 0.0, 0.0, 0.0, 0.0, 0.0, 0.0, 0.0, 0.0, 0.0, 1.645922932646745E9, 0.0, 2022-02-27 11:48:52.646
4.0, -529.8033988241433, -2943.3671168526553, -2253.9275591287087, -9381.742403714945, 0.9611250115782037, 515.297116672649, -4683.4727744427655, -1497.8350994390369, -1255.7880587325167, -3980.5104113233583, -3740.050344473165, -2602.6818278648648, -3194.913648952681, -1976.2741895048846, -7887.595342111033, -14555.612451507146, 0.014, -0.108, 0.99, 192.0, 0.0, 0.0, 0.0, 0.0, 0.0, 0.0, 0.0, 0.0, 0.0, 1.645922932654862E9, 0.0, 2022-02-27 11:48:52.654
6.0, -268.60091311942494, -2760.3063297636904, -2132.1329035917406, -9193.96539854591, 222.19869163020752, 545.0025850537521, -4738.994507669748, -1617.4169322749296, -3064.4688683115087, -4276.626321867267, -3485.9110100163234, -2604.8275953325747, -2898.529517475309, -1807.7420363118692, -8026.489082156311, -15031.88342236083, 0.014, -0.108, 0.99, 192.0, 0.0, 0.0, 0.0, 0.0, 0.0, 0.0, 0.0, 0.0, 0.0, 1.645922932662926E9, 0.0, 2022-02-27 11:48:52.662
8.0, -827.7521524133864, -3172.9195324086586, -2489.939628832296, -9654.210168625137, -290.34916047443875, 304.9672013482096, -4880.68221577194, -1751.7956199402358, -2641.350345772546, -4632.801369762584, -3871.4115466370044, -2756.3277192506457, -3302.336132804887, -2134.8821681597433, -8163.192351244968, -15253.836244802029, 0.012, -0.10400000000000001, 0.986, 192.0, 0.0, 48.0, 126.0, 96.0, 15.0, 104.0, 0.0, 0.0, 0.0, 1.645922932669926E9, 0.0, 2022-02-27 11:48:52.669
10.0, -205.0772553774423, -2697.2744103997243, -2046.5927775612806, -9123.33388606714, 291.8020238640337, 642.5455978567121, -4598.960828657249, -1414.6642583208393, -1613.728894439804, -3839.8955869550214, -3527.731123892203, -2539.4934462897118, -2978.347596925211, -1804.6351438325817, -7836.387495563924, -14483.841000061155, 0.012, -0.10400000000000001, 0.986, 192.0, 0.0, 0.0, 0.0, 0.0, 0.0, 0.0, 0.0, 0.0, 0.0, 1.645922932677317E9, 0.0, 2022-02-27 11:48:52.677
12.0, -681.1470605310275, -3072.716662015517, -2441.659860808833, -9573.967406030584, -187.82170865794524, 304.63192518138, -4943.244748502344, -1861.4532782379722, -3816.225089576851, -4770.823391774105, -3649.81635210709, -2728.7903700817074, -3061.004347920936, -1984.164355297608, -8235.366134091155, -15544.721847143395, 0.012, -0.10400000000000001, 0.986, 192.0, 0.0, 0.0, 0.0, 0.0, 0.0, 0.0, 0.0, 0.0, 0.0, 1.645922932685481E9, 0.0, 2022-02-27 11:48:52.685
14.0, -518.5828231075792, -2927.631488756119, -2260.186047576195, -9387.95618867352, -5.699694836103301, 505.30588690112677, -4702.136481062947, -1515.4035705809083, -1261.8677332243603, -3985.427795103526, -3733.9259664924107, -2601.0725022640827, -3193.527840796452, -1976.29654124934, -7890.813993312597, -14570.990451692398, 0.012, -0.10400000000000001, 0.986, 192.0, 0.0, 0.0, 0.0, 0.0, 0.0, 0.0, 0.0, 0.0, 0.0, 1.645922932692481E9, 0.0, 2022-02-27 11:48:52.692
16.0, -237.4202296042716, -2724.342372935101, -2126.1426360777186, -9180.241427450352, 227.51840681057058, 567.5331434647017, -4750.617414786508, -1607.9174408814242, -3015.3173822542885, -4238.69541152661, -3470.421251108796, -2585.359225912002, -2891.9357528609935, -1779.3553208536293, -8027.4725589123445, -15014.918448319251, 0.012, -0.10400000000000001, 0.986, 192.0, 0.0, 0.0, 0.0, 0.0, 0.0, 0.0, 0.0, 0.0, 0.0, 1.645922932707116E9, 0.0, 2022-02-27 11:48:52.707
18.0, -808.9319835820179, -3157.3180147788544, -2490.4090154658575, -9652.980822680096, -286.9963988061427, 316.2324805536843, -4853.927177658937, -1747.302919304719, -2646.804171419641, -4617.021038177138, -3862.3814418770603, -2745.5318266787326, -3295.0271123680013, -2113.4915487160147, -8163.28175822279, -15256.294936692113, 0.014, -0.10200000000000001, 0.988, 192.0, 0.0, 56.0, 126.0, 104.0, 15.0, 112.0, 0.0, 0.0, 0.0, 1.645922932715016E9, 0.0, 2022-02-27 11:48:52.715
20.0, -181.11618532135313, -2668.060680396638, -2047.5986060617695, -9117.880060420044, 290.5726779189918, 649.2958246822149, -4588.835488418995, -1413.2337466756996, -1593.3217517521086, -3821.4777495238486, -3520.153882521854, -2528.4069810398796, -2972.133811966635, -1788.6759982914923, -7830.732504216731, -14475.570854612692, 0.014, -0.10200000000000001, 0.988, 192.0, 0.0, 0.0, 0.0, 0.0, 0.0, 0.0, 0.0, 0.0, 0.0, 1.645922932722188E9, 0.0, 2022-02-27 11:48:52.722
22.0, -658.1471154865164, -3049.917882671104, -2436.362497372925, -9561.428077391158, -179.84213588740062, 320.3228497890055, -4934.862844331604, -1858.74871715888, -3804.825699904645, -4750.41624908641, -3642.0602967810987, -2714.999343752783, -3053.2706443394, -1962.840791087245, -8232.661573012063, -15533.300105726732, 0.014, -0.10200000000000001, 0.988, 192.0, 0.0, 0.0, 0.0, 0.0, 0.0, 0.0, 0.0, 0.0, 0.0, 1.645922932729668E9, 0.0, 2022-02-27 11:48:52.729
24.0, -502.71308454431113, -2904.5644884782423, -2258.1520388307617, -9379.216656591494, -0.3352761668296059, 510.75971254822167, -4689.954780334804, -1493.8117854370817, -1253.1505528867904, -3969.3345390957047, -3728.9638792233327, -2580.620656087477, -3186.10706163729, -1958.2363317294516, -7893.1162229914935, -14561.133332387608, 0.014, -0.10200000000000001, 0.988, 192.0, 0.0, 0.0, 0.0, 0.0, 0.0, 0.0, 0.0, 0.0, 0.0, 1.645922932737638E9, 0.0, 2022-02-27 11:48:52.737
26.0, -221.34932534090584, -2706.6174395820426, -2116.5090342174813, -9173.155924458018, 232.72636326865714, 563.1298498070062, -4712.127710834469, -1602.6871326788823, -2993.859707577194, -4217.237736849515, -3462.3746231048854, -2574.004539728706, -2885.2302295244017, -1774.4155853290065, -8017.68249484092, -14997.707605088664, 0.014, -0.10200000000000001, 0.988, 192.0, 0.0, 0.0, 0.0, 0.0, 0.0, 0.0, 0.0, 0.0, 0.0, 1.645922932745678E9, 0.0, 2022-02-27 11:48:52.745
28.0, -797.800814843275, -3142.9011396051815, -2485.5139834301453, -9652.645546513266, -296.20531752172917, 306.6212304379023, -4891.098128688112, -1756.1542101090206, -2669.066508897127, -4623.614802791453, -3851.0938109271306, -2737.35108820809, -3288.5451064759623, -2115.637316183724, -8169.517894925821, -15266.934367052838, 0.016, -0.10200000000000001, 0.99, 192.0, 0.0, 64.0, 126.0, 104.0, 15.0, 120.0, 0.0, 0.0, 0.0, 1.645922932752246E9, 0.0, 2022-02-27 11:48:52.752
30.0, -192.18029882673014, -2676.8225642231187, -2048.895007240177, -9126.217261101874, 279.2179917356958, 637.9411384989189, -4591.4953460091765, -1417.3688193999315, -1569.4500886738408, -3815.0627988651754, -3524.735990135192, -2524.7636466936647, -2979.4651841479763, -1793.9957134718554, -7835.605184507988, -14471.748706310835, 0.016, -0.10200000000000001, 0.99, 192.0, 0.0, 0.0, 0.0, 0.0, 0.0, 0.0, 0.0, 0.0, 0.0, 1.645922932759283E9, 0.0, 2022-02-27 11:48:52.759
32.0, -648.6476240930109, -3046.006327391425, -2426.52772981259, -9561.629243091254, -164.71000489115775, 312.9691258632095, -4922.9046610480145, -1858.5475514587822, -3822.1259501130526, -4758.8428567460605, -3646.86592183899, -2721.1460734779926, -3056.779868218883, -1977.481183705471, -8231.789854978306, -15533.970658060392, 0.016, -0.10200000000000001, 0.99, 192.0, 0.0, 0.0, 0.0, 0.0, 0.0, 0.0, 0.0, 0.0, 0.0, 1.645922932767307E9, 0.0, 2022-02-27 11:48:52.767
34.0, -528.4622941568249, -2929.4866835459097, -2270.2890360699935, -9417.5722500768, -23.49168342252772, 477.9026481989203, -4692.704044902807, -1520.3880095944417, -1303.7549023336057, -4015.446187907003, -3753.1261149795196, -2602.6371243759545, -3207.4529775921083, -1997.9106781376217, -7900.022912028184, -14599.690091573011, 0.016, -0.10200000000000001, 0.99, 192.0, 0.0, 0.0, 0.0, 0.0, 0.0, 0.0, 0.0, 0.0, 0.0, 1.645922932775389E9, 0.0, 2022-02-27 11:48:52.775
36.0, -211.7604269695791, -2692.8487649975737, -2108.0824265578303, -9178.520343127293, 238.13548542684146, 570.908256877453, -4732.825426200084, -1596.182775042388, -2943.0318406858255, -4206.151271599683, -3461.614663793405, -2573.5575048396, -2884.1126423016362, -1778.8635824756125, -8009.077073225627, -14980.429706624713, 0.016, -0.10200000000000001, 0.99, 192.0, 0.0, 0.0, 0.0, 0.0, 0.0, 0.0, 0.0, 0.0, 0.0, 1.645922932781827E9, 0.0, 2022-02-27 11:48:52.781
38.0, -798.5160706658448, -3145.270424517444, -2489.179669520816, -9666.458924586645, -288.6057244069248, 305.86127112642185, -4862.711413229873, -1770.5934370271489, -2700.850689512574, -4625.693515025797, -3851.004403949309, -2734.378306195534, -3287.740443675571, -2122.856929642788, -8171.842476349173, -15277.931425324849, 0.01, -0.106, 0.994, 192.0, 0.0, 40.0, 126.0, 88.0, 15.5, 8.0, 0.0, 0.0, 0.0, 1.645922932789867E9, 0.0, 2022-02-27 11:48:52.789
40.0, -184.1783743117302, -2667.8595146965404, -2048.313861884339, -9134.9567931839, 283.598933648936, 638.9916704883183, -4594.1328518549035, -1426.443627648786, -1549.0429459861455, -3806.65854294998, -3523.9313273348007, -2524.8754054159413, -2981.4544894044984, -1808.077312478699, -7832.252422839692, -14473.335680167162, 0.01, -0.106, 0.994, 192.0, 0.0, 0.0, 0.0, 0.0, 0.0, 0.0, 0.0, 0.0, 0.0, 1.645922932797969E9, 0.0, 2022-02-27 11:48:52.797
42.0, -645.7195455693658, -3033.042315607347, -2428.651145535844, -9568.51358038349, -183.10549057787546, 306.9565066047319, -4945.256405503322, -1876.9877406344106, -3811.75474068579, -4731.5513767661305, -3629.945651286322, -2717.413332153956, -3051.594263505252, -1964.7853928548568, -8237.690715514507, -15533.814195849205, 0.01, -0.106, 0.994, 192.0, 0.0, 0.0, 0.0, 0.0, 0.0, 0.0, 0.0, 0.0, 0.0, 1.645922932804472E9, 0.0, 2022-02-27 11:48:52.804
44.0, -517.5546428626351, -2922.1553113645687, -2263.762326689044, -9402.171898147095, -18.283726964441176, 491.9618954613085, -4679.672977885363, -1517.9740211932685, -1276.9551607316926, -4003.5997633456905, -3738.4186671279276, -2597.585630129055, -3207.3188671253765, -1995.362579269717, -7901.766348095697, -14586.010823966364, 0.01, -0.106, 0.994, 192.0, 0.0, 0.0, 0.0, 0.0, 0.0, 0.0, 0.0, 0.0, 0.0, 1.645922932812538E9, 0.0, 2022-02-27 11:48:52.812
46.0, -206.03838038902052, -2697.2073551663584, -2108.283592257928, -9169.222017433884, 255.77101180207873, 574.8868673904976, -4708.372617765977, -1591.8688883625136, -2953.0007187128926, -4219.942297928607, -3460.4747248261842, -2568.8636385039854, -2895.4673284849323, -1789.301847136241, -8010.999323248783, -14984.67653807122, 0.009000000000000001, -0.10500000000000001, 0.992, 192.0, 0.0, 32.0, 126.0, 96.0, 15.0, 120.0, 0.0, 0.0, 0.0, 1.645922932827741E9, 0.0, 2022-02-27 11:48:52.827
48.0, -797.2867247208029, -3140.2859855039105, -2489.0008555651734, -9650.656241256744, -280.38028244737177, 313.79614040805586, -4882.112727417079, -1753.047317629733, -2715.1781577084253, -4645.228939679735, -3850.132685915552, -2726.6222508695428, -3288.969789620613, -2111.8822231152326, -8176.670453151519, -15278.73608812524, 0.009000000000000001, -0.10500000000000001, 0.992, 192.0, 0.0, 0.0, 0.0, 0.0, 0.0, 0.0, 0.0, 0.0, 0.0, 1.645922932834234E9, 0.0, 2022-02-27 11:48:52.834
50.0, -190.4815662481268, -2671.4357938093895, -2047.9785857175095, -9122.32805756665, 278.4356806797601, 647.8206095481646, -4596.613895489442, -1421.5932991019845, -1545.1984459398325, -3813.1629005864743, -3526.434722713795, -2508.759797663665, -2985.0978237507134, -1798.980152485389, -7834.577004263045, -14458.67293580448, 0.009000000000000001, -0.10500000000000001, 0.992, 192.0, 0.0, 0.0, 0.0, 0.0, 0.0, 0.0, 0.0, 0.0, 0.0, 1.645922932842159E9, 0.0, 2022-02-27 11:48:52.842
52.0, -647.3065194256925, -3040.3513360442325, -2420.537462298568, -9553.627318576255, -178.05399633097605, 316.41129450932675, -4939.4002484560315, -1866.907103885067, -3820.807197190189, -4737.4745890467875, -3633.209005976797, -2705.186927936903, -3051.1695803606012, -1954.682404361058, -8233.421532323544, -15525.856974823115, 0.009000000000000001, -0.10500000000000001, 0.992, 192.0, 0.0, 0.0, 0.0, 0.0, 0.0, 0.0, 0.0, 0.0, 0.0, 1.645922932850247E9, 0.0, 2022-02-27 11:48:52.850
54.0, -531.3680209360148, -2934.7840469818175, -2265.9975011345746, -9408.989180205963, -22.59761364431544, 486.5527733031241, -4695.162736792891, -1521.5279485616625, -1292.2661056835777, -4022.1517112435954, -3746.442943387383, -2600.3125429526026, -3207.8329572478483, -1985.3937012426497, -7904.336798708057, -14593.677472314534, 0.009000000000000001, -0.10500000000000001, 0.992, 192.0, 0.0, 0.0, 0.0, 0.0, 0.0, 0.0, 0.0, 0.0, 0.0, 1.645922932857422E9, 0.0, 2022-02-27 11:48:52.857
56.0, -217.03543866103158, -2703.644657569487, -2101.3321997323274, -9179.280302438772, 253.08880246744187, 560.8946753614754, -4694.3357222480445, -1602.5083187232399, -2937.86858771665, -4216.701294982588, -3467.6943382852483, -2579.36895839798, -2892.8521743836613, -1777.4554225749282, -8004.472613867833, -14976.831075767408, 0.0105, -0.10550000000000001, 0.992, 192.0, 0.0, 48.0, 126.0, 88.0, 15.5, 0.0, 0.0, 0.0, 0.0, 1.645922932864847E9, 0.0, 2022-02-27 11:48:52.864
58.0, -796.0797305202163, -3140.531854692919, -2480.5295444166118, -9662.346203606869, -283.9118580713103, 295.82533786598896, -4865.974767920347, -1781.1211086655985, -2729.3938671820006, -4648.134666458925, -3848.791581248234, -2743.095486533104, -3279.7608709050264, -2128.958955879087, -8172.043642049271, -15297.064518578592, 0.0105, -0.10550000000000001, 0.992, 192.0, 0.0, 0.0, 0.0, 0.0, 0.0, 0.0, 0.0, 0.0, 0.0, 1.645922932872827E9, 0.0, 2022-02-27 11:48:52.872
60.0, -182.97138011114362, -2663.0538896386493, -2037.1826931455962, -9120.674028476957, 294.9312680877767, 648.6923275819215, -4579.268941792124, -1412.1161594529342, -1529.3063556321092, -3799.684798679924, -3515.7952923530693, -2503.3506755054805, -2974.056061989792, -1802.265858920319, -7826.731541959231, -14463.031525973265, 0.0105, -0.10550000000000001, 0.992, 192.0, 0.0, 0.0, 0.0, 0.0, 0.0, 0.0, 0.0, 0.0, 0.0, 1.645922932879955E9, 0.0, 2022-02-27 11:48:52.879
62.0, -626.1617691709721, -3014.6021264317187, -2404.757130713121, -9537.6011178018, -154.09292627488688, 325.9778411361982, -4918.702533090417, -1853.071374067232, -3806.1221010830527, -4729.942051165349, -3612.7124563112807, -2681.359968347546, -3031.142417328646, -1943.3724216666726, -8227.319506087244, -15522.303047454721, 0.0105, -0.10550000000000001, 0.992, 192.0, 0.0, 0.0, 0.0, 0.0, 0.0, 0.0, 0.0, 0.0, 0.0, 1.645922932887189E9, 0.0, 2022-02-27 11:48:52.887
64.0, -519.4545411413361, -2914.24279382739, -2256.9003411412646, -9398.685026012066, -15.892090307723322, 494.48764258475813, -4677.25898948419, -1521.0362101836456, -1283.2136491791784, -4008.4277401480367, -3732.853082758556, -2579.8383450315414, -3197.9534861986026, -1975.067195304298, -7903.196859740837, -14597.857248527676, 0.0105, -0.10550000000000001, 0.992, 192.0, 0.0, 0.0, 0.0, 0.0, 0.0, 0.0, 0.0, 0.0, 0.0, 1.645922932894469E9, 0.0, 2022-02-27 11:48:52.894
66.0, -200.22692683064068, -2692.737006275297, -2094.3584554622716, -9159.834284762655, 262.83416304995575, 577.2114488138496, -4697.666132171886, -1604.3635135130303, -2916.3662095506443, -4198.9763616295295, -3453.456277067218, -2562.1804669118487, -2886.817203380728, -1772.0463004167439, -8004.897297012484, -14973.835942010397, 0.01025, -0.10775000000000001, 0.993, 192.0, 0.0, 40.0, 126.0, 72.0, 15.5, 8.0, 0.0, 0.0, 0.0, 1.645922932902545E9, 0.0, 2022-02-27 11:48:52.902
68.0, -804.1040067796716, -3150.6795466756284, -2487.7044543867655, -9665.408392597246, -280.4920411696483, 297.32290474449456, -4870.847448211604, -1786.5525825682382, -2751.5220941927546, -4654.035526995126, -3844.6565085240018, -2737.7534196082856, -3285.058234340934, -2115.2126330390734, -8177.09513629617, -15303.434765748354, 0.01025, -0.10775000000000001, 0.993, 192.0, 0.0, 0.0, 0.0, 0.0, 0.0, 0.0, 0.0, 0.0, 0.0, 1.645922932910489E9, 0.0, 2022-02-27 11:48:52.910
70.0, -204.80903444397862, -2682.969293948328, -2053.253597408962, -9136.923746695966, 289.67860814077955, 645.1384002135278, -4582.711110438241, -1415.9159560103365, -1528.5016928317182, -3810.7712639297565, -3529.0051733261557, -2522.126140847938, -2984.136698739135, -1798.0637309627214, -7828.474978026746, -14458.158845682008, 0.01025, -0.10775000000000001, 0.993, 192.0, 0.0, 0.0, 0.0, 0.0, 0.0, 0.0, 0.0, 0.0, 0.0, 1.645922932917099E9, 0.0, 2022-02-27 11:48:52.917
72.0, -637.3376413986256, -3029.130760327668, -2410.9709156716963, -9538.31637362437, -140.74893483506858, 330.62700398290207, -4914.120425477079, -1858.74871715888, -3833.882967696544, -4737.27342334669, -3630.7056105978027, -2711.601878595576, -3038.563196487808, -1946.9487007795217, -8227.833596209717, -15514.949323528925, 0.01025, -0.10775000000000001, 0.993, 192.0, 0.0, 0.0, 0.0, 0.0, 0.0, 0.0, 0.0, 0.0, 0.0, 1.645922932925222E9, 0.0, 2022-02-27 11:48:52.925
74.0, -564.3815474965033, -2959.058041460281, -2280.6155420083455, -9423.696628057556, -20.63066013224842, 484.138784901951, -4666.239579467724, -1527.9652509647908, -1345.8879406318595, -4052.259511024894, -3765.1513534964747, -2611.577822158077, -3216.460730607597, -1991.0486925898426, -7910.483528433268, -14613.45876615748, 0.01025, -0.10775000000000001, 0.993, 192.0, 0.0, 0.0, 0.0, 0.0, 0.0, 0.0, 0.0, 0.0, 0.0, 1.645922932933157E9, 0.0, 2022-02-27 11:48:52.933
76.0, -215.29200259351762, -2700.6942273013865, -2088.2117257370624, -9155.028659704765, 275.0382155225534, 585.3698355400367, -4678.533038918143, -1592.181812784888, -2881.631598667097, -4190.3485882697805, -3465.794440006547, -2572.484621105745, -2883.196220778969, -1772.9627219394115, -7989.765166016241, -14938.00609564854, 0.011125, -0.10387500000000001, 0.9895, 192.0, 0.0, 48.0, 126.0, 112.0, 15.0, 104.0, 0.0, 0.0, 0.0, 1.645922932940315E9, 0.0, 2022-02-27 11:48:52.940
78.0, -833.8988821385959, -3178.6639307336727, -2487.547992175578, -9660.759229750542, -280.62615163638014, 307.49294847165925, -4866.8464859541045, -1783.8703732336014, -2804.2051558739136, -4667.424221923855, -3850.3785551045607, -2742.1343615215255, -3276.0504813254456, -2109.7141039030676, -8181.453726464954, -15305.625236704975, 0.011125, -0.10387500000000001, 0.9895, 192.0, 0.0, 0.0, 0.0, 0.0, 0.0, 0.0, 0.0, 0.0, 0.0, 1.645922932954788E9, 0.0, 2022-02-27 11:48:52.954
80.0, -260.7330990711569, -2731.6960968608973, -2048.5597310733474, -9134.621517017069, 297.90405010033254, 649.3852316600361, -4563.287444506579, -1406.0364849610908, -1519.3598293494977, -3818.6167262335694, -3547.870045646435, -2526.551786250089, -2989.9705040419703, -1797.8625652626235, -7823.1999663352935, -14446.602993798613, 0.011125, -0.10387500000000001, 0.9895, 192.0, 0.0, 0.0, 0.0, 0.0, 0.0, 0.0, 0.0, 0.0, 0.0, 1.645922932962719E9, 0.0, 2022-02-27 11:48:52.962
82.0, -704.9963718648401, -3092.4085488806427, -2404.2206888461938, -9535.187129400627, -133.01523125353233, 334.71737321822326, -4906.342018406632, -1877.5018307568826, -3841.527264300259, -4740.313260592611, -3638.8863490684453, -2713.479425129822, -3032.5505772293304, -1941.651337343614, -8215.026046636825, -15504.935742012947, 0.011125, -0.10387500000000001, 0.9895, 192.0, 0.0, 0.0, 0.0, 0.0, 0.0, 0.0, 0.0, 0.0, 0.0, 1.645922932969323E9, 0.0, 2022-02-27 11:48:52.969
84.0, -653.2520834508042, -3044.1958360905455, -2270.6243122368232, -9409.972656961996, -14.327468195851827, 503.361285133515, -4680.902323830405, -1510.5532420341067, -1342.5575307080187, -4052.840656380732, -3775.6343216460136, -2614.3941419594457, -3209.8893177377367, -1975.5589336823148, -7903.710949863309, -14601.679396829535, 0.011125, -0.10387500000000001, 0.9895, 192.0, 0.0, 0.0, 0.0, 0.0, 0.0, 0.0, 0.0, 0.0, 0.0, 1.645922932977569E9, 0.0, 2022-02-27 11:48:52.977
86.0, -349.17895188080695, -2827.1380456850584, -2091.586839149814, -9156.593281816637, 287.51048892861473, 593.7293879663215, -4663.669128855363, -1569.3159782071089, -2913.728703704918, -4217.103626382784, -3490.7613385631253, -2591.461252148301, -2881.5868951781863, -1762.0550706452216, -7988.289950882191, -14934.943906658162, 0.0115625, -0.10293750000000002, 0.98775, 192.0, 0.0, 48.0, 126.0, 104.0, 15.0, 104.0, 0.0, 0.0, 0.0, 1.645922932985455E9, 0.0, 2022-02-27 11:48:52.985
88.0, -1023.5534338418763, -3342.3010518909755, -2505.0941115729943, -9670.10225893286, -277.8545353239221, 312.9467741187542, -4843.980651376325, -1760.5798555111714, -2885.833726624695, -4711.658324200907, -3904.2462592418506, -2776.220771815869, -3288.299237286954, -2104.215574767062, -8174.770554872818, -15307.905114639416, 0.0115625, -0.10293750000000002, 0.98775, 192.0, 0.0, 0.0, 0.0, 0.0, 0.0, 0.0, 0.0, 0.0, 0.0, 1.645922932992556E9, 0.0, 2022-02-27 11:48:52.992
90.0, -436.50721746769165, -2895.28851452929, -2068.9221702721325, -9143.562214799193, 295.46770995470405, 652.2462549503153, -4555.285519991579, -1415.3348106544986, -1587.1303185379886, -3860.481543598359, -3602.497709095205, -2559.230036643748, -2999.0676640352804, -1789.882992492079, -7819.601335477989, -14441.752665251812, 0.0115625, -0.10293750000000002, 0.98775, 192.0, 0.0, 0.0, 0.0, 0.0, 0.0, 0.0, 0.0, 0.0, 0.0, 1.645922932999985E9, 0.0, 2022-02-27 11:48:52.999
92.0, -880.345807116724, -3257.744402616549, -2420.0904274094614, -9535.835329989832, -121.74995204805757, 342.31696633302766, -4900.843489270626, -1845.1588565300533, -3920.0265908272972, -4788.503621638253, -3697.8278991970897, -2753.8243238716514, -3036.1268563421795, -1938.0750582307649, -8216.3895030486, -15507.841468792138, 0.0115625, -0.10293750000000002, 0.98775, 192.0, 0.0, 0.0, 0.0, 0.0, 0.0, 0.0, 0.0, 0.0, 0.0, 1.645922933007183E9, 0.0, 2022-02-27 11:48:53.007
94.0, -828.3109460247691, -3197.3723408427645, -2311.2150801676607, -9438.717000331522, -34.600500416815336, 491.3360466165598, -4675.359091205489, -1517.3258206040646, -1465.9391601013137, -4129.842416029264, -3855.1171249290855, -2667.546590274166, -3236.8008180619263, -1988.7688146554012, -7913.992752312751, -14622.89120231762, 0.0115625, -0.10293750000000002, 0.98775, 192.0, 0.0, 0.0, 0.0, 0.0, 0.0, 0.0, 0.0, 0.0, 0.0, 1.64592293301515E9, 0.0, 2022-02-27 11:48:53.015
96.0, -452.71223219778926, -2915.159215350058, -2110.9881533370203, -9158.426124861971, 275.50760215611484, 599.2502688467823, -4670.508762658687, -1565.672643860894, -2936.43807607151, -4233.0180684349625, -3548.3394322799963, -2621.6584589074205, -2905.570316978731, -1760.8480764446351, -7987.4405845928895, -14918.649484950243, 0.012781250000000001, -0.10646875, 0.9858750000000001, 192.0, 0.0, 56.0, 126.0, 72.0, 15.0, 96.0, 0.0, 0.0, 0.0, 1.645922933022258E9, 0.0, 2022-02-27 11:48:53.022
98.0, -1063.9206843281609, -3379.226133731143, -2521.5449954921005, -9680.24995091557, -292.07024479749737, 303.8496141254442, -4867.114706887568, -1780.8528877321348, -2981.253323704401, -4744.269519361201, -3929.7272479209005, -2800.874745950073, -3292.546068733462, -2103.4332637111265, -8191.132031814102, -15331.888536439961, 0.012781250000000001, -0.10646875, 0.9858750000000001, 192.0, 0.0, 0.0, 0.0, 0.0, 0.0, 0.0, 0.0, 0.0, 0.0, 1.645922933029672E9, 0.0, 2022-02-27 11:48:53.029
100.0, -453.94157814283113, -2907.8501949131723, -2080.232152966518, -9154.223996904373, 284.49300342714827, 656.2025137189047, -4560.180552027292, -1403.9354209822918, -1557.2683879456984, -3867.3435291461387, -3633.3207646990736, -2575.8597345184967, -3020.4806352234646, -1801.5506030977492, -7826.999762892696, -14435.538880293238, 0.012781250000000001, -0.10646875, 0.9858750000000001, 192.0, 0.0, 0.0, 0.0, 0.0, 0.0, 0.0, 0.0, 0.0, 0.0, 1.645922933037786E9, 0.0, 2022-02-27 11:48:53.037
102.0, -831.8425216487076, -3212.750341028016, -2412.557889528023, -9533.689562522122, -108.42831235269456, 352.4423065712818, -4879.8775529715485, -1831.0549057787546, -3897.4066254385266, -4780.23347618979, -3690.7200444603022, -2757.937044851428, -3030.784789417361, -1929.6037470822034, -8210.555697745765, -15488.998948216315, 0.012781250000000001, -0.10646875, 0.9858750000000001, 192.0, 0.0, 0.0, 0.0, 0.0, 0.0, 0.0, 0.0, 0.0, 0.0, 1.645922933044797E9, 0.0, 2022-02-27 11:48:53.044
104.0, -762.8873900040853, -3140.9565378375696, -2304.6883707867114, -9440.281622443394, -36.43334346215051, 489.03381693766323, -4671.469887670265, -1517.5716897930731, -1435.9878225312023, -4112.855090243232, -3833.9276711854545, -2659.254093081247, -3227.0554574794123, -1981.0127593294096, -7914.417435457402, -14626.42277794156, 0.012781250000000001, -0.10646875, 0.9858750000000001, 192.0, 0.0, 0.0, 0.0, 0.0, 0.0, 0.0, 0.0, 0.0, 0.0, 1.645922933052225E9, 0.0, 2022-02-27 11:48:53.052
106.0, -370.6142748134464, -2847.344022672656, -2094.9396008181097, -9153.598148059626, 292.00318956413145, 603.0724171486398, -4661.165733476369, -1542.762105794204, -2882.480964956399, -4214.533175770423, -3523.372533723418, -2612.293077980647, -2894.8191278957283, -1766.2795503472746, -7979.662177522443, -14901.170420786193, 0.014390625, -0.10723437499999999, 0.9829375, 192.0, 0.0, 64.0, 126.0, 80.0, 15.0, 80.0, 0.0, 0.0, 0.0, 1.64592293306044E9, 0.0, 2022-02-27 11:48:53.060
108.0, -979.9451804095722, -3312.684990487694, -2511.30789653157, -9677.947721236673, -287.6893028842572, 304.54251820355876, -4855.469448026353, -1778.30478886423, -2968.557532853786, -4737.452237302332, -3894.9032300595322, -2784.7591381977963, -3272.384795234775, -2104.8414236118106, -8191.109680069648, -15342.080931911582, 0.014390625, -0.10723437499999999, 0.9829375, 192.0, 0.0, 0.0, 0.0, 0.0, 0.0, 0.0, 0.0, 0.0, 0.0, 1.645922933074443E9, 0.0, 2022-02-27 11:48:53.074
110.0, -369.9884259686978, -2836.3022609117343, -2075.1136034862525, -9154.738087026846, 282.45899468171535, 649.4522868934021, -4533.671383103298, -1391.5302028095964, -1498.1480238614113, -3853.4183923504825, -3607.079816708543, -2563.2757023901586, -3010.243536262934, -1809.0831409791876, -7821.098902356494, -14430.889717446533, 0.014390625, -0.10723437499999999, 0.9829375, 192.0, 0.0, 0.0, 0.0, 0.0, 0.0, 0.0, 0.0, 0.0, 0.0, 1.645922933081943E9, 0.0, 2022-02-27 11:48:53.081
112.0, -744.9165874620185, -3134.4074767121647, -2402.209031845216, -9520.12205363775, -111.66931529871408, 349.44717281427063, -4876.033052925236, -1831.5019406678607, -3868.617578580091, -4759.13342942398, -3667.9659686047994, -2741.0391260432157, -3026.3814957596655, -1939.8184942982787, -8209.371055289634, -15485.44502084792, 0.014390625, -0.10723437499999999, 0.9829375, 192.0, 0.0, 0.0, 0.0, 0.0, 0.0, 0.0, 0.0, 0.0, 0.0, 1.645922933089866E9, 0.0, 2022-02-27 11:48:53.089
114.0, -698.0449793392396, -3084.6301418101957, -2307.459987099169, -9449.647003370166, -57.466334994594455, 463.0387381361411, -4678.935370318338, -1547.791248296648, -1440.3017092110765, -4117.548956578846, -3814.9286883984437, -2652.4368110223786, -3232.330469170865, -2006.5608032418256, -7928.454330975334, -14651.233214286949, 0.014390625, -0.10723437499999999, 0.9829375, 192.0, 0.0, 0.0, 0.0, 0.0, 0.0, 0.0, 0.0, 0.0, 0.0, 1.645922933097934E9, 0.0, 2022-02-27 11:48:53.097
116.0, -299.3792652343828, -2788.9836178998494, -2091.1174525162523, -9152.90524398151, 276.98281729016514, 585.392187284492, -4647.754686803185, -1566.7678793392038, -2829.484978852866, -4195.265972049949, -3498.2715247001083, -2595.2163452167924, -2894.8191278957283, -1780.49525982085, -7979.52806705571, -14905.707824910622, 0.014, -0.10200000000000001, 0.982, 192.0, 0.0, 56.0, 126.0, 104.0, 15.0, 88.0, 0.0, 0.0, 0.0, 1.645922933104601E9, 0.0, 2022-02-27 11:48:53.104
118.0, -916.6226883676874, -3258.4820101835744, -2510.8608616424635, -9682.932160250206, -307.0906170714637, 277.116927756897, -4865.684195242428, -1806.7585595558357, -2979.241666703423, -4743.822484472094, -3875.47956412787, -2788.3577690551006, -3277.033958081479, -2121.5605284643802, -8201.14561333008, -15362.979812977293, 0.014, -0.10200000000000001, 0.982, 192.0, 0.0, 0.0, 0.0, 0.0, 0.0, 0.0, 0.0, 0.0, 0.0, 1.645922933112548E9, 0.0, 2022-02-27 11:48:53.112
120.0, -312.23151829618433, -2784.5579724976988, -2076.275894197928, -9153.173464914975, 255.01105249059827, 631.6602983069776, -4563.935645095783, -1416.675915321817, -1474.1646020608666, -3848.076325425664, -3587.4102815878728, -2556.167847653371, -3019.631268934163, -1820.750751584858, -7830.97837340574, -14442.982011196855, 0.014, -0.10200000000000001, 0.982, 192.0, 0.0, 0.0, 0.0, 0.0, 0.0, 0.0, 0.0, 0.0, 0.0, 1.645922933120571E9, 0.0, 2022-02-27 11:48:53.120
122.0, -686.5114792003011, -3085.5465633328636, -2407.9534301702297, -9524.346533339803, -132.21056845314126, 331.92340516130986, -4901.938724748937, -1854.4795339679163, -3848.1880841479406, -4737.631051257975, -3639.62395663547, -2723.001268267783, -3029.533091727864, -1919.8360347552343, -8218.870546683138, -15492.642282562529, 0.014, -0.10200000000000001, 0.982, 192.0, 0.0, 0.0, 0.0, 0.0, 0.0, 0.0, 0.0, 0.0, 0.0, 1.645922933127694E9, 0.0, 2022-02-27 11:48:53.127
124.0, -626.9664319713631, -3024.571004458786, -2299.078082928429, -9434.045485740362, -56.974596616577706, 465.29626432612713, -4682.35518722, -1543.8126377836036, -1401.4096738588423, -4095.577191779279, -3796.108519567075, -2636.678831181387, -3235.906748283714, -2012.9534021560435, -7928.655496675432, -14642.180757782551, 0.014, -0.10200000000000001, 0.982, 192.0, 0.0, 0.0, 0.0, 0.0, 0.0, 0.0, 0.0, 0.0, 0.0, 1.645922933134187E9, 0.0, 2022-02-27 11:48:53.134
126.0, -240.99650871712075, -2736.5911288966095, -2086.1777169916295, -9139.024810674764, 273.4288899217713, 588.9684663973411, -4671.11225975898, -1577.0720335331005, -2830.826083520184, -4178.144535797183, -3482.2900274145636, -2578.2513711752144, -2896.7860814077953, -1783.0210069442996, -7990.592180561088, -14911.921609869196, 0.012, -0.108, 0.99, 192.0, 0.0, 48.0, 126.0, 80.0, 15.0, 120.0, 0.0, 0.0, 0.0, 1.645922933143919E9, 0.0, 2022-02-27 11:48:53.143
128.0, -857.0999928832047, -3202.3120763673874, -2497.4945184581898, -9668.001194954062, -298.5075472006258, 291.8690790973996, -4864.231331852833, -1792.5204983378053, -2928.5479102787867, -4713.334705035056, -3857.821686008178, -2758.875818118551, -3274.687024913672, -2112.5974789378024, -8198.821031906728, -15345.388990090965, 0.012, -0.108, 0.99, 192.0, 0.0, 0.0, 0.0, 0.0, 0.0, 0.0, 0.0, 0.0, 0.0, 1.645922933150141E9, 0.0, 2022-02-27 11:48:53.150
130.0, -259.8613810373999, -2733.394829439501, -2058.5062573559594, -9142.33286885415, 272.82539282147803, 641.0480309782066, -4562.348671239456, -1409.0092669736466, -1457.7137181417606, -3814.883984909533, -3554.8661416609457, -2528.2505188286923, -2997.5477454123197, -1800.3212571527074, -7820.696570956299, -14430.353275579606, 0.012, -0.108, 0.99, 192.0, 0.0, 0.0, 0.0, 0.0, 0.0, 0.0, 0.0, 0.0, 0.0, 1.645922933157405E9, 0.0, 2022-02-27 11:48:53.157
132.0, -622.6078418025783, -3031.4776934954757, -2380.9078193793084, -9498.418509771647, -105.25436464004096, 349.49187630318124, -4892.193364166423, -1835.234681991897, -3829.7031914834015, -4714.787568424651, -3608.957363242789, -2700.2695441567357, -3007.3601612281996, -1913.3093253742845, -8208.499337255877, -15483.880398736048, 0.012, -0.108, 0.99, 192.0, 0.0, 0.0, 0.0, 0.0, 0.0, 0.0, 0.0, 0.0, 0.0, 1.64592293316491E9, 0.0, 2022-02-27 11:48:53.164
134.0, -595.584582756112, -2988.629399374652, -2293.825422981432, -9435.96773576352, -57.44398325013915, 461.7870404466439, -4691.45234721331, -1549.9146640199024, -1415.6253833324174, -4100.7180930039995, -3778.361234469561, -2622.4631217078118, -3226.139035956745, -1994.423806002594, -7933.215252544314, -14662.833769659253, 0.012, -0.108, 0.99, 192.0, 0.0, 0.0, 0.0, 0.0, 0.0, 0.0, 0.0, 0.0, 0.0, 1.645922933172843E9, 0.0, 2022-02-27 11:48:53.172
136.0, -196.00244712858762, -2690.099500429571, -2070.7550133174677, -9126.261964590783, 285.52118367209243, 590.4436815313913, -4661.232788709734, -1574.9039143209357, -2758.674652418453, -4144.460456903035, -3459.513599814606, -2563.36510936798, -2881.6539504115526, -1757.5623700097049, -7972.867247208029, -14893.727289882576, 0.014, -0.108, 0.988, 192.0, 0.0, 56.0, 126.0, 80.0, 15.0, 112.0, 0.0, 0.0, 0.0, 1.645922933180019E9, 0.0, 2022-02-27 11:48:53.180
138.0, -821.7618848993642, -3172.0254626304463, -2495.30404750157, -9661.206264639648, -305.83891938196655, 282.5707534039919, -4888.259457142289, -1816.9509550274558, -2941.310756362767, -4702.3599985075, -3839.359145088094, -2742.536692921721, -3269.680234155683, -2102.740359633012, -8204.476023253921, -15367.785438035184, 0.014, -0.108, 0.988, 192.0, 0.0, 0.0, 0.0, 0.0, 0.0, 0.0, 0.0, 0.0, 0.0, 1.645922933186523E9, 0.0, 2022-02-27 11:48:53.186
140.0, -236.45910459269342, -2715.200509452881, -2060.36145214575, -9141.125874653564, 255.0781077239642, 632.5543680851898, -4587.04734886257, -1428.9917265166912, -1439.2511772216772, -3801.3835312585275, -3542.7738479106247, -2516.0241146116396, -3004.9014693381155, -1795.426225116995, -7831.7159809727655, -14442.512624563293, 0.014, -0.108, 0.988, 192.0, 0.0, 0.0, 0.0, 0.0, 0.0, 0.0, 0.0, 0.0, 0.0, 1.645922933202669E9, 0.0, 2022-02-27 11:48:53.202
142.0, -601.9995334147851, -3008.947135084526, -2379.209086800705, -9499.558448738868, -118.10661770184252, 339.0312598980975, -4908.376027152065, -1857.139391558098, -3823.1317786135414, -4702.851736885516, -3602.184784672831, -2696.0450644546827, -3015.183271787557, -1917.556156820793, -8219.518747272343, -15489.915369738981, 0.014, -0.108, 0.988, 192.0, 0.0, 0.0, 0.0, 0.0, 0.0, 0.0, 0.0, 0.0, 0.0, 1.645922933209723E9, 0.0, 2022-02-27 11:48:53.209
144.0, -574.261018545749, -2970.5468381103087, -2288.1033764008735, -9434.738389818476, -63.38954727525083, 464.2904358256383, -4694.112204803491, -1561.0234810141899, -1396.9169732233254, -4092.6938167445446, -3771.9909872997987, -2621.8596246075185, -3231.5481581149293, -2002.8280619177895, -7938.490264235767, -14666.27593830537, 0.014, -0.108, 0.988, 192.0, 0.0, 0.0, 0.0, 0.0, 0.0, 0.0, 0.0, 0.0, 0.0, 1.645922933217218E9, 0.0, 2022-02-27 11:48:53.217
146.0, -170.83438287191188, -2673.0451194101715, -2059.6014928342693, -9120.115234865574, 280.2238202361846, 603.6759142489332, -4676.096698772514, -1573.2275334867877, -2742.156713265981, -4142.471151646513, -3453.344518344941, -2558.850056988008, -2885.8113748802393, -1761.2280561003754, -7982.232628134803, -14892.252074748527, 0.01, -0.108, 0.988, 192.0, 0.0, 40.0, 126.0, 80.0, 15.0, 112.0, 0.0, 0.0, 0.0, 1.645922933225264E9, 0.0, 2022-02-27 11:48:53.225
148.0, -809.3566667266688, -3159.687299691117, -2489.3584834764583, -9663.016755940527, -306.77769264908943, 292.07024479749737, -4896.998989224314, -1823.2541469638525, -2975.039538745825, -4711.747731178729, -3831.0889996396304, -2743.4978179332993, -3260.3819084622755, -2098.381769464227, -8214.154328603068, -15380.369470163521, 0.01, -0.108, 0.988, 192.0, 0.0, 0.0, 0.0, 0.0, 0.0, 0.0, 0.0, 0.0, 0.0, 1.645922933233204E9, 0.0, 2022-02-27 11:48:53.233
150.0, -226.31141260998402, -2704.002285480772, -2055.444068365582, -9143.651621777013, 254.0946309679307, 646.8594845365864, -4588.343750040978, -1430.37753467292, -1411.4903106081856, -3799.4389294909156, -3553.770906182636, -2520.427408269335, -3005.4602629494984, -1802.4223211315061, -7831.179539105838, -14435.47182505987, 0.01, -0.108, 0.988, 192.0, 0.0, 0.0, 0.0, 0.0, 0.0, 0.0, 0.0, 0.0, 0.0, 1.645922933239788E9, 0.0, 2022-02-27 11:48:53.239
152.0, -574.6409982014893, -2990.5740011422636, -2363.6075691709007, -9487.35439626627, -101.81219599392367, 360.93596946429847, -4894.048558956213, -1842.9683855734331, -3804.9374586269214, -4690.155946034903, -3593.1323281684317, -2690.792404507685, -2998.508870423898, -1905.4415113260166, -8211.24860182388, -15478.895959722515, 0.01, -0.108, 0.988, 192.0, 0.0, 0.0, 0.0, 0.0, 0.0, 0.0, 0.0, 0.0, 0.0, 1.645922933249276E9, 0.0, 2022-02-27 11:48:53.249
154.0, -568.0248818427184, -2964.5565705962863, -2288.9974461790857, -9436.48182588599, -62.56253273040447, 468.3361015720489, -4678.4883354292315, -1563.2586554597206, -1405.8129675165378, -4099.846374970242, -3773.265036733751, -2619.132711783971, -3225.133207456256, -1997.5754019707922, -7940.47956949229, -14672.288557563848, 0.01, -0.108, 0.988, 192.0, 0.0, 0.0, 0.0, 0.0, 0.0, 0.0, 0.0, 0.0, 0.0, 1.645922933255468E9, 0.0, 2022-02-27 11:48:53.255
156.0, -146.20276048216348, -2640.545682972155, -2055.198199176574, -9112.314476050673, 297.4570152112264, 610.4708445633465, -4655.287224684623, -1560.799963569637, -2710.4395878839005, -4121.639325814167, -3453.8586084674134, -2551.004594684195, -2883.1738690345132, -1758.590550254649, -7978.477535066311, -14881.143257754238, 0.012, -0.106, 0.984, 192.0, 0.0, 48.0, 126.0, 88.0, 15.0, 96.0, 0.0, 0.0, 0.0, 1.645922933262742E9, 0.0, 2022-02-27 11:48:53.262
158.0, -803.1428817680934, -3162.7271369370387, -2489.87257359893, -9664.670785030221, -312.4550357407374, 289.34333197394994, -4884.102032673602, -1825.4446179204724, -2963.8189630292613, -4700.571858951075, -3827.7809414602452, -2739.6980213758975, -3256.202132249133, -2095.096063029297, -8214.601363492175, -15384.593949865575, 0.012, -0.106, 0.984, 192.0, 0.0, 0.0, 0.0, 0.0, 0.0, 0.0, 0.0, 0.0, 0.0, 1.645922933269389E9, 0.0, 2022-02-27 11:48:53.269
160.0, -226.82550273245607, -2714.999343752783, -2053.186542175596, -9147.652584034513, 250.49600011062626, 631.6155948180669, -4586.734424440197, -1431.7186393402385, -1406.9529064837584, -3819.6449064785133, -3553.346223037985, -2526.909414161374, -3005.013228060392, -1807.0491322337548, -7831.447760039301, -14445.083075175653, 0.012, -0.106, 0.984, 192.0, 0.0, 0.0, 0.0, 0.0, 0.0, 0.0, 0.0, 0.0, 0.0, 1.645922933277488E9, 0.0, 2022-02-27 11:48:53.277
162.0, -568.0919370760843, -3004.141510026635, -2354.733926622144, -9487.376748010725, -99.30880061492928, 352.66582401583486, -4900.999951481814, -1847.684603653503, -3788.46422296336, -4705.98098110926, -3584.951589697789, -2694.0781109426157, -2992.943286054526, -1913.5998980522036, -8215.160157103557, -15486.696718537418, 0.012, -0.106, 0.984, 192.0, 0.0, 0.0, 0.0, 0.0, 0.0, 0.0, 0.0, 0.0, 0.0, 1.645922933285445E9, 0.0, 2022-02-27 11:48:53.285
164.0, -570.6623876884446, -2988.2717714633673, -2280.3920245637923, -9446.67422135761, -67.70343395512509, 452.06403160858537, -4679.024777296159, -1569.2042194848323, -1389.9208772088143, -4126.690820061066, -3764.592559885092, -2634.063677080116, -3217.712428297094, -2008.7512741984458, -7941.7759706706975, -14687.6665577491, 0.012, -0.106, 0.984, 192.0, 0.0, 0.0, 0.0, 0.0, 0.0, 0.0, 0.0, 0.0, 0.0, 1.645922933292014E9, 0.0, 2022-02-27 11:48:53.292
166.0, -160.10554553336448, -2682.2093346368474, -2043.2176641485291, -9124.160900611985, 301.5920879354582, 605.7993299721874, -4655.44368689581, -1569.114812507011, -2691.8876399859955, -4154.96577679703, -3446.951919430723, -2573.1104699504936, -2875.9319038309936, -1775.4884690628612, -7976.421174576423, -14888.832257846863, 0.014, -0.108, 0.986, 192.0, 0.0, 56.0, 126.0, 80.0, 15.0, 104.0, 0.0, 0.0, 0.0, 1.645922933299997E9, 0.0, 2022-02-27 11:48:53.299
168.0, -806.7862161143084, -3179.9603319120806, -2480.2836752276035, -9672.5833025674, -300.4745007126928, 288.20339300672924, -4888.080643186646, -1838.0286500488103, -3003.5827164152524, -4748.94103395236, -3815.6439442210135, -2757.937044851428, -3246.0767920108788, -2105.7131416455677, -8213.617886736141, -15403.727043119317, 0.014, -0.108, 0.986, 192.0, 0.0, 0.0, 0.0, 0.0, 0.0, 0.0, 0.0, 0.0, 0.0, 1.645922933308085E9, 0.0, 2022-02-27 11:48:53.308
170.0, -230.64765103431358, -2730.220881726847, -2050.638443307691, -9160.840113263144, 242.96346222918777, 609.2414986183046, -4587.583790729498, -1472.734090415727, -1360.997719883647, -3828.1832728604404, -3549.769943925136, -2539.784018967631, -3009.4612252069983, -1825.3775626871065, -7829.972544905251, -14448.391133355039, 0.014, -0.108, 0.986, 192.0, 0.0, 0.0, 0.0, 0.0, 0.0, 0.0, 0.0, 0.0, 0.0, 1.645922933321652E9, 0.0, 2022-02-27 11:48:53.321
172.0, -563.1522015514614, -3003.8062338598056, -2348.542493408024, -9484.78394565391, -96.69364651365835, 341.28878608808355, -4900.4858613593415, -1860.8050776487682, -3775.2543419902736, -4700.88478337345, -3577.128479138432, -2702.7505877912745, -2989.2328964749454, -1920.3724766221617, -8206.91236339955, -15482.58399755764, 0.014, -0.108, 0.986, 192.0, 0.0, 0.0, 0.0, 0.0, 0.0, 0.0, 0.0, 0.0, 0.0, 1.645922933329777E9, 0.0, 2022-02-27 11:48:53.329
174.0, -579.1784023259166, -2991.9374575540373, -2293.6689607702447, -9454.452628428058, -89.04934990994333, 451.9299211418535, -4722.901251661927, -1560.732908336271, -1427.4941596381855, -4150.562483139334, -3771.923932066433, -2645.5301219856888, -3233.425704649175, -2019.7483324704567, -7952.504808009245, -14699.6694445216, 0.014, -0.108, 0.986, 192.0, 0.0, 0.0, 0.0, 0.0, 0.0, 0.0, 0.0, 0.0, 0.0, 1.645922933337634E9, 0.0, 2022-02-27 11:48:53.337
176.0, -148.23676922759643, -2675.10147990006, -2044.8493414937666, -9114.683760962935, 296.98762857766496, 605.8663852055532, -4657.723564830251, -1554.7873443111594, -2646.2677295527137, -4128.993049739963, -3440.291099583042, -2565.8685047469744, -2878.3905957210777, -1760.6022072556268, -7970.766183229231, -14859.395010399225, 0.012, -0.114, 0.99, 192.0, 0.0, 48.0, 126.0, 56.0, 15.0, 120.0, 0.0, 0.0, 0.0, 1.645922933345047E9, 0.0, 2022-02-27 11:48:53.345
178.0, -799.7230648664314, -3173.1654015976674, -2484.9328380743073, -9669.476410088111, -300.9438873462543, 274.9935120336428, -4890.49463158782, -1823.3212021972183, -3021.0617805793026, -4751.802057242639, -3814.3251912981505, -2763.614387943076, -3249.3177949568985, -2107.523632946448, -8217.82001469374, -15405.291665231189, 0.012, -0.114, 0.99, 192.0, 0.0, 0.0, 0.0, 0.0, 0.0, 0.0, 0.0, 0.0, 0.0, 1.645922933352427E9, 0.0, 2022-02-27 11:48:53.352
180.0, -218.3541915838947, -2722.1966054673917, -2048.6267863067137, -9153.933424226454, 247.41145937579387, 632.1743884294497, -4577.771374913618, -1438.737087099205, -1353.9569203802253, -3820.5166245122705, -3541.1645223098426, -2530.5080450186783, -3002.398073959121, -1818.6049841171484, -7825.9045274143855, -14439.897470462021, 0.012, -0.114, 0.99, 192.0, 0.0, 0.0, 0.0, 0.0, 0.0, 0.0, 0.0, 0.0, 0.0, 1.64592293336028E9, 0.0, 2022-02-27 11:48:53.360
182.0, -542.7897623526767, -2984.6731406060626, -2339.691202603722, -9475.865599616242, -81.13683237276464, 356.01858568413087, -4887.499497830809, -1846.1199815416314, -3764.45844941836, -4691.184126279846, -3565.147944110387, -2692.2452678972804, -2982.0579865047916, -1910.1577294060862, -8202.240848808391, -15471.162256140979, 0.012, -0.114, 0.99, 192.0, 0.0, 0.0, 0.0, 0.0, 0.0, 0.0, 0.0, 0.0, 0.0, 1.645922933368258E9, 0.0, 2022-02-27 11:48:53.368
184.0, -565.8567626305536, -2982.3262074382556, -2282.3589780758593, -9452.977413294007, -70.18447758966418, 458.6130927339903, -4690.960608835293, -1564.376242682486, -1414.3736856429202, -4133.239881186471, -3763.0949930065863, -2632.5214067127, -3225.3120214118985, -2014.9650591570212, -7947.699182951354, -14703.357482356727, 0.013000000000000001, -0.114, 0.986, 192.0, 0.0, 56.0, 126.0, 56.0, 15.0, 88.0, 0.0, 0.0, 0.0, 1.645922933374568E9, 0.0, 2022-02-27 11:48:53.374
186.0, -140.2348447125965, -2667.4124798074345, -2034.031097177398, -9113.99085688482, 304.274297270095, 605.7322747388214, -4659.042317753115, -1556.3519664230307, -2630.3085840116246, -4124.254479915438, -3437.161855359299, -2564.8850279909407, -2873.4285084519993, -1767.240675358853, -7966.049965149161, -14859.7079348216, 0.013000000000000001, -0.114, 0.986, 192.0, 0.0, 0.0, 0.0, 0.0, 0.0, 0.0, 0.0, 0.0, 0.0, 1.645922933382025E9, 0.0, 2022-02-27 11:48:53.382
188.0, -800.7065416224649, -3173.6347882312284, -2485.4022247078688, -9671.935101978195, -307.87292812739946, 277.00516903462045, -4905.135024206045, -1836.911062826045, -3029.823664405783, -4749.499827563743, -3812.648810464002, -2759.903998363495, -3246.300309455432, -2106.9424875906097, -8228.615907265652, -15413.539458935198, 0.013000000000000001, -0.114, 0.986, 192.0, 0.0, 0.0, 0.0, 0.0, 0.0, 0.0, 0.0, 0.0, 0.0, 1.645922933390052E9, 0.0, 2022-02-27 11:48:53.390
190.0, -230.78176150104542, -2727.2704514587467, -2057.3439666442832, -9162.114162697097, 242.00233721760958, 619.7021150233883, -4575.960883612738, -1445.9119970693587, -1352.9510918797364, -3821.6342117350355, -3550.507551492161, -2532.944385164307, -3008.924783340071, -1823.2541469638525, -7834.129969373938, -14439.785711739745, 0.013000000000000001, -0.114, 0.986, 192.0, 0.0, 0.0, 0.0, 0.0, 0.0, 0.0, 0.0, 0.0, 0.0, 1.645922933397919E9, 0.0, 2022-02-27 11:48:53.397
192.0, -531.2115587248277, -2975.061890490281, -2331.1081327328843, -9469.137724535194, -71.54793400143791, 352.30819610454995, -4887.20892515289, -1859.9780631039218, -3762.6479581174804, -4683.673940142863, -3569.5959412569932, -2693.8545934980625, -2977.5876376137303, -1910.358895106184, -8203.62665696462, -15468.792971228717, 0.013000000000000001, -0.114, 0.986, 192.0, 0.0, 0.0, 0.0, 0.0, 0.0, 0.0, 0.0, 0.0, 0.0, 1.645922933404536E9, 0.0, 2022-02-27 11:48:53.404
194.0, -575.6468267019781, -2993.859707577194, -2290.0703299129405, -9459.772343608422, -71.57028574589322, 451.59464497502387, -4702.382350251955, -1578.8378213450696, -1433.4620754077525, -4147.701459849055, -3769.4652401763487, -2639.4280957493897, -3221.7357422990494, -2026.744428484968, -7953.555339998644, -14717.7743575304, 0.0115, -0.11, 0.987, 192.0, 0.0, 40.0, 126.0, 88.0, 15.0, 112.0, 0.0, 0.0, 0.0, 1.645922933412652E9, 0.0, 2022-02-27 11:48:53.412
196.0, -143.54290289198195, -2671.5922560205768, -2035.193387889074, -9112.247420817306, 306.86709962691066, 605.4417020609025, -4659.690518342319, -1533.4861318452517, -2615.1093977820155, -4120.05235195784, -3448.6283002648715, -2573.1551734394043, -2878.345892232167, -1764.2008381129313, -7959.81382844613, -14847.325068393358, 0.0115, -0.11, 0.987, 192.0, 0.0, 0.0, 0.0, 0.0, 0.0, 0.0, 0.0, 0.0, 0.0, 1.645922933420624E9, 0.0, 2022-02-27 11:48:53.420
198.0, -801.9135358230515, -3177.0769568773458, -2481.8035938505645, -9669.208189154648, -297.88169835587723, 277.07222426798637, -4891.276942643755, -1822.2036149744529, -3061.9654729325143, -4756.540627067164, -3819.399037289505, -2765.715451921875, -3239.3265651853762, -2109.3788277362382, -8219.04936063878, -15414.880563602515, 0.0115, -0.11, 0.987, 192.0, 0.0, 0.0, 0.0, 0.0, 0.0, 0.0, 0.0, 0.0, 0.0, 1.645922933427135E9, 0.0, 2022-02-27 11:48:53.427
200.0, -217.37071482786118, -2718.195643209892, -2048.246806650973, -9160.415430118494, 254.54166585703683, 619.7244667678436, -4562.683947406286, -1429.6622788503503, -1345.4632574872087, -3817.9014704109995, -3556.2072463282643, -2535.648946243399, -3003.06862629278, -1821.3542486851513, -7819.333114544525, -14430.33092383515, 0.0115, -0.11, 0.987, 192.0, 0.0, 0.0, 0.0, 0.0, 0.0, 0.0, 0.0, 0.0, 0.0, 1.645922933434248E9, 0.0, 2022-02-27 11:48:53.434
202.0, -494.0853111845626, -2939.1649888950574, -2317.585327337423, -9456.687802873588, -53.30891052590734, 379.1302894509184, -4849.032145623225, -1823.432960919495, -3723.957088465344, -4657.365936918966, -3545.8136851565464, -2681.29291311418, -2943.143599408102, -1890.0858628852204, -8185.231171277902, -15455.896014678005, 0.0115, -0.11, 0.987, 192.0, 0.0, 0.0, 0.0, 0.0, 0.0, 0.0, 0.0, 0.0, 0.0, 1.645922933450228E9, 0.0, 2022-02-27 11:48:53.450
204.0, -583.6040477280674, -2987.1318324961467, -2291.9031729582757, -9454.609090639246, -73.80546019142392, 449.1136013404848, -4678.01894879567, -1563.057489759623, -1439.6982121107833, -4140.168921967616, -3766.8947895639885, -2635.874168380996, -3212.0574369499013, -2011.7464079554568, -7943.675868949398, -14710.755909771433, 0.01075, -0.109, 0.9884999999999999, 192.0, 0.0, 40.0, 126.0, 80.0, 15.0, 120.0, 0.0, 0.0, 0.0, 1.64592293345686E9, 0.0, 2022-02-27 11:48:53.456
206.0, -139.69840284566914, -2655.4095930349345, -2035.3945535891717, -9104.737234680324, 313.2596985411285, 617.6904580224107, -4643.865483267961, -1547.3889168964527, -2615.6011361600326, -4109.234107641471, -3448.4271345647735, -2560.0346994441393, -2874.3672817191223, -1760.2222275998865, -7962.38427905849, -14846.878033504252, 0.01075, -0.109, 0.9884999999999999, 192.0, 0.0, 0.0, 0.0, 0.0, 0.0, 0.0, 0.0, 0.0, 0.0, 1.64592293346496E9, 0.0, 2022-02-27 11:48:53.464
208.0, -802.7629021123531, -3161.318977036354, -2486.20688750826, -9666.414221097735, -301.34621874644984, 277.8768870683774, -4890.181707165445, -1831.0325540342992, -3093.3473221477657, -4749.209254885824, -3818.147339600008, -2757.445306473411, -3230.8999575257253, -2096.7947956079, -8228.459445054466, -15428.33631376461, 0.01075, -0.109, 0.9884999999999999, 192.0, 0.0, 0.0, 0.0, 0.0, 0.0, 0.0, 0.0, 0.0, 0.0, 1.645922933472893E9, 0.0, 2022-02-27 11:48:53.472
210.0, -230.6923545232242, -2711.3783611510235, -2059.020347478431, -9160.415430118494, 251.70299431121282, 641.584472845134, -4562.795706128562, -1424.834302048004, -1332.7004114032284, -3806.2562115497844, -3563.2927493205966, -2527.8034839395864, -3010.8023298743165, -1815.654553849048, -7829.1902338493155, -14429.61566801258, 0.01075, -0.109, 0.9884999999999999, 192.0, 0.0, 0.0, 0.0, 0.0, 0.0, 0.0, 0.0, 0.0, 0.0, 1.645922933479967E9, 0.0, 2022-02-27 11:48:53.479
212.0, -506.22230842379435, -2937.0639249162587, -2322.9050425177866, -9447.098904502262, -51.5878262028487, 386.5063651211697, -4888.773547264761, -1824.3270306977072, -3750.466257389338, -4636.53411108662, -3556.341356794996, -2674.185058377392, -2958.789820526817, -1883.1568221040754, -8200.452709251966, -15448.832863430127, 0.01075, -0.109, 0.9884999999999999, 192.0, 0.0, 0.0, 0.0, 0.0, 0.0, 0.0, 0.0, 0.0, 0.0, 1.64592293348755E9, 0.0, 2022-02-27 11:48:53.487
214.0, -586.8674024185423, -2981.6109516156857, -2304.464853342158, -9462.521608176423, -86.76947197550201, 447.86190365098764, -4690.647684412919, -1572.4005189419413, -1482.5465062316068, -4147.3214801933145, -3776.886019335511, -2631.2697090232027, -3225.2226144340775, -2015.8591289352335, -7969.8944651954735, -14728.570250102312, 0.010374999999999999, -0.1075, 0.98925, 192.0, 0.0, 40.0, 126.0, 88.0, 15.0, 120.0, 0.0, 0.0, 0.0, 1.645922933495538E9, 0.0, 2022-02-27 11:48:53.495
216.0, -131.6517748417586, -2638.578729460088, -2030.1195418977193, -9099.037539844221, 317.26066079862846, 614.3823998430253, -4648.067611225559, -1544.8184662840924, -2574.9209612513737, -4080.8473921832315, -3446.191960119243, -2553.060955174083, -2870.4333746949883, -1753.3602420521072, -7962.138409869482, -14826.448539072102, 0.010374999999999999, -0.1075, 0.98925, 192.0, 0.0, 0.0, 0.0, 0.0, 0.0, 0.0, 0.0, 0.0, 0.0, 1.645922933502447E9, 0.0, 2022-02-27 11:48:53.502
218.0, -793.7327973524091, -3150.8360088868153, -2488.196192764782, -9666.794200753475, -288.4716139401929, 284.6941691272461, -4876.144811647512, -1821.0860277516877, -3145.2033692840782, -4744.64949901694, -3811.03948486322, -2749.063402302671, -3225.490835367541, -2096.057188040875, -8239.098875415191, -15434.86302314556, 0.010374999999999999, -0.1075, 0.98925, 192.0, 0.0, 0.0, 0.0, 0.0, 0.0, 0.0, 0.0, 0.0, 0.0, 1.645922933509672E9, 0.0, 2022-02-27 11:48:53.509
220.0, -236.90613948179956, -2715.222861197336, -2062.417812635638, -9165.601034832125, 250.78657278854524, 624.418333103458, -4557.475990948199, -1427.605918360462, -1330.7334578911614, -3803.2610777927734, -3569.9759209127333, -2527.7587804506757, -3014.110388053702, -1821.4436556629726, -7833.459417040279, -14427.447548800415, 0.010374999999999999, -0.1075, 0.98925, 192.0, 0.0, 0.0, 0.0, 0.0, 0.0, 0.0, 0.0, 0.0, 0.0, 1.645922933517197E9, 0.0, 2022-02-27 11:48:53.517
222.0, -513.6654393274116, -2944.5964627976973, -2327.084818730929, -9448.238843469482, -54.18062855966432, 375.0399202155972, -4875.116631402568, -1834.497074424872, -3751.0026992562653, -4648.984032748226, -3560.0740981190324, -2676.442584567378, -2958.2757304043453, -1887.6942262285027, -8199.3351220292, -15440.67447670394, 0.010374999999999999, -0.1075, 0.98925, 192.0, 0.0, 0.0, 0.0, 0.0, 0.0, 0.0, 0.0, 0.0, 0.0, 1.645922933525171E9, 0.0, 2022-02-27 11:48:53.525
224.0, -588.1191001080394, -2983.086166749736, -2304.3754463643368, -9465.136762277694, -79.37104456079538, 440.8658076364765, -4692.681693158352, -1573.540457909162, -1486.7933376781152, -4157.11154426474, -3784.6420746615026, -2638.2211015488033, -3226.586070845851, -2014.9874109014763, -7970.408555317946, -14726.804462290344, 0.010187499999999999, -0.10475000000000001, 0.988625, 192.0, 0.0, 40.0, 126.0, 104.0, 15.0, 112.0, 0.0, 0.0, 0.0, 1.645922933532162E9, 0.0, 2022-02-27 11:48:53.532
226.0, -131.76353356403513, -2640.1433515719596, -2030.7677424869232, -9100.93743812292, 327.3189458035166, 610.4708445633465, -4639.976279732738, -1538.470570858785, -2570.7411850382314, -4086.502383530424, -3449.7905909765473, -2555.6984610198097, -2869.0922700276697, -1753.3825937965626, -7966.407593060446, -14823.74397799301, 0.010187499999999999, -0.10475000000000001, 0.988625, 192.0, 0.0, 0.0, 0.0, 0.0, 0.0, 0.0, 0.0, 0.0, 0.0, 1.64592293353974E9, 0.0, 2022-02-27 11:48:53.539
228.0, -793.1963554854817, -3153.2499972879887, -2488.620875909433, -9666.43657284219, -284.6718173827908, 276.8934103123439, -4884.258494884789, -1825.7351905983915, -3146.5221222069413, -4757.591159056564, -3811.553574985692, -2756.998271584305, -3221.4675213655855, -2092.4362054391154, -8238.182453892525, -15436.315886535156, 0.010187499999999999, -0.10475000000000001, 0.988625, 192.0, 0.0, 0.0, 0.0, 0.0, 0.0, 0.0, 0.0, 0.0, 0.0, 1.645922933547851E9, 0.0, 2022-02-27 11:48:53.547
230.0, -234.89448248082192, -2710.417236139445, -2067.9163417716436, -9167.85856102211, 257.1791717027631, 617.422237088947, -4566.550799197054, -1435.09375275299, -1320.1834345082564, -3799.8636126355664, -3564.6785574768255, -2526.104751360983, -3002.3533704702104, -1820.3707719291178, -7828.832605938031, -14427.983990667342, 0.010187499999999999, -0.10475000000000001, 0.988625, 192.0, 0.0, 0.0, 0.0, 0.0, 0.0, 0.0, 0.0, 0.0, 0.0, 1.645922933555702E9, 0.0, 2022-02-27 11:48:53.555
232.0, -503.98713397826367, -2936.7733522383396, -2323.7767605515432, -9441.175692221606, -27.15736951319808, 368.9602457237537, -4867.58409352113, -1828.8420830776793, -3748.879283533011, -4642.0326402226265, -3554.3296997940183, -2670.4299653089006, -2949.5809018112304, -1880.9216476585445, -8194.462441737944, -15440.942697637403, 0.010187499999999999, -0.10475000000000001, 0.988625, 192.0, 0.0, 0.0, 0.0, 0.0, 0.0, 0.0, 0.0, 0.0, 0.0, 1.645922933570107E9, 0.0, 2022-02-27 11:48:53.570
234.0, -600.1443386249946, -2993.6808936215516, -2317.8088447819764, -9477.966663595042, -85.7859952194685, 430.00285983119727, -4721.806016183617, -1588.8066993721366, -1522.734942762249, -4181.229076532016, -3791.682874164924, -2641.4397527503675, -3233.1798354601665, -2029.06900990832, -7980.2209711338255, -14753.246575980971, 0.01209375, -0.10337500000000001, 0.9883124999999999, 192.0, 0.0, 56.0, 126.0, 104.0, 15.0, 112.0, 0.0, 0.0, 0.0, 1.645922933577441E9, 0.0, 2022-02-27 11:48:53.577
236.0, -136.21153071064123, -2643.1831888178813, -2037.2721001234174, -9102.770281168256, 332.16927435031823, 610.4931963078018, -4637.227015164735, -1545.0866872175561, -2544.656699258888, -4087.1729358640837, -3455.423230579285, -2560.3476238665135, -2874.9707788194155, -1760.244579344342, -7965.535875026689, -14817.306675589882, 0.01209375, -0.10337500000000001, 0.9883124999999999, 192.0, 0.0, 0.0, 0.0, 0.0, 0.0, 0.0, 0.0, 0.0, 0.0, 1.645922933585374E9, 0.0, 2022-02-27 11:48:53.585
238.0, -802.2935154787917, -3155.1945990556, -2500.176727792827, -9671.532770578, -285.52118367209243, 267.01393926309817, -4892.39452986652, -1837.1569320150534, -3171.2207998300555, -4771.650406318951, -3817.2756215662507, -2766.3636525110787, -3227.457788879608, -2096.0348362964196, -8245.424419096043, -15448.92227040795, 0.01209375, -0.10337500000000001, 0.9883124999999999, 192.0, 0.0, 0.0, 0.0, 0.0, 0.0, 0.0, 0.0, 0.0, 0.0, 1.645922933591938E9, 0.0, 2022-02-27 11:48:53.591
240.0, -249.49017161013742, -2722.040143256205, -2080.768594833445, -9170.965453501398, 245.39980237481623, 612.5272050532348, -4577.391395257878, -1431.4727701512302, -1324.0502862990245, -3814.0569703646865, -3574.7144907372585, -2530.686858974321, -3014.6691816650846, -1820.1025509956542, -7839.047353154106, -14429.168633123474, 0.01209375, -0.10337500000000001, 0.9883124999999999, 192.0, 0.0, 0.0, 0.0, 0.0, 0.0, 0.0, 0.0, 0.0, 0.0, 1.645922933600039E9, 0.0, 2022-02-27 11:48:53.600
242.0, -505.0600177121184, -2938.896767961594, -2328.761199565077, -9436.660639841633, -32.231215504552786, 371.10601319146315, -4879.050538426703, -1825.6234318761149, -3762.133867995008, -4645.988898991215, -3565.9973103996886, -2676.509639800744, -2957.9404542375155, -1878.775880190835, -8203.783119175807, -15435.488871990308, 0.01209375, -0.10337500000000001, 0.9883124999999999, 192.0, 0.0, 0.0, 0.0, 0.0, 0.0, 0.0, 0.0, 0.0, 0.0, 1.645922933608E9, 0.0, 2022-02-27 11:48:53.608
244.0, -600.3678560695477, -2995.0890535222356, -2323.4861878736247, -9471.30584374736, -85.83069870837912, 430.20402553129503, -4713.044132357137, -1586.7056353933378, -1541.0633732156007, -4183.710120166555, -3797.270810278751, -2642.9820231177837, -3235.303251183421, -2027.7055534965461, -7989.742814271786, -14758.052201038863, 0.015046875000000001, -0.10368750000000002, 0.98715625, 192.0, 0.0, 72.0, 126.0, 96.0, 15.0, 104.0, 0.0, 0.0, 0.0, 1.645922933615212E9, 0.0, 2022-02-27 11:48:53.615
246.0, -130.9812225080994, -2646.0218603637054, -2037.8308937348002, -9094.589542697615, 333.5103790176367, 618.4280655894358, -4641.25032916669, -1525.8418352415367, -2545.0143271701727, -4080.6909299720446, -3455.512637557106, -2554.916149963874, -2875.797793364262, -1757.5623700097049, -7967.234607605292, -14810.444690042103, 0.015046875000000001, -0.10368750000000002, 0.98715625, 192.0, 0.0, 0.0, 0.0, 0.0, 0.0, 0.0, 0.0, 0.0, 0.0, 1.645922933621644E9, 0.0, 2022-02-27 11:48:53.621
