%OpenBCI Raw EEG Data
%Number of channels = 16
%Sample Rate = 125 Hz
%Board = OpenBCI_GUI$BoardCytonSerialDaisy
Sample Index, EXG Channel 0, EXG Channel 1, EXG Channel 2, EXG Channel 3, EXG Channel 4, EXG Channel 5, EXG Channel 6, EXG Channel 7, EXG Channel 8, EXG Channel 9, EXG Channel 10, EXG Channel 11, EXG Channel 12, EXG Channel 13, EXG Channel 14, EXG Channel 15, Accel Channel 0, Accel Channel 1, Accel Channel 2, Other, Other, Other, Other, Other, Other, Other, Analog Channel 0, Analog Channel 1, Analog Channel 2, Timestamp, Other, Timestamp (Formatted)
222.0, -695.2957147712368, -3271.401318478742, -2062.261350424451, -9473.272797259426, 346.8990739463656, 149.93550180619977, -4939.623765900585, -1665.9649212318566, -3274.038824324468, -4711.814786412095, -3515.929402819801, -2777.830097416651, -2861.2915112127675, -1892.9915896644104, -8081.876704916562, -15242.146282451902, 0.0, 0.0, 0.0, 192.0, 0.0, 0.0, 0.0, 0.0, 0.0, 0.0, 0.0, 0.0, 0.0, 1.645922795392572E9, 0.0, 2022-02-27 11:46:35.392
224.0, -716.5969272371444, -3267.512114943518, -2013.288678322873, -9434.984259007486, 362.47823983171463, 250.6077588329028, -4795.5891246305855, -1461.0664798100568, -1461.8264391215373, -4309.729255405576, -3623.5530523721045, -2691.1500324189706, -3019.318344511789, -1896.0761303992429, -7834.621707751955, -14675.864836676697, 0.0, 0.0, 0.0, 192.0, 0.0, 0.0, 0.0, 0.0, 0.0, 0.0, 0.0, 0.0, 0.0, 1.645922795392575E9, 0.0, 2022-02-27 11:46:35.392
224.0, -346.67555650181254, -1557.6483676014386, -1055.047041779404, -4690.02183556817, 103.62268729480354, 78.85695443832331, -2506.9716581072403, -875.8531064812073, -1461.8264391215373, -4309.729255405576, -3623.5530523721045, -2691.1500324189706, -3019.318344511789, -1896.0761303992429, -7834.621707751955, -14675.864836676697, 0.0, 0.0, 0.0, 192.0, 0.0, 0.0, 0.0, 0.0, 0.0, 0.0, 0.0, 0.0, 0.0, 1.64592279547969E9, 0.0, 2022-02-27 11:46:35.479
2.0, -1109.8088156949063, -3441.1404658723436, -2362.8029063705094, -9674.05851770145, -159.61380715534773, 7.756055325991551, -5025.342705886687, -1746.2523873153195, -2684.9809509493057, -4754.037231688169, -3868.595226835636, -2788.760100455296, -3192.7008262516056, -1978.48701220596, -8140.393571900556, -15191.67604347182, 0.0, 0.0, 0.0, 192.0, 0.0, 0.0, 0.0, 0.0, 0.0, 0.0, 0.0, 0.0, 0.0, 1.645922795485624E9, 0.0, 2022-02-27 11:46:35.485
4.0, -493.7053315288224, -2954.6547478025855, -1902.1558048910863, -9153.732258526357, 417.57528991404655, 369.6531498018682, -4732.020763399692, -1381.6954352492614, -1475.9080381283807, -3925.7486374078558, -3544.9419671227897, -2549.9987661837063, -2912.566412993242, -1661.4275171074294, -7793.941532843296, -14356.659574110457, 0.0, 0.0, 0.0, 192.0, 0.0, 0.0, 0.0, 0.0, 0.0, 0.0, 0.0, 0.0, 0.0, 1.645922795493461E9, 0.0, 2022-02-27 11:46:35.493
6.0, -932.2912612308576, -3308.7063799746493, -2282.6495507537784, -9574.906179297708, -24.206939245097548, 30.35366897030699, -5085.021863582357, -1826.6069086321484, -3805.071569093653, -4852.519017758253, -3648.9893375622437, -2740.234463242825, -2944.507055819876, -1823.589423130682, -8197.211706305947, -15441.568546482153, 0.005, -0.053, 0.5, 192.0, 0.0, 40.0, 126.0, 88.0, 15.5, 32.0, 0.0, 0.0, 0.0, 1.64592279550152E9, 0.0, 2022-02-27 11:46:35.501
8.0, -823.8405971337077, -3209.196413659622, -2134.0998571038076, -9427.451721126046, 104.89673672875604, 201.07629311994233, -4853.8154189366605, -1489.833174924037, -1234.486846266609, -4139.498369633958, -3759.496362149282, -2634.9577468583284, -3129.5347964209077, -1853.0490223227766, -7872.776135537164, -14504.96339857142, 0.005, -0.053, 0.5, 192.0, 0.0, 0.0, 0.0, 0.0, 0.0, 0.0, 0.0, 0.0, 0.0, 1.645922795508199E9, 0.0, 2022-02-27 11:46:35.508
10.0, -488.6091337930124, -2956.1970181700017, -1943.9759187669658, -9203.621352150602, 390.01558900065294, 306.46476822671514, -4856.855256182583, -1545.5337221066623, -2863.705499613941, -4315.652467686233, -3471.896466242846, -2606.749845355731, -2798.50546103781, -1631.6549934929603, -7969.693299495376, -14870.593234371334, 0.005, -0.053, 0.5, 192.0, 0.0, 0.0, 0.0, 0.0, 0.0, 0.0, 0.0, 0.0, 0.0, 1.645922795516083E9, 0.0, 2022-02-27 11:46:35.516
12.0, -1090.586315463342, -3419.7051429397043, -2361.573560425468, -9678.305349147959, -159.63615889980304, 3.620982601759744, -5028.673115810528, -1754.0084426413111, -2708.4055791384676, -4758.75344976824, -3858.425183108471, -2775.9525508824054, -3185.8611924482816, -1982.3762157411834, -8147.076743492693, -15209.132755891414, 0.005, -0.053, 0.5, 192.0, 0.0, 0.0, 0.0, 0.0, 0.0, 0.0, 0.0, 0.0, 0.0, 1.645922795524109E9, 0.0, 2022-02-27 11:46:35.524
14.0, -484.2058401353169, -2939.857892973172, -1901.8652322131672, -9160.348374885127, 416.9941445582086, 372.13419343640726, -4741.475551304287, -1372.5312200225856, -1445.509665669163, -3901.1170150181074, -3541.8350746435017, -2551.138705150927, -2911.538232748298, -1672.2681131682532, -7798.143660800894, -14360.682888112413, 0.005, -0.053, 0.5, 192.0, 0.0, 0.0, 0.0, 0.0, 0.0, 0.0, 0.0, 0.0, 0.0, 1.64592279553069E9, 0.0, 2022-02-27 11:46:35.530
16.0, -929.4525896850336, -3295.518850746018, -2286.5164025445465, -9580.047080522429, -33.95229982761143, 36.25452950650806, -5079.188058279522, -1821.5554143852492, -3800.601220202592, -4857.995195149803, -3650.0398695516433, -2752.7961436267074, -2942.9647854524596, -1809.3066584237408, -8201.011502863348, -15434.572450467642, 0.0095, -0.0805, 0.747, 192.0, 0.0, 56.0, 126.0, 80.0, 15.5, 8.0, 0.0, 0.0, 0.0, 1.645922795545759E9, 0.0, 2022-02-27 11:46:35.545
18.0, -820.3537249986798, -3209.486986337541, -2134.23396757054, -9423.875442013197, 105.07555068439851, 202.8420809319116, -4839.465598996353, -1495.510518015685, -1227.2895845520002, -4132.43521838608, -3759.4516586603713, -2647.0053371197387, -3132.2617092444552, -1860.4027462485728, -7869.825705269063, -14496.648549634047, 0.0095, -0.0805, 0.747, 192.0, 0.0, 0.0, 0.0, 0.0, 0.0, 0.0, 0.0, 0.0, 0.0, 1.645922795553716E9, 0.0, 2022-02-27 11:46:35.553
20.0, -487.73741575925544, -2962.991948484415, -1946.5910728682368, -9200.402700949038, 391.1778797123289, 306.598878693447, -4862.979634163336, -1562.923379292891, -2868.3546624606447, -4320.323982277391, -3476.255056411631, -2603.41943543189, -2802.707588995408, -1645.2672058662422, -7970.699127995865, -14874.571844884378, 0.0095, -0.0805, 0.747, 192.0, 0.0, 0.0, 0.0, 0.0, 0.0, 0.0, 0.0, 0.0, 0.0, 1.645922795560241E9, 0.0, 2022-02-27 11:46:35.560
22.0, -1094.944905632127, -3431.216291334187, -2371.654197174811, -9682.596884083378, -156.75278386506844, 4.805625057891018, -5039.379601404619, -1753.4496490299284, -2723.090675245604, -4773.818525531116, -3867.231770423862, -2777.316007294179, -3188.8116227163823, -1990.0875675782643, -8150.407153416533, -15216.330017606024, 0.0095, -0.0805, 0.747, 192.0, 0.0, 0.0, 0.0, 0.0, 0.0, 0.0, 0.0, 0.0, 0.0, 1.645922795568399E9, 0.0, 2022-02-27 11:46:35.568
24.0, -490.1737559048839, -2952.4195733570546, -1914.8962992306115, -9168.082078466663, 407.9863915427198, 367.5073823341587, -4729.226795342779, -1382.6565602608396, -1448.4377441928082, -3926.8215211417105, -3549.568778225038, -2558.000690698706, -2917.729665962418, -1673.922142257946, -7798.92597185683, -14366.114362015052, 0.0095, -0.0805, 0.747, 192.0, 0.0, 0.0, 0.0, 0.0, 0.0, 0.0, 0.0, 0.0, 0.0, 1.645922795576422E9, 0.0, 2022-02-27 11:46:35.576
26.0, -927.9103193176174, -3306.515909018029, -2289.891515957298, -9578.437754921646, -23.379924700251188, 39.27201500797451, -5079.568037935262, -1815.5204433823162, -3812.358237786083, -4858.777506205739, -3656.8795033549673, -2752.7290883933415, -2945.8928639761048, -1821.8236353187128, -8199.849212151672, -15438.327543536132, 0.01175, -0.09425, 0.8705, 192.0, 0.0, 56.0, 126.0, 80.0, 15.5, 8.0, 0.0, 0.0, 0.0, 1.645922795583528E9, 0.0, 2022-02-27 11:46:35.583
28.0, -824.6005564451882, -3203.9884572015358, -2144.5381217644363, -9435.788921807876, 110.28350714248505, 199.0646361189647, -4834.414104749454, -1498.4833000282408, -1247.7414307286062, -4155.256349474949, -3770.940455310399, -2642.847912651052, -3141.1577035376677, -1866.9741591184331, -7877.760574550698, -14514.038206820274, 0.01175, -0.09425, 0.8705, 192.0, 0.0, 0.0, 0.0, 0.0, 0.0, 0.0, 0.0, 0.0, 0.0, 1.645922795591017E9, 0.0, 2022-02-27 11:46:35.591
30.0, -481.4118720784035, -2945.0658494312584, -1947.999232768921, -9198.502802670337, 397.97281002674225, 309.61636419491344, -4839.532654229719, -1558.1401059794553, -2835.4305428779776, -4303.2248977690815, -3473.25992265462, -2611.711932624809, -2802.6181820175866, -1656.4654298383512, -7960.260863335236, -14865.340574424336, 0.01175, -0.09425, 0.8705, 192.0, 0.0, 0.0, 0.0, 0.0, 0.0, 0.0, 0.0, 0.0, 0.0, 1.645922795598104E9, 0.0, 2022-02-27 11:46:35.598
32.0, -1099.236440567546, -3428.7575994441036, -2377.3315402664593, -9686.195514940682, -157.06570828744273, -0.7599593114804402, -5020.022990706324, -1749.8733699170793, -2740.8156085986625, -4770.264598162723, -3863.4766773553706, -2776.4666410048776, -3189.2810093499434, -2001.5987159727474, -8148.976641771394, -15225.114253176958, 0.01175, -0.09425, 0.8705, 192.0, 0.0, 0.0, 0.0, 0.0, 0.0, 0.0, 0.0, 0.0, 0.0, 1.645922795605947E9, 0.0, 2022-02-27 11:46:35.605
34.0, -490.75490126072185, -2943.6353377861187, -1912.1917381515193, -9166.897436010533, 409.9086415658762, 374.078795204019, -4729.450312787332, -1370.5642665105186, -1447.7448401146937, -3919.780721638289, -3554.4638102607505, -2562.1804669118487, -2929.956070179471, -1686.170898219454, -7792.958056087263, -14354.871434554034, 0.01175, -0.09425, 0.8705, 192.0, 0.0, 0.0, 0.0, 0.0, 0.0, 0.0, 0.0, 0.0, 0.0, 1.645922795613272E9, 0.0, 2022-02-27 11:46:35.613
36.0, -905.0444847398383, -3287.7851471644817, -2271.4289750372145, -9561.361022157791, -4.425645402150798, 53.13009657026489, -5064.5476656612955, -1816.0568852492436, -3808.4690342508597, -4856.542331760208, -3645.9047968274117, -2742.156713265981, -2938.561491794764, -1810.4689491354168, -8190.707348669452, -15430.325619021132, 0.011875, -0.10112499999999999, 0.93225, 192.0, 0.0, 48.0, 126.0, 80.0, 15.5, 8.0, 0.0, 0.0, 0.0, 1.645922795620666E9, 0.0, 2022-02-27 11:46:35.620
38.0, -838.5703967297551, -3214.940811984636, -2157.770354481978, -9447.6800498581, 90.74808248854667, 187.21821155765195, -4834.2129390493565, -1511.670829256872, -1281.3137509004773, -4174.702367151066, -3777.131888524519, -2639.1375230714707, -3148.600834441285, -1871.3774527761286, -7880.0851559740495, -14535.205308819452, 0.011875, -0.10112499999999999, 0.93225, 192.0, 0.0, 0.0, 0.0, 0.0, 0.0, 0.0, 0.0, 0.0, 0.0, 1.645922795628577E9, 0.0, 2022-02-27 11:46:35.628
40.0, -486.7986424921325, -2945.8705122316496, -1949.6756136030692, -9199.419224193005, 398.5316036381249, 319.83111141098874, -4849.076849112135, -1546.8524750295253, -2798.214888359891, -4284.13650800425, -3476.836201767469, -2604.9840575437615, -2810.4412925769443, -1637.7123162403484, -7957.310433067136, -14840.373675867759, 0.011875, -0.10112499999999999, 0.93225, 192.0, 0.0, 0.0, 0.0, 0.0, 0.0, 0.0, 0.0, 0.0, 0.0, 1.645922795636615E9, 0.0, 2022-02-27 11:46:35.636
42.0, -1114.3238680748782, -3444.649689751827, -2382.8077176580096, -9701.282942448013, -167.14634503678622, -9.074808248854668, -5047.672098597539, -1768.4923730483501, -2805.836833219151, -4802.495813667276, -3875.9042472725214, -2794.325684824668, -3198.132300154245, -1992.8815356351777, -8161.471266921911, -15240.693419062307, 0.011875, -0.10112499999999999, 0.93225, 192.0, 0.0, 0.0, 0.0, 0.0, 0.0, 0.0, 0.0, 0.0, 0.0, 1.645922795643358E9, 0.0, 2022-02-27 11:46:35.643
44.0, -499.4497298538363, -2949.983233211426, -1914.941002719522, -9172.641834335547, 403.42663567383715, 366.7474230226783, -4729.383257553966, -1381.8966009493593, -1418.8440345339818, -3939.606718970146, -3566.5784557555266, -2565.756746024698, -2936.572186538242, -1683.0416539957112, -7794.947361343785, -14353.575033375626, 0.011875, -0.10112499999999999, 0.93225, 192.0, 0.0, 0.0, 0.0, 0.0, 0.0, 0.0, 0.0, 0.0, 0.0, 1.645922795651372E9, 0.0, 2022-02-27 11:46:35.651
46.0, -920.4001331806343, -3306.270039829021, -2283.3201030874375, -9572.089859496338, -14.349819940307134, 39.048497563421435, -5059.607930136673, -1812.9276410255006, -3810.033656362731, -4856.497628271298, -3647.6929363838362, -2745.73299237883, -2940.9754801959375, -1831.0996092676653, -8190.662645180541, -15421.630790428018, 0.0109375, -0.1055625, 0.962125, 192.0, 0.0, 40.0, 126.0, 72.0, 15.5, 0.0, 0.0, 0.0, 0.0, 1.645922795665474E9, 0.0, 2022-02-27 11:46:35.665
48.0, -839.6209287191544, -3225.0214487339795, -2158.306796348905, -9441.846244555265, 92.24564936705225, 196.44948201769378, -4837.05161059518, -1489.6320092239391, -1270.942541473215, -4167.236884502993, -3782.8315833606225, -2645.7536394302415, -3151.5065612204744, -1886.7107494724692, -7883.0802897310605, -14518.262686522328, 0.0109375, -0.1055625, 0.962125, 192.0, 0.0, 0.0, 0.0, 0.0, 0.0, 0.0, 0.0, 0.0, 0.0, 1.645922795672951E9, 0.0, 2022-02-27 11:46:35.672
50.0, -477.43326156535886, -2947.6810035325293, -1938.387982653139, -9193.071328767697, 407.87463282044325, 319.83111141098874, -4851.7590584467725, -1557.6483676014386, -2814.0622751787037, -4307.181156537671, -3483.0723384704997, -2609.2755924791804, -2812.7211705113855, -1646.3177378556418, -7965.446468048867, -14845.469873603568, 0.0109375, -0.1055625, 0.962125, 192.0, 0.0, 0.0, 0.0, 0.0, 0.0, 0.0, 0.0, 0.0, 0.0, 1.645922795680921E9, 0.0, 2022-02-27 11:46:35.680
52.0, -1100.5328417459539, -3436.580710003461, -2372.6823774197555, -9686.486087618601, -158.4962199325824, 12.427569917150727, -5033.814017035248, -1746.565311737694, -2790.3023708227124, -4802.741682856284, -3862.0908691991413, -2780.4899550068326, -3185.436509303631, -1988.835869888767, -8159.571368643209, -15237.161843438369, 0.0109375, -0.1055625, 0.962125, 192.0, 0.0, 0.0, 0.0, 0.0, 0.0, 0.0, 0.0, 0.0, 0.0, 1.645922795689676E9, 0.0, 2022-02-27 11:46:35.689
54.0, -496.38754086345926, -2951.212579156468, -1916.4385695980275, -9171.121915712585, 405.19242348580644, 378.75030979517817, -4719.7496556937285, -1359.3436907939542, -1419.5369386120963, -3938.980870125398, -3553.8379614160017, -2554.8043912415974, -2932.705334747474, -1671.9104852569683, -7790.141736285894, -14343.002658248266, 0.0109375, -0.1055625, 0.962125, 192.0, 0.0, 0.0, 0.0, 0.0, 0.0, 0.0, 0.0, 0.0, 0.0, 1.645922795696374E9, 0.0, 2022-02-27 11:46:35.696
56.0, -915.2815837003689, -3289.1039000873448, -2278.9838646631083, -9565.674908837665, -8.024276259455236, 63.00956761951061, -5075.008282066379, -1804.5457368547604, -3810.391284274016, -4848.987442134314, -3646.508293927705, -2754.517227949766, -2942.6071575411747, -1802.3552658981403, -8189.410947491044, -15414.746453135784, 0.01146875, -0.10578125, 0.9750624999999999, 192.0, 0.0, 48.0, 126.0, 88.0, 15.0, 112.0, 0.0, 0.0, 0.0, 1.645922795703538E9, 0.0, 2022-02-27 11:46:35.703
58.0, -841.0737921087494, -3226.6978295681274, -2157.368023081782, -9438.24761369796, 89.04934990994333, 203.93731641022163, -4826.14395930099, -1504.764140220182, -1269.6014368058964, -4170.768460126932, -3783.636246161014, -2646.2453778082586, -3149.6960699195947, -1864.6272259506259, -7882.856772286507, -14516.54160219927, 0.01146875, -0.10578125, 0.9750624999999999, 192.0, 0.0, 0.0, 0.0, 0.0, 0.0, 0.0, 0.0, 0.0, 0.0, 1.645922795710852E9, 0.0, 2022-02-27 11:46:35.710
60.0, -477.09798539852926, -2955.4147071140655, -1938.5444448643264, -9187.10341299813, 407.6734671203455, 323.04976261255297, -4818.924345841926, -1538.962309236802, -2790.771757456274, -4301.950848335129, -3482.6476553258485, -2597.965609784795, -2811.581231544165, -1641.3109470976528, -7950.671964963909, -14829.108396662283, 0.01146875, -0.10578125, 0.9750624999999999, 192.0, 0.0, 0.0, 0.0, 0.0, 0.0, 0.0, 0.0, 0.0, 0.0, 1.645922795717926E9, 0.0, 2022-02-27 11:46:35.717
62.0, -1101.1586905907025, -3433.5632245019942, -2378.8067554005092, -9692.20813419916, -168.6662636597471, -0.22351744455307063, -5039.625470593628, -1764.5808177686713, -2834.000031232838, -4815.169252773435, -3865.2871686562503, -2785.5861527426428, -3186.040006403924, -1995.9884281144655, -8155.033964518781, -15247.488349376721, 0.01146875, -0.10578125, 0.9750624999999999, 192.0, 0.0, 0.0, 0.0, 0.0, 0.0, 0.0, 0.0, 0.0, 0.0, 1.645922795727708E9, 0.0, 2022-02-27 11:46:35.727
64.0, -499.74030253175533, -2964.5789223407414, -1916.326810875751, -9178.497991382837, 397.03403675961937, 377.2527429166726, -4779.5629238561305, -1379.8849439483815, -1399.3533133689539, -3941.3725067821156, -3560.5211330081383, -2565.734394280242, -2934.7393434929068, -1686.662636597471, -7788.353596729469, -14345.50605362726, 0.01146875, -0.10578125, 0.9750624999999999, 192.0, 0.0, 0.0, 0.0, 0.0, 0.0, 0.0, 0.0, 0.0, 0.0, 1.645922795733663E9, 0.0, 2022-02-27 11:46:35.733
66.0, -900.7753015488746, -3289.5062314875404, -2269.059690124952, -9561.472780880069, -5.342066924818388, 63.74717518653574, -5100.221049811966, -1830.3843534450953, -3799.7518539132902, -4842.080753097624, -3631.6890873538364, -2739.6533178869868, -2927.7208957339403, -1806.847966533657, -8191.891991125583, -15415.28289500271, 0.011734375, -0.10689062499999999, 0.97853125, 192.0, 0.0, 48.0, 126.0, 80.0, 15.0, 88.0, 0.0, 0.0, 0.0, 1.645922795740548E9, 0.0, 2022-02-27 11:46:35.740
68.0, -851.8920364251181, -3229.648259836228, -2164.766450496489, -9454.96671855053, 72.95609390212225, 191.28622904851784, -4910.454739386409, -1506.2393553542324, -1294.098948728913, -4188.7616144134545, -3785.334978739617, -2649.1511045874486, -3155.753392666983, -1877.8371069237123, -7888.0647287445945, -14538.11103559864, 0.011734375, -0.10689062499999999, 0.97853125, 192.0, 0.0, 0.0, 0.0, 0.0, 0.0, 0.0, 0.0, 0.0, 0.0, 1.645922795748608E9, 0.0, 2022-02-27 11:46:35.748
70.0, -482.9541424458197, -2950.25145414489, -1944.8476368007227, -9194.904171813032, 400.0291705166305, 317.23830905417316, -4795.834993819594, -1518.6222217824725, -2775.147888082014, -4288.1374702617495, -3481.2394954251645, -2610.639048890954, -2819.6278595480753, -1638.405220318463, -7956.885749922485, -14823.31929484836, 0.011734375, -0.10689062499999999, 0.97853125, 192.0, 0.0, 0.0, 0.0, 0.0, 0.0, 0.0, 0.0, 0.0, 0.0, 1.645922795756654E9, 0.0, 2022-02-27 11:46:35.756
72.0, -1106.1207778597807, -3440.425210049774, -2379.5443629675347, -9694.979750511617, -168.93448459321078, -8.560718126382605, -5008.221269633922, -1780.49525982085, -2850.763839574318, -4818.633773164007, -3870.0257384807755, -2793.5880772576425, -3200.5686402998736, -2001.4869572504708, -8150.049525505248, -15250.550538367099, 0.011734375, -0.10689062499999999, 0.97853125, 192.0, 0.0, 0.0, 0.0, 0.0, 0.0, 0.0, 0.0, 0.0, 0.0, 1.645922795763094E9, 0.0, 2022-02-27 11:46:35.763
74.0, -504.7023898008335, -2963.5283903513423, -1920.0819039442426, -9179.928503027977, 403.9407257963092, 365.1604491663515, -4701.287114773645, -1359.611911727418, -1396.0229034451131, -3931.5377392217806, -3558.4424207737948, -2555.586702297533, -2934.2029016259794, -1685.0756627411442, -7782.095108281984, -14339.091102968587, 0.011734375, -0.10689062499999999, 0.97853125, 192.0, 0.0, 0.0, 0.0, 0.0, 0.0, 0.0, 0.0, 0.0, 0.0, 1.645922795771141E9, 0.0, 2022-02-27 11:46:35.771
76.0, -898.6518858256204, -3286.6005047083504, -2269.953759903164, -9561.115152968783, 5.8338053028351435, 51.923102369678304, -5027.75669428786, -1791.849946004146, -3808.8713656510554, -4843.868892654049, -3635.9359188003446, -2740.0780010316375, -2936.7510004938845, -1807.3620566561292, -8177.206895018447, -15405.246961742278, 0.0108671875, -0.1084453125, 0.985265625, 192.0, 0.0, 40.0, 126.0, 72.0, 15.5, 0.0, 0.0, 0.0, 0.0, 1.645922795779216E9, 0.0, 2022-02-27 11:46:35.779
78.0, -851.8249811917522, -3236.219672706088, -2160.296101605428, -9452.39626793817, 79.05812013842107, 185.25125804558493, -4824.71344765585, -1507.5804600215508, -1299.4633673981866, -4197.076463350829, -3784.1056327945753, -2647.5641307311216, -3160.782535169427, -1884.4085197935726, -7883.907304275907, -14535.182957074996, 0.0108671875, -0.1084453125, 0.985265625, 192.0, 0.0, 0.0, 0.0, 0.0, 0.0, 0.0, 0.0, 0.0, 0.0, 1.64592279579272E9, 0.0, 2022-02-27 11:46:35.792
80.0, -473.7228719857779, -2945.043497686803, -1931.9506802500107, -9179.503819883326, 411.33915321101586, 330.89522491636575, -4830.971936103337, -1522.7572945067043, -2757.9146931069727, -4278.548571890423, -3478.7584517906253, -2590.9471620258287, -2814.12933041207, -1645.110743655055, -7947.833293418085, -14811.517573775956, 0.0108671875, -0.1084453125, 0.985265625, 192.0, 0.0, 0.0, 0.0, 0.0, 0.0, 0.0, 0.0, 0.0, 0.0, 1.645922795800776E9, 0.0, 2022-02-27 11:46:35.800
82.0, -1104.4220452811774, -3430.67984946726, -2379.0302728450624, -9688.654206830764, -168.2862840040069, 6.99609601451111, -5039.804284549271, -1768.6264835150819, -2911.247660070379, -4813.425816705921, -3862.3143866436944, -2781.831059674151, -3187.9622564270803, -1991.7192449235017, -8166.321595468712, -15261.279375705646, 0.0108671875, -0.1084453125, 0.985265625, 192.0, 0.0, 0.0, 0.0, 0.0, 0.0, 0.0, 0.0, 0.0, 0.0, 1.645922795808786E9, 0.0, 2022-02-27 11:46:35.808
84.0, -500.9696484767972, -2956.9569774814818, -1917.422046354061, -9167.456229621916, 398.4869001492143, 377.5880190835022, -4751.913815964916, -1386.6351707738843, -1366.228028086189, -3919.8701286161104, -3563.2927493205966, -2556.1454959089156, -2944.1941313975017, -1685.209773207876, -7787.057195551061, -14328.675190052414, 0.0108671875, -0.1084453125, 0.985265625, 192.0, 0.0, 0.0, 0.0, 0.0, 0.0, 0.0, 0.0, 0.0, 0.0, 1.64592279581585E9, 0.0, 2022-02-27 11:46:35.815
86.0, -870.1087081561933, -3267.8920945992586, -2249.054878837452, -9526.22407987405, 20.69771536561434, 78.70049222713617, -5066.179343006533, -1804.590440343671, -3799.885964380022, -4826.568642445641, -3617.7192470692694, -2721.3695909225453, -2923.3846573096107, -1797.0579024622325, -8179.911456097539, -15392.57352263612, 0.012, -0.10400000000000001, 0.99, 192.0, 0.0, 48.0, 126.0, 96.0, 15.0, 120.0, 0.0, 0.0, 0.0, 1.645922795823493E9, 0.0, 2022-02-27 11:46:35.823
88.0, -868.0746994107604, -3248.714297856605, -2174.4224041011817, -9466.611977411745, 73.55959100241554, 181.51851672154865, -4843.757133931772, -1519.3821810939528, -1356.9073506483257, -4225.9772689315405, -3788.4195194744493, -2651.7886104331747, -3160.335500280321, -1889.0800343847318, -7891.931580535363, -14561.848588210178, 0.012, -0.10400000000000001, 0.99, 192.0, 0.0, 0.0, 0.0, 0.0, 0.0, 0.0, 0.0, 0.0, 0.0, 1.645922795831524E9, 0.0, 2022-02-27 11:46:35.831
90.0, -461.9882061467417, -2931.632451013619, -1929.134360448642, -9177.603921604625, 424.2808132506387, 340.372364565416, -4828.602651191074, -1517.5940415375283, -2712.1383204625035, -4267.193885707126, -3474.265751155109, -2598.300885951625, -2804.2498593628243, -1635.700659239371, -7933.081142077583, -14785.298977529881, 0.012, -0.10400000000000001, 0.99, 192.0, 0.0, 0.0, 0.0, 0.0, 0.0, 0.0, 0.0, 0.0, 0.0, 1.6459227958385E9, 0.0, 2022-02-27 11:46:35.838
92.0, -1099.8622894122946, -3431.708029712204, -2380.6843019347552, -9690.464698131645, -164.66530140224714, 4.9397355246228605, -5043.469970639941, -1769.9005329490344, -2896.5849157076977, -4816.175081273924, -3858.134610430552, -2791.9563999124052, -3179.178020856145, -1982.4656227190046, -8163.058240778237, -15256.898433792405, 0.012, -0.10400000000000001, 0.99, 192.0, 0.0, 0.0, 0.0, 0.0, 0.0, 0.0, 0.0, 0.0, 0.0, 1.645922795845053E9, 0.0, 2022-02-27 11:46:35.845
94.0, -520.0580382416294, -2976.9394370245263, -1927.6591453145918, -9174.362918658606, 397.7269408377339, 378.4820888617145, -4733.048943644637, -1374.4758217901972, -1383.3941678278647, -3924.519291462814, -3567.1596011113647, -2562.0240047006614, -2938.315622605756, -1679.2865609272196, -7785.067890294539, -14325.903573739955, 0.012, -0.10400000000000001, 0.99, 192.0, 0.0, 0.0, 0.0, 0.0, 0.0, 0.0, 0.0, 0.0, 0.0, 1.645922795853555E9, 0.0, 2022-02-27 11:46:35.853
96.0, -885.665522297087, -3273.5023824575405, -2260.0742888539185, -9535.231832889538, 14.729799596047354, 74.0736811248876, -5069.2415319969095, -1808.2114229454307, -3816.269793065762, -4830.211976791857, -3626.4587791512945, -2729.796198582196, -2922.0659043867477, -1790.4417861034617, -8178.436240963489, -15393.758165092251, 0.008, -0.10400000000000001, 0.992, 192.0, 0.0, 32.0, 126.0, 96.0, 15.5, 0.0, 0.0, 0.0, 0.0, 1.645922795861049E9, 0.0, 2022-02-27 11:46:35.861
98.0, -861.637397007632, -3234.319774427387, -2174.4671075900924, -9455.458456928547, 69.22335257808598, 192.24735406009606, -4855.268282326256, -1511.961401934791, -1339.5400452065523, -4201.680922708621, -3790.788804386712, -2646.155970830437, -3160.9613491250693, -1875.9148569005558, -7896.17841198187, -14553.220814850429, 0.008, -0.10400000000000001, 0.992, 192.0, 0.0, 0.0, 0.0, 0.0, 0.0, 0.0, 0.0, 0.0, 0.0, 1.64592279586824E9, 0.0, 2022-02-27 11:46:35.868
100.0, -473.4770027967695, -2948.664480288563, -1930.3637063936837, -9174.944064014444, 417.0164963026639, 339.2547773426506, -4840.359668774566, -1518.666925271383, -2720.9896112668052, -4271.239551453537, -3481.6194750809045, -2609.700275623831, -2814.4646065788993, -1637.667612751438, -7942.8935578934625, -14789.92578863213, 0.008, -0.10400000000000001, 0.992, 192.0, 0.0, 0.0, 0.0, 0.0, 0.0, 0.0, 0.0, 0.0, 0.0, 1.64592279587567E9, 0.0, 2022-02-27 11:46:35.875
102.0, -1119.978859422071, -3448.6953554982374, -2388.306246794015, -9688.542448108488, -175.48354571861574, 4.291534935418956, -5047.627395108628, -1774.9967306848444, -2946.9657477099595, -4850.082677612624, -3864.5048576003146, -2793.610429002098, -3187.7610907269827, -1982.3985674856388, -8173.608264161142, -15271.73999211073, 0.008, -0.10400000000000001, 0.992, 192.0, 0.0, 0.0, 0.0, 0.0, 0.0, 0.0, 0.0, 0.0, 0.0, 1.645922795883936E9, 0.0, 2022-02-27 11:46:35.883
104.0, -517.3981806514479, -2963.5060386068867, -1925.848654013712, -9178.073308238187, 393.0107227576641, 373.4305946148151, -4735.686449490363, -1387.5292405520966, -1365.1104408634235, -3928.520253720314, -3569.953569168278, -2558.134801165438, -2949.983233211426, -1679.8006510496916, -7784.822021105531, -14327.445844107371, 0.008, -0.10400000000000001, 0.992, 192.0, 0.0, 0.0, 0.0, 0.0, 0.0, 0.0, 0.0, 0.0, 0.0, 1.64592279589181E9, 0.0, 2022-02-27 11:46:35.891
106.0, -873.6849872690425, -3253.5422746589516, -2245.7915241469773, -9524.950030440097, 27.38088695775115, 71.8608584238122, -5066.626377895639, -1813.1958619589643, -3808.4690342508597, -4800.260639221745, -3622.569575616071, -2744.6824603894306, -2927.9444131784935, -1789.7041785364365, -8176.312825240234, -15393.37818543651, 0.01, -0.1, 0.994, 192.0, 0.0, 40.0, 126.0, 112.0, 15.5, 8.0, 0.0, 0.0, 0.0, 1.645922795898409E9, 0.0, 2022-02-27 11:46:35.898
108.0, -882.6703885400759, -3248.244911223044, -2185.4641658621035, -9472.423430970124, 55.946416371633575, 173.85186837337832, -4873.44025056842, -1537.509445847207, -1375.995740413158, -4224.2114811195715, -3797.7849004012232, -2663.2103518498366, -3175.646445232206, -1894.5785635207371, -7901.98986554025, -14575.013765694353, 0.01, -0.1, 0.994, 192.0, 0.0, 0.0, 0.0, 0.0, 0.0, 0.0, 0.0, 0.0, 0.0, 1.645922795913397E9, 0.0, 2022-02-27 11:46:35.913
110.0, -466.41385154889247, -2937.0639249162587, -1929.5590435932927, -9172.328909913173, 411.60737414447954, 335.7679052076227, -4838.571529218141, -1530.535701577151, -2676.9790264343055, -4253.469914611568, -3477.216181423209, -2600.1784324858704, -2824.70170553943, -1639.0310691632117, -7939.406685758435, -14776.894721614686, 0.01, -0.1, 0.994, 192.0, 0.0, 0.0, 0.0, 0.0, 0.0, 0.0, 0.0, 0.0, 0.0, 1.645922795921386E9, 0.0, 2022-02-27 11:46:35.921
112.0, -1110.07703662837, -3431.909195412302, -2389.557944483512, -9687.760137052554, -180.088005076409, 6.660819847681505, -5059.563226647762, -1781.1658121545092, -2958.119268193158, -4830.144921558491, -3855.206531906907, -2785.854373676106, -3188.342236082821, -1976.4753552049824, -8179.397365975066, -15280.16659977038, 0.01, -0.1, 0.994, 192.0, 0.0, 0.0, 0.0, 0.0, 0.0, 0.0, 0.0, 0.0, 0.0, 1.645922795928001E9, 0.0, 2022-02-27 11:46:35.928
114.0, -515.587689350568, -2961.337919394722, -1928.4638081149828, -9174.251159936328, 381.54427785209157, 375.21873417123965, -4753.3890310989655, -1376.867458446915, -1342.1999027967338, -3912.9857913238757, -3569.797106957091, -2552.323347607058, -2957.6498815595965, -1678.3030841711861, -7792.1533932868715, -14317.320503869118, 0.01, -0.1, 0.994, 192.0, 0.0, 0.0, 0.0, 0.0, 0.0, 0.0, 0.0, 0.0, 0.0, 1.645922795936134E9, 0.0, 2022-02-27 11:46:35.936
116.0, -872.120365157171, -3255.039841537457, -2248.2949195259716, -9524.391236828713, 15.601517629804329, 71.90556191272282, -5073.466011698963, -1797.7731582848023, -3790.162955541963, -4790.694092594873, -3613.3606569004846, -2725.1246839910373, -2923.1611398650575, -1783.4456900889506, -8180.313787497734, -15378.313109673634, 0.016, -0.10200000000000001, 0.994, 192.0, 0.0, 64.0, 126.0, 104.0, 15.5, 8.0, 0.0, 0.0, 0.0, 1.645922795944026E9, 0.0, 2022-02-27 11:46:35.944
118.0, -866.1300976431487, -3232.4869313820523, -2176.635226802257, -9463.370974465726, 49.57616920187107, 176.39996724128335, -4869.752212733294, -1531.3850678664528, -1356.616777970407, -4214.287306581415, -3790.162955541963, -2662.2939303271687, -3174.7970789429046, -1877.6359412236145, -7906.9072493204185, -14564.97783243392, 0.016, -0.10200000000000001, 0.994, 192.0, 0.0, 0.0, 0.0, 0.0, 0.0, 0.0, 0.0, 0.0, 0.0, 1.645922795950785E9, 0.0, 2022-02-27 11:46:35.950
120.0, -450.4547060078032, -2916.76854095084, -1920.2830696443405, -9163.477619108871, 414.6472113904013, 337.46663778622604, -4844.382982776521, -1523.0031636957126, -2668.8206397081185, -4234.068600424362, -3466.576751062483, -2592.422377159879, -2822.220661904891, -1630.5374062701949, -7939.294927036158, -14772.87140761273, 0.016, -0.10200000000000001, 0.994, 192.0, 0.0, 0.0, 0.0, 0.0, 0.0, 0.0, 0.0, 0.0, 0.0, 1.645922795958598E9, 0.0, 2022-02-27 11:46:35.958
122.0, -1100.465786512588, -3426.2765558095643, -2380.170211812283, -9686.374328896323, -183.68663593371343, -3.3751134127513667, -5060.099668514689, -1785.7255680233918, -2976.0006637574033, -4828.289726768699, -3845.6176335355804, -2779.1041468506037, -3188.431643060642, -1972.9214278365885, -8179.017386319326, -15286.246274262223, 0.016, -0.10200000000000001, 0.994, 192.0, 0.0, 0.0, 0.0, 0.0, 0.0, 0.0, 0.0, 0.0, 0.0, 1.64592279596571E9, 0.0, 2022-02-27 11:46:35.965
124.0, -506.89286075745355, -2950.7431925229066, -1924.686363302036, -9175.52520937028, 377.07392896103016, 371.75421378066704, -4752.919644465404, -1390.4349673312865, -1325.3019839885217, -3904.872108086599, -3560.185856841309, -2552.9268447073514, -2958.0075094708814, -1677.9231045154459, -7784.911428083352, -14320.852079493055, 0.016, -0.10200000000000001, 0.994, 192.0, 0.0, 0.0, 0.0, 0.0, 0.0, 0.0, 0.0, 0.0, 0.0, 1.645922795973791E9, 0.0, 2022-02-27 11:46:35.973
126.0, -846.7511352003975, -3225.3567249008092, -2235.7108873976335, -9515.02585590194, 32.20886376009748, 84.511945785516, -5072.929569832036, -1804.0316467322884, -3779.3223594811393, -4784.7261768253065, -3601.827156761546, -2724.029448512727, -2916.343857806189, -1767.1289166365764, -8173.876485094605, -15374.759182305239, 0.016, -0.106, 0.992, 192.0, 0.0, 64.0, 126.0, 88.0, 15.5, 0.0, 0.0, 0.0, 0.0, 1.645922795980248E9, 0.0, 2022-02-27 11:46:35.980
128.0, -868.0523476663051, -3242.7910855759487, -2180.8820582487656, -9472.959872837053, 49.91144536870067, 164.82176361343429, -4876.793012236716, -1549.244111686243, -1375.4369468017753, -4220.568146773356, -3788.240705518807, -2663.4785727833, -3171.5784277413404, -1892.2763338418406, -7906.594324898044, -14580.869922741644, 0.016, -0.106, 0.992, 192.0, 0.0, 0.0, 0.0, 0.0, 0.0, 0.0, 0.0, 0.0, 0.0, 1.64592279598831E9, 0.0, 2022-02-27 11:46:35.988
130.0, -442.22926404825023, -2914.2874973163007, -1917.7573225208907, -9164.505799353814, 424.6160894174683, 342.20520761075113, -4829.116741313546, -1520.1868438943438, -2634.778932902686, -4215.986039160018, -3463.3580998609186, -2591.260086448203, -2816.3421531131453, -1618.8474439200693, -7931.851796132541, -14763.930709830609, 0.016, -0.106, 0.992, 192.0, 0.0, 0.0, 0.0, 0.0, 0.0, 0.0, 0.0, 0.0, 0.0, 1.645922795996353E9, 0.0, 2022-02-27 11:46:35.996
132.0, -1092.5756207198644, -3417.8499481499134, -2378.6055897004117, -9686.463735874146, -183.79839465598997, -6.146729725209442, -5062.33484296022, -1790.911172737023, -2974.63720734563, -4819.639601664496, -3840.007345677298, -2784.4238620309666, -3179.0662621338683, -1981.3703872406945, -8177.2739502518125, -15288.861428363494, 0.016, -0.106, 0.992, 192.0, 0.0, 0.0, 0.0, 0.0, 0.0, 0.0, 0.0, 0.0, 0.0, 1.645922796003467E9, 0.0, 2022-02-27 11:46:36.003
134.0, -511.6984858153446, -2953.53716057982, -1921.9818022229438, -9183.080098996175, 371.0389579580972, 362.16531540934034, -4763.268502148211, -1396.000551700658, -1321.5915944089406, -3902.2122504964177, -3558.2636068181523, -2543.1814841248374, -2951.5478553232974, -1681.3652731615632, -7788.890038596397, -14326.372960373517, 0.016, -0.106, 0.992, 192.0, 0.0, 0.0, 0.0, 0.0, 0.0, 0.0, 0.0, 0.0, 0.0, 1.645922796010897E9, 0.0, 2022-02-27 11:46:36.010
136.0, -856.0047574048946, -3239.7288965855714, -2233.4533612076475, -9522.759559483477, 22.37409619976237, 69.71509095610273, -5069.666215141561, -1815.4980916378609, -3784.0609293056646, -4783.608589602541, -3603.6823515513365, -2727.2704514587467, -2918.444921784988, -1778.7071202644254, -8175.2175897619245, -15384.102211487558, 0.016, -0.11, 0.984, 192.0, 0.0, 64.0, 126.0, 72.0, 15.0, 96.0, 0.0, 0.0, 0.0, 1.64592279601903E9, 0.0, 2022-02-27 11:46:36.019
138.0, -869.0358244223386, -3247.5743588893843, -2171.6507877887234, -9470.545884435878, 50.44788723562804, 167.16869678124152, -4879.519925060264, -1549.221759941788, -1368.6867199762726, -4225.3290683423365, -3795.9073538669772, -2655.8342761795852, -3177.1887155996224, -1891.1587466190754, -7907.130766764971, -14583.015690209353, 0.016, -0.11, 0.984, 192.0, 0.0, 0.0, 0.0, 0.0, 0.0, 0.0, 0.0, 0.0, 0.0, 1.645922796026991E9, 0.0, 2022-02-27 11:46:36.026
140.0, -450.074726352063, -2925.1057416326694, -1909.263659627874, -9162.695308052935, 412.81436834506616, 334.00211739565344, -4845.478218254831, -1529.35105912102, -2639.8304271495854, -4230.559376544878, -3471.091803442455, -2593.2046882158147, -2822.153606671525, -1634.3372028275971, -7935.80805490113, -14766.881140098709, 0.016, -0.11, 0.984, 192.0, 0.0, 0.0, 0.0, 0.0, 0.0, 0.0, 0.0, 0.0, 0.0, 1.645922796040496E9, 0.0, 2022-02-27 11:46:36.040
142.0, -1132.0040979390262, -3457.5242945580835, -2379.6561216898112, -9693.750404566576, -193.0073133715765, -15.266241462974724, -5077.109346045178, -1806.0656554777213, -3016.50202471042, -4847.355764789077, -3851.04910743822, -2798.572516271176, -3183.9612941695805, -1987.383006499172, -8185.655854422553, -15303.50182098172, 0.016, -0.11, 0.984, 192.0, 0.0, 0.0, 0.0, 0.0, 0.0, 0.0, 0.0, 0.0, 0.0, 1.645922796048753E9, 0.0, 2022-02-27 11:46:36.048
144.0, -561.1628962949391, -3008.7459693844285, -1929.0226017263653, -9192.043148522753, 355.99623393967556, 352.4423065712818, -4766.487153349776, -1419.000496745169, -1336.0531730715243, -3924.6981054184566, -3580.794165229102, -2564.5050483352006, -2973.094936978214, -1690.373026177052, -7792.488669453701, -14329.16692843043, 0.016, -0.11, 0.984, 192.0, 0.0, 0.0, 0.0, 0.0, 0.0, 0.0, 0.0, 0.0, 0.0, 1.645922796056566E9, 0.0, 2022-02-27 11:46:36.056
146.0, -919.9530982915281, -3305.264211328532, -2233.1627885297285, -9519.11622513726, 27.336183468840538, 76.97940790407752, -5082.183192036533, -1822.293021952274, -3807.9996476172983, -4805.781520102206, -3621.7202093267692, -2737.9545853083832, -2924.7704654658396, -1781.6128470436154, -8175.239941506379, -15381.598816108564, 0.018000000000000002, -0.108, 0.988, 192.0, 0.0, 72.0, 126.0, 80.0, 15.0, 112.0, 0.0, 0.0, 0.0, 1.645922796063208E9, 0.0, 2022-02-27 11:46:36.063
148.0, -986.4495380460666, -3344.4468193586854, -2185.2630001620055, -9481.945274108086, 42.7141836540918, 175.08121431842022, -4874.379023835543, -1552.2615971877096, -1418.5534618560628, -4258.990795492029, -3824.651697236502, -2684.7127300158418, -3183.782480213938, -1893.0586448977763, -7912.361074967513, -14593.565713592257, 0.018000000000000002, -0.108, 0.988, 192.0, 0.0, 0.0, 0.0, 0.0, 0.0, 0.0, 0.0, 0.0, 0.0, 1.64592279607121E9, 0.0, 2022-02-27 11:46:36.071
150.0, -588.4767280193244, -3048.375612303688, -1920.2830696443405, -9163.119991197585, 421.71036263827835, 359.03607118559734, -4863.58313126363, -1515.53768104764, -2672.3745670765124, -4263.170571705171, -3512.666048129326, -2627.626374676988, -2837.509255112321, -1630.626813248016, -7932.544700210656, -14753.224224236516, 0.018000000000000002, -0.108, 0.988, 192.0, 0.0, 0.0, 0.0, 0.0, 0.0, 0.0, 0.0, 0.0, 0.0, 1.645922796079224E9, 0.0, 2022-02-27 11:46:36.079
152.0, -1308.940507047237, -3614.8358720345345, -2402.9689911566966, -9705.820346572442, -188.82753715843407, -2.078712234343557, -5078.204581523488, -1811.6982950804586, -3091.939162247081, -4891.746329277316, -3897.4513289274373, -2828.9708887303937, -3192.0526256624016, -1975.7824511268677, -8192.33902601469, -15306.072271594081, 0.018000000000000002, -0.108, 0.988, 192.0, 0.0, 0.0, 0.0, 0.0, 0.0, 0.0, 0.0, 0.0, 0.0, 1.645922796085772E9, 0.0, 2022-02-27 11:46:36.085
154.0, -763.155610937549, -3181.502602279497, -1950.9943665259323, -9204.560125417725, 360.757155508656, 366.72507127822297, -4746.348231595544, -1399.6885895357836, -1403.4660343487305, -3973.514315308847, -3647.2906049836406, -2611.331952969069, -2986.2824662068447, -1691.535316888728, -7783.8161926050425, -14324.383655116995, 0.016, -0.11, 0.986, 192.0, 0.0, 56.0, 126.0, 64.0, 15.0, 96.0, 0.0, 0.0, 0.0, 1.645922796092896E9, 0.0, 2022-02-27 11:46:36.092
156.0, -1096.3754172772667, -3467.8731522408907, -2245.3668410023265, -9524.36888508426, 32.9241195826673, 93.6761610121919, -5067.252226740387, -1805.1492339550537, -3870.3833663920605, -4842.416029264454, -3674.1350500744643, -2777.5842282276426, -2929.15140737908, -1774.080309162177, -8167.059203035737, -15368.52304560221, 0.016, -0.11, 0.986, 192.0, 0.0, 0.0, 0.0, 0.0, 0.0, 0.0, 0.0, 0.0, 0.0, 1.64592279610088E9, 0.0, 2022-02-27 11:46:36.100
158.0, -1142.978804466582, -3490.7166350742145, -2206.7430265835555, -9491.891800390697, 37.05919230689911, 182.45728998867156, -4882.135079161534, -1541.6221668269834, -1499.0197418951682, -4313.707865918621, -3883.973227020887, -2732.25489047228, -3202.066207178379, -1898.2889531003182, -7914.1268627794825, -14592.828106025232, 0.016, -0.11, 0.986, 192.0, 0.0, 0.0, 0.0, 0.0, 0.0, 0.0, 0.0, 0.0, 0.0, 1.645922796109186E9, 0.0, 2022-02-27 11:46:36.109
160.0, -690.355979246614, -3139.3472122367875, -1930.3190029047732, -9172.418316890993, 425.55486268459117, 360.24306538618396, -4831.2178052923455, -1507.6475152549167, -2695.8215470101295, -4283.644769626233, -3553.435630015806, -2659.678776225898, -2843.0301359927817, -1629.7774469587146, -7928.364923997513, -14741.668372353122, 0.016, -0.11, 0.986, 192.0, 0.0, 0.0, 0.0, 0.0, 0.0, 0.0, 0.0, 0.0, 0.0, 1.645922796115461E9, 0.0, 2022-02-27 11:46:36.115
162.0, -1326.9113095893038, -3635.8688635669787, -2396.397578286836, -9707.384968684313, -183.48547023361567, 0.715255822569826, -5071.275540742343, -1804.4786816213946, -3149.561959452863, -4910.074759730668, -3916.1150355476184, -2850.093287240659, -3190.0633204058795, -1969.5686661682923, -8183.443031721477, -15317.717530455297, 0.016, -0.11, 0.986, 192.0, 0.0, 0.0, 0.0, 0.0, 0.0, 0.0, 0.0, 0.0, 0.0, 1.645922796123568E9, 0.0, 2022-02-27 11:46:36.123
164.0, -732.2655001003146, -3158.8379334018155, -1948.1780467245635, -9203.353131217138, 364.98163521070904, 370.0107777131531, -4763.380260870488, -1385.0481969175573, -1372.1512403668453, -3964.7300797379116, -3639.0651630240877, -2610.4602349353117, -2978.7052248364957, -1694.5751541346497, -7781.871590837431, -14318.974532958811, 0.013000000000000001, -0.11, 0.984, 192.0, 0.0, 40.0, 126.0, 72.0, 15.0, 88.0, 0.0, 0.0, 0.0, 1.645922796131479E9, 0.0, 2022-02-27 11:46:36.131
166.0, -1026.0344774764153, -3398.8956688518133, -2237.096695553863, -9510.063768632863, 55.09705008233191, 101.9463064606555, -5027.577880332217, -1787.78192851328, -3839.3144415991837, -4816.175081273924, -3651.380974218962, -2759.4346117299333, -2916.2544508283677, -1768.2241521148865, -8158.833761076184, -15354.866129740016, 0.013000000000000001, -0.11, 0.984, 192.0, 0.0, 0.0, 0.0, 0.0, 0.0, 0.0, 0.0, 0.0, 0.0, 1.645922796138624E9, 0.0, 2022-02-27 11:46:36.138
168.0, -1063.6524633946972, -3406.9422968557237, -2204.664314349212, -9485.342739265292, 40.166084786186794, 178.41162424226098, -4849.009793878769, -1543.566768594595, -1484.0664248545677, -4290.305589473915, -3860.5933023206358, -2702.9741052358277, -3196.746491998016, -1893.1927553645082, -7911.422301700391, -14597.7454898054, 0.013000000000000001, -0.11, 0.984, 192.0, 0.0, 0.0, 0.0, 0.0, 0.0, 0.0, 0.0, 0.0, 0.0, 1.645922796146058E9, 0.0, 2022-02-27 11:46:36.146
170.0, -603.2512311042823, -3051.2589873384222, -1921.0653807002761, -9152.011174203299, 422.29150799411633, 362.7911642540889, -4827.306250012666, -1501.701951229805, -2642.870264395507, -4240.908234227685, -3521.182062766798, -2623.670115908398, -2840.057353980226, -1621.8649294215359, -7922.866394861508, -14733.308819926837, 0.013000000000000001, -0.11, 0.984, 192.0, 0.0, 0.0, 0.0, 0.0, 0.0, 0.0, 0.0, 0.0, 0.0, 1.645922796161097E9, 0.0, 2022-02-27 11:46:36.161
172.0, -1240.6335759918186, -3545.0090223561556, -2391.726063695677, -9692.610465599355, -183.08313883342015, 0.357627911284913, -5068.660386641072, -1802.2435071758637, -3123.298659717877, -4877.932951203937, -3880.1287269745744, -2816.096283924137, -3187.0905383933236, -1961.164410253097, -8194.082462082204, -15316.13055659897, 0.013000000000000001, -0.11, 0.984, 192.0, 0.0, 0.0, 0.0, 0.0, 0.0, 0.0, 0.0, 0.0, 0.0, 1.645922796168289E9, 0.0, 2022-02-27 11:46:36.168
174.0, -661.678691110455, -3075.622388794707, -1943.4618286444938, -9197.653436381035, 366.2333329002062, 360.60069329746887, -4732.110170377514, -1413.8148920315377, -1327.5371584340523, -3922.9546693509424, -3607.348037642007, -2580.777118298664, -2975.2407044459233, -1689.0542732541887, -7780.575189659023, -14315.107681168043, 0.013500000000000002, -0.109, 0.983, 192.0, 0.0, 56.0, 126.0, 80.0, 15.0, 88.0, 0.0, 0.0, 0.0, 1.645922796175835E9, 0.0, 2022-02-27 11:46:36.175
176.0, -958.2863400323797, -3326.364258094342, -2228.446570449659, -9503.78292844092, 50.38083200226212, 99.30880061492928, -5048.677927098028, -1789.6818267919812, -3813.0511418641977, -4782.133374468491, -3628.3586774299956, -2736.5911288966095, -2916.992058395393, -1749.4710385168837, -8158.52083665381, -15357.973022219305, 0.013500000000000002, -0.109, 0.983, 192.0, 0.0, 0.0, 0.0, 0.0, 0.0, 0.0, 0.0, 0.0, 0.0, 1.645922796183852E9, 0.0, 2022-02-27 11:46:36.183
178.0, -1024.469855364544, -3374.420508673252, -2209.7158085961114, -9495.043396358895, 23.983421800544477, 161.51370543404883, -4878.357634348587, -1552.3510041655309, -1499.377369806453, -4290.953790063118, -3853.2842818837503, -2703.0188087247384, -3212.839748005837, -1909.7553980058908, -7924.654534417932, -14621.438338928026, 0.013500000000000002, -0.109, 0.983, 192.0, 0.0, 0.0, 0.0, 0.0, 0.0, 0.0, 0.0, 0.0, 0.0, 1.645922796190938E9, 0.0, 2022-02-27 11:46:36.190
180.0, -532.4185529254142, -2990.752815097906, -1907.6319822826365, -9146.110313667097, 429.89110110892074, 364.64635904387944, -4818.007924319259, -1529.0828381875563, -2587.3708829129796, -4207.090044866806, -3500.640809612371, -2605.744016855242, -2843.0524877372372, -1632.5490632711726, -7922.978153583784, -14730.559555358835, 0.013500000000000002, -0.109, 0.983, 192.0, 0.0, 0.0, 0.0, 0.0, 0.0, 0.0, 0.0, 0.0, 0.0, 1.645922796198413E9, 0.0, 2022-02-27 11:46:36.198
182.0, -1191.2809242345006, -3499.7243880897036, -2390.9661043841966, -9693.213962699649, -182.70315917767994, 2.413988401173163, -5084.060738570779, -1787.2231349018973, -3132.7757993669275, -4867.695852243406, -3856.838209252144, -2800.762987227796, -3184.4083290586864, -1961.2985207198287, -8196.42939525001, -15330.122748627991, 0.013500000000000002, -0.109, 0.983, 192.0, 0.0, 0.0, 0.0, 0.0, 0.0, 0.0, 0.0, 0.0, 0.0, 1.645922796206462E9, 0.0, 2022-02-27 11:46:36.206
184.0, -622.4066761024804, -3046.051030880336, -1945.808761812301, -9201.810860849722, 359.1925333967845, 360.48893457519233, -4739.0615629031145, -1390.9490574537585, -1301.7879488215387, -3920.943012349965, -3601.8048050170905, -2574.9656647402844, -2982.4826696494424, -1695.9386105464234, -7784.799669361076, -14315.331198612595, 0.01575, -0.10650000000000001, 0.9844999999999999, 192.0, 0.0, 72.0, 126.0, 96.0, 15.0, 104.0, 0.0, 0.0, 0.0, 1.64592279621343E9, 0.0, 2022-02-27 11:46:36.213
186.0, -901.1105777157043, -3283.717129673616, -2223.149207013751, -9496.11628009275, 48.7268029125694, 104.20383265064153, -5067.498095929396, -1774.2814748622745, -3786.944304340399, -4768.342348139567, -3613.606526089493, -2725.6611258579646, -2917.215575839946, -1750.6780327174704, -8155.704516852441, -15349.144083159457, 0.01575, -0.10650000000000001, 0.9844999999999999, 192.0, 0.0, 0.0, 0.0, 0.0, 0.0, 0.0, 0.0, 0.0, 0.0, 1.645922796220567E9, 0.0, 2022-02-27 11:46:36.220
188.0, -960.9461976225613, -3311.6568102427495, -2202.540898625958, -9487.26498928845, 35.203997517108625, 175.3717869963392, -4869.305177844189, -1548.3276901635754, -1474.991616605713, -4275.151106733216, -3831.6701449954685, -2683.7516050042636, -3207.005942703002, -1899.6300577676366, -7919.871261104497, -14618.08557725973, 0.01575, -0.10650000000000001, 0.9844999999999999, 192.0, 0.0, 0.0, 0.0, 0.0, 0.0, 0.0, 0.0, 0.0, 0.0, 1.645922796228192E9, 0.0, 2022-02-27 11:46:36.228
190.0, -481.56833428959067, -2928.212634111957, -1900.9935141794103, -9137.594299029624, 440.8881593809318, 375.464603360248, -4825.115779056046, -1494.705855215294, -2556.234902886737, -4190.460346992058, -3483.385262892874, -2592.84706030453, -2836.257557422824, -1613.2595078062425, -7909.790624355152, -14713.907505739631, 0.01575, -0.10650000000000001, 0.9844999999999999, 192.0, 0.0, 0.0, 0.0, 0.0, 0.0, 0.0, 0.0, 0.0, 0.0, 1.64592279623612E9, 0.0, 2022-02-27 11:46:36.236
192.0, -1139.3131183759117, -3449.4329630652624, -2383.6794356917662, -9676.606616569356, -179.55156320948163, 10.326505938351863, -5073.711880887971, -1818.6943910949697, -3118.2918689598882, -4830.860177381061, -3837.1463223870187, -2785.161469597992, -3168.493887006508, -1944.713526333991, -8194.395386504577, -15326.054731137125, 0.01575, -0.10650000000000001, 0.9844999999999999, 192.0, 0.0, 0.0, 0.0, 0.0, 0.0, 0.0, 0.0, 0.0, 0.0, 1.645922796244065E9, 0.0, 2022-02-27 11:46:36.244
194.0, -577.3455592805815, -2996.83248958975, -1945.7640583233904, -9188.466869409904, 356.44326882878175, 370.14488817988496, -4742.704897249329, -1389.451490575253, -1279.615018321874, -3902.8604510856217, -3583.655188519381, -2546.109562648483, -2982.3262074382556, -1675.464412625362, -7782.743308871188, -14308.804489231647, 0.014875, -0.10725000000000001, 0.98525, 192.0, 0.0, 56.0, 126.0, 80.0, 15.0, 104.0, 0.0, 0.0, 0.0, 1.645922796250661E9, 0.0, 2022-02-27 11:46:36.250
196.0, -857.1446963721153, -3237.06903899539, -2218.1424162557623, -9485.432146243113, 60.886151896256436, 106.3272483738957, -5054.042345767301, -1795.135652439076, -3767.0289000307207, -4736.759333224218, -3593.020569446155, -2706.5950878375875, -2909.928907147516, -1749.7392594503474, -8163.214702989424, -15341.097455155546, 0.014875, -0.10725000000000001, 0.98525, 192.0, 0.0, 0.0, 0.0, 0.0, 0.0, 0.0, 0.0, 0.0, 0.0, 1.645922796258714E9, 0.0, 2022-02-27 11:46:36.258
198.0, -927.2174152395029, -3276.8327923813813, -2201.7585875700224, -9488.807259655865, 33.63937540523713, 169.6497404157806, -4860.878570184537, -1556.6201873564944, -1469.9401223588136, -4258.566112347378, -3819.9578309008875, -2665.378471062001, -3199.942791455125, -1883.4250430375391, -7928.834310631074, -14629.507318676391, 0.014875, -0.10725000000000001, 0.98525, 192.0, 0.0, 0.0, 0.0, 0.0, 0.0, 0.0, 0.0, 0.0, 0.0, 1.645922796266551E9, 0.0, 2022-02-27 11:46:36.266
200.0, -443.8609413934877, -2910.2641833143457, -1895.4726332989496, -9136.789636229234, 450.83468566354344, 368.5802660680135, -4809.737778870795, -1506.1499483764112, -2520.494463502701, -4176.468154963035, -3465.839143495458, -2572.238751916737, -2827.5850805741647, -1608.856214148547, -7914.1268627794825, -14713.125194683695, 0.014875, -0.10725000000000001, 0.98525, 192.0, 0.0, 0.0, 0.0, 0.0, 0.0, 0.0, 0.0, 0.0, 0.0, 1.645922796273857E9, 0.0, 2022-02-27 11:46:36.273
202.0, -1102.5221470024762, -3419.6827911952487, -2378.0020926001184, -9679.758212537554, -170.9014381052778, -1.4975668785055731, -5073.220142509955, -1825.3105074537407, -3155.2840060334215, -4831.061343081158, -3812.0900168526196, -2769.962283368383, -3153.9652531105585, -1936.0410494853318, -8197.792851661785, -15351.245147138257, 0.014875, -0.10725000000000001, 0.98525, 192.0, 0.0, 0.0, 0.0, 0.0, 0.0, 0.0, 0.0, 0.0, 0.0, 1.645922796288227E9, 0.0, 2022-02-27 11:46:36.288
204.0, -559.5088672052464, -2989.7693383418728, -1949.0497647583206, -9199.866259082111, 344.9544721787539, 360.757155508656, -4743.12958039398, -1395.7993860005602, -1237.6831457237179, -3891.1928404799514, -3579.050729161588, -2548.143571393916, -2983.153221983102, -1692.988180278323, -7791.147564786383, -14317.052282935654, 0.014437499999999999, -0.107625, 0.985625, 192.0, 0.0, 56.0, 126.0, 80.0, 15.0, 104.0, 0.0, 0.0, 0.0, 1.64592279629627E9, 0.0, 2022-02-27 11:46:36.296
206.0, -816.3080592522692, -3207.0953496808233, -2199.8139858024106, -9470.165904780139, 71.79380319044628, 116.1396641897755, -5048.85674105367, -1793.9733617274, -3737.591652583081, -4733.764199467207, -3575.0721186485434, -2692.647599297476, -2908.185471080002, -1744.3524890366184, -8161.895950066561, -15332.804957962628, 0.014437499999999999, -0.107625, 0.985625, 192.0, 0.0, 0.0, 0.0, 0.0, 0.0, 0.0, 0.0, 0.0, 0.0, 1.64592279630351E9, 0.0, 2022-02-27 11:46:36.303
208.0, -925.5857378942654, -3279.291484271465, -2213.023866775497, -9507.895649420698, 10.505319893994319, 157.24452224308519, -4898.92123924747, -1586.795042371159, -1516.5882130370394, -4298.016941310995, -3812.201775574896, -2670.877000198007, -3202.5132420674854, -1899.004208922888, -7946.916871895418, -14664.085467348752, 0.014437499999999999, -0.107625, 0.985625, 192.0, 0.0, 0.0, 0.0, 0.0, 0.0, 0.0, 0.0, 0.0, 0.0, 1.645922796310988E9, 0.0, 2022-02-27 11:46:36.310
210.0, -448.86773215147645, -2911.1135496036472, -1899.4959473009048, -9141.349392098116, 434.09322906651846, 372.20124866977324, -4813.112892283546, -1499.5114802731848, -2458.893055783875, -4163.370032712225, -3467.023785951589, -2585.068653234083, -2827.1156939406033, -1603.9388303683795, -7908.784795854664, -14688.270054849394, 0.014437499999999999, -0.107625, 0.985625, 192.0, 0.0, 0.0, 0.0, 0.0, 0.0, 0.0, 0.0, 0.0, 0.0, 1.645922796318858E9, 0.0, 2022-02-27 11:46:36.318
212.0, -1118.5706995213866, -3432.1327128568546, -2388.7756334275764, -9685.748480051576, -191.86737440435581, -14.349819940307134, -5079.366872235164, -1828.8420830776793, -3174.461802776075, -4872.389718579021, -3832.3854008180383, -2797.343170326134, -3166.4375265166195, -1955.6658811170914, -8199.62569470712, -15346.104245913535, 0.014437499999999999, -0.107625, 0.985625, 192.0, 0.0, 0.0, 0.0, 0.0, 0.0, 0.0, 0.0, 0.0, 0.0, 1.645922796326923E9, 0.0, 2022-02-27 11:46:36.326
214.0, -560.6264544280117, -2987.6012191297077, -1950.390869425639, -9194.814764835211, 340.19355060977347, 354.4539635722594, -4757.546455567653, -1414.9995344876688, -1249.5966255183966, -3899.1277097615853, -3588.3490548549958, -2556.547827309111, -2990.3057802088, -1686.0814912416329, -7787.772451373631, -14311.710216010835, 0.014218749999999999, -0.1058125, 0.9868125, 192.0, 0.0, 56.0, 126.0, 96.0, 15.0, 112.0, 0.0, 0.0, 0.0, 1.645922796333516E9, 0.0, 2022-02-27 11:46:36.333
216.0, -815.4810447074228, -3202.8708699787703, -2203.9714102710977, -9463.460381443547, 73.87251542478984, 114.86561475582299, -5049.9296247875245, -1800.656533319537, -3738.329260150106, -4725.225833085279, -3578.46958380575, -2698.839032511596, -2894.8414796401835, -1732.7966371532248, -8149.401324916044, -15327.909925926915, 0.014218749999999999, -0.1058125, 0.9868125, 192.0, 0.0, 0.0, 0.0, 0.0, 0.0, 0.0, 0.0, 0.0, 0.0, 1.645922796340598E9, 0.0, 2022-02-27 11:46:36.340
218.0, -917.8073308238186, -3276.3857574922754, -2209.6264016182904, -9490.394233512192, 10.214747216075327, 167.1239932923309, -4900.217640425878, -1572.5793328975838, -1496.0469598826123, -4285.164688249193, -3814.571060487159, -2674.6991484998644, -3199.8310327328486, -1889.32590357374, -7935.919813623406, -14642.85131011621, 0.014218749999999999, -0.1058125, 0.9868125, 192.0, 0.0, 0.0, 0.0, 0.0, 0.0, 0.0, 0.0, 0.0, 0.0, 1.645922796348545E9, 0.0, 2022-02-27 11:46:36.348
220.0, -442.25161579270554, -2911.761750192851, -1902.6922467580137, -9136.208490873396, 442.29631928161615, 369.5413910795917, -4823.417046477442, -1495.801090693604, -2477.9367420597964, -4169.069727548329, -3470.063623197511, -2586.901496279418, -2829.440275363955, -1612.2313275612985, -7910.461176688812, -14686.079583892773, 0.014218749999999999, -0.1058125, 0.9868125, 192.0, 0.0, 0.0, 0.0, 0.0, 0.0, 0.0, 0.0, 0.0, 0.0, 1.6459227963557E9, 0.0, 2022-02-27 11:46:36.355
222.0, -1114.0779988858699, -3436.15602685881, -2392.9554096407187, -9692.051671987972, -184.06661558945365, -4.224479702053035, -5066.939302318014, -1821.778931829802, -3196.590029786829, -4884.482012329342, -3832.6983252404125, -2800.740635483341, -3158.748526423994, -1954.1236107496752, -8194.395386504577, -15350.552243060141, 0.014218749999999999, -0.1058125, 0.9868125, 192.0, 0.0, 0.0, 0.0, 0.0, 0.0, 0.0, 0.0, 0.0, 0.0, 1.645922796363258E9, 0.0, 2022-02-27 11:46:36.363
224.0, -557.0948788040732, -2985.5895621287304, -1949.295633947329, -9204.470718439903, 344.0380506560863, 360.01954794163083, -4748.739868252262, -1402.7284267817054, -1228.2730613080337, -3901.832270840677, -3586.1138804094653, -2563.5886268125328, -2982.885001049638, -1683.2875231847195, -7779.435250691802, -14306.010521174732, 0.014, -0.10200000000000001, 0.99, 192.0, 0.0, 56.0, 126.0, 104.0, 15.0, 120.0, 0.0, 0.0, 0.0, 1.645922796371161E9, 0.0, 2022-02-27 11:46:36.371
226.0, -792.6152101296437, -3185.369454070265, -2188.4816513635697, -9457.44776218507, 91.88802145576733, 125.75091430555753, -5040.228967693922, -1785.3455883676515, -3715.3293151055955, -4706.070388087081, -3565.1926475992977, -2694.4580905983557, -2883.9114766015387, -1725.241747527331, -8137.7113625659185, -15314.320065298089, 0.014, -0.10200000000000001, 0.99, 192.0, 0.0, 0.0, 0.0, 0.0, 0.0, 0.0, 0.0, 0.0, 0.0, 1.645922796379176E9, 0.0, 2022-02-27 11:46:36.379
228.0, -909.2689644418913, -3264.785202119971, -2209.5816981293797, -9491.40006201268, 4.671514591159176, 159.09971703287567, -4898.742425291828, -1580.31303647912, -1501.858413440992, -4285.3211504603805, -3800.4000545024937, -2668.0830321410936, -3189.2139541165775, -1891.1587466190754, -7930.510691465222, -14653.535443965846, 0.014, -0.10200000000000001, 0.99, 192.0, 0.0, 0.0, 0.0, 0.0, 0.0, 0.0, 0.0, 0.0, 0.0, 1.64592279638592E9, 0.0, 2022-02-27 11:46:36.385
230.0, -427.2535952631945, -2890.058206326748, -1898.199546122497, -9127.401903558004, 430.00285983119727, 372.4918213476922, -4817.985572574803, -1497.2986575721095, -2445.459657366235, -4153.736430851988, -3463.9392452167567, -2571.881124005452, -2836.123446956092, -1603.4247402459075, -7901.006388784217, -14676.736554710455, 0.014, -0.10200000000000001, 0.99, 192.0, 0.0, 0.0, 0.0, 0.0, 0.0, 0.0, 0.0, 0.0, 0.0, 1.645922796393917E9, 0.0, 2022-02-27 11:46:36.393
232.0, -1100.6669522126856, -3412.48552948064, -2391.9719328846854, -9685.457907373657, -187.93346738022177, -6.8172820588686545, -5092.9567328639905, -1829.132655755598, -3196.0535879199015, -4859.179837605934, -3824.785807703234, -2782.3675015410786, -3158.748526423994, -1945.7640583233904, -8197.077595839215, -15354.150873917446, 0.014, -0.10200000000000001, 0.99, 192.0, 0.0, 0.0, 0.0, 0.0, 0.0, 0.0, 0.0, 0.0, 0.0, 1.645922796408933E9, 0.0, 2022-02-27 11:46:36.408
234.0, -549.3835269669923, -2978.504059136398, -1953.520113649382, -9203.420186450505, 340.35001282096067, 353.67165251632366, -4769.795211529161, -1417.771150800127, -1220.4499507486762, -3891.5728201356915, -3588.304351366085, -2553.776210996653, -2981.92387603806, -1685.209773207876, -7780.329320470014, -14306.569314786115, 0.01, -0.10400000000000001, 0.99, 192.0, 0.0, 40.0, 126.0, 96.0, 15.0, 120.0, 0.0, 0.0, 0.0, 1.64592279641554E9, 0.0, 2022-02-27 11:46:36.415
236.0, -782.0428350022835, -3179.4238900451533, -2191.3650263983045, -9455.01142203944, 79.97454166108867, 117.36901013481739, -5060.85962782617, -1803.6293153320928, -3710.4566348143385, -4710.69719918933, -3566.6455109888925, -2694.6592562984533, -2883.6432556680747, -1736.3952680105292, -8142.13700796807, -15317.672826966385, 0.01, -0.10400000000000001, 0.99, 192.0, 0.0, 0.0, 0.0, 0.0, 0.0, 0.0, 0.0, 0.0, 0.0, 1.64592279642344E9, 0.0, 2022-02-27 11:46:36.423
238.0, -915.4603976560113, -3272.0495190679458, -2221.159901757229, -9502.620637729244, -4.850328546801633, 149.24259772808526, -4904.084492216646, -1595.8027953866476, -1524.478378829763, -4294.664179642699, -3814.4145982759715, -2678.7895177351857, -3193.1478611407115, -1899.1830228785304, -7942.178302070893, -14668.645223217634, 0.01, -0.10400000000000001, 0.99, 192.0, 0.0, 0.0, 0.0, 0.0, 0.0, 0.0, 0.0, 0.0, 0.0, 1.645922796431503E9, 0.0, 2022-02-27 11:46:36.431
240.0, -418.7152288812672, -2883.576200434709, -1899.3394850897178, -9124.004438400798, 436.55192095660226, 375.21873417123965, -4824.825206378127, -1510.0168001671793, -2416.6706105077997, -4145.131009236695, -3467.1802481627765, -2582.811127044097, -2830.9154904980055, -1615.829958418603, -7899.441766672346, -14668.04172611734, 0.01, -0.10400000000000001, 0.99, 192.0, 0.0, 0.0, 0.0, 0.0, 0.0, 0.0, 0.0, 0.0, 0.0, 1.645922796438067E9, 0.0, 2022-02-27 11:46:36.438
242.0, -1096.3307137883562, -3417.0676370939777, -2392.6424852183445, -9689.056538230961, -188.38050226932793, -8.985401271033439, -5096.845936399214, -1830.4737604229165, -3235.102085483323, -4873.708471501884, -3817.879118666544, -2788.447176032922, -3153.875846132737, -1945.5628926232926, -8202.352607530667, -15363.493903099765, 0.01, -0.10400000000000001, 0.99, 192.0, 0.0, 0.0, 0.0, 0.0, 0.0, 0.0, 0.0, 0.0, 0.0, 1.645922796446578E9, 0.0, 2022-02-27 11:46:36.446
244.0, -558.0113003267409, -2989.568172641775, -1958.2139799849965, -9217.322971501706, 334.40444879584896, 340.6852889877903, -4763.626130059496, -1413.479615864708, -1213.655020434263, -3903.843927841655, -3594.831060747035, -2563.722737279265, -2995.0667017777805, -1701.9735815493564, -7781.9386460707965, -14310.50322181025, 0.012, -0.108, 0.99, 192.0, 0.0, 48.0, 126.0, 80.0, 15.0, 120.0, 0.0, 0.0, 0.0, 1.645922796454126E9, 0.0, 2022-02-27 11:46:36.454
246.0, -778.2430384448813, -3176.7640324549716, -2185.3300553953713, -9464.86854134423, 83.48376554057188, 110.59643156485934, -5053.640014367105, -1800.7235885529028, -3697.984361408277, -4711.099530589525, -3561.7281272087253, -2706.192756437392, -2888.6276946816083, -1739.8150849121912, -8133.263365419312, -15310.766137929695, 0.012, -0.108, 0.99, 192.0, 0.0, 0.0, 0.0, 0.0, 0.0, 0.0, 0.0, 0.0, 0.0, 1.645922796461232E9, 0.0, 2022-02-27 11:46:36.461
248.0, -913.8063685663186, -3269.07673705539, -2216.309573210427, -9510.756672710977, -13.008715272988711, 142.42531566921662, -4908.152509707512, -1583.59874291405, -1530.2004254103215, -4312.612630440311, -3813.8111011756782, -2688.7583957622523, -3204.614306046284, -1910.1800811505416, -7944.994621872262, -14678.18941810005, 0.012, -0.108, 0.99, 192.0, 0.0, 0.0, 0.0, 0.0, 0.0, 0.0, 0.0, 0.0, 0.0, 1.645922796467675E9, 0.0, 2022-02-27 11:46:36.467
250.0, -411.0709322775522, -2875.66368289753, -1886.263714583363, -9131.492272793326, 444.9114733828871, 368.6696730458347, -4817.963220830348, -1501.1655093628776, -2403.0360463900624, -4148.05908776034, -3462.1734574047873, -2578.094908964027, -2831.161359687014, -1613.6841909508935, -7900.961685295307, -14672.467371519491, 0.012, -0.108, 0.99, 192.0, 0.0, 0.0, 0.0, 0.0, 0.0, 0.0, 0.0, 0.0, 0.0, 1.645922796475663E9, 0.0, 2022-02-27 11:46:36.475
252.0, -1086.8982776282166, -3414.8548143929024, -2383.657083947311, -9690.554105109466, -184.24542954509613, -18.41783743117302, -5098.477613744451, -1831.3901819455841, -3224.9320417561585, -4865.147753375501, -3811.4641680078707, -2789.184783599947, -3148.9584623525698, -1956.2470264729295, -8198.373997017623, -15368.701859557852, 0.012, -0.108, 0.99, 192.0, 0.0, 0.0, 0.0, 0.0, 0.0, 0.0, 0.0, 0.0, 0.0, 1.64592279648384E9, 0.0, 2022-02-27 11:46:36.483
254.0, -561.3640619950369, -2992.8315273322496, -1956.0905642617422, -9216.58536393468, 326.15665509184066, 339.09831513146344, -4768.632920817486, -1416.0724182215235, -1200.132215038802, -3887.7059683449233, -3586.627970531937, -2557.643062787421, -2990.5069459088977, -1707.7403316188256, -7779.837582091997, -14309.184468887386, 0.012, -0.106, 0.99, 192.0, 0.0, 48.0, 126.0, 88.0, 15.0, 120.0, 0.0, 0.0, 0.0, 1.645922796490934E9, 0.0, 2022-02-27 11:46:36.490
0.0, -778.0865762336941, -3181.7037679795944, -2178.825697758877, -9450.608128381746, 93.58675403437067, 116.36318163432857, -5050.846046310192, -1807.6302775895929, -3699.973666664799, -4719.034399871159, -3564.6115022434597, -2697.6990935443755, -2894.372093006622, -1738.6304424560599, -8136.571423598698, -15306.228733805268, 0.012, -0.106, 0.99, 192.0, 0.0, 0.0, 0.0, 0.0, 0.0, 0.0, 0.0, 0.0, 0.0, 1.64592279649838E9, 0.0, 2022-02-27 11:46:36.498
2.0, -926.0104210389163, -3280.3867197497752, -2220.7352186125777, -9517.55160302539, -8.046628003910543, 133.9093010317446, -4915.349771422121, -1598.1273768099998, -1553.669757088394, -4332.125703349794, -3819.108464611586, -2687.0596631836493, -3212.459768350097, -1925.5804330802482, -7950.8731306640075, -14692.650996762633, 0.012, -0.106, 0.99, 192.0, 0.0, 0.0, 0.0, 0.0, 0.0, 0.0, 0.0, 0.0, 0.0, 1.645922796506658E9, 0.0, 2022-02-27 11:46:36.506
4.0, -423.40909521688167, -2886.57133419172, -1889.035330895821, -9136.432008317948, 445.1796943163508, 367.32856837851625, -4803.926325312415, -1503.378332063953, -2380.6619501903, -4147.701459849055, -3471.1141551869105, -2585.6945020788316, -2842.761915059318, -1632.9290429269129, -7897.497164904734, -14663.19139757054, 0.012, -0.106, 0.99, 192.0, 0.0, 0.0, 0.0, 0.0, 0.0, 0.0, 0.0, 0.0, 0.0, 1.645922796514451E9, 0.0, 2022-02-27 11:46:36.514
6.0, -1094.5202224874763, -3419.4592737506955, -2389.0438543610403, -9695.046805744983, -186.27943829052907, -23.312869466885267, -5099.930477134047, -1838.9897750603886, -3277.905676115236, -4875.384852336032, -3817.9908773888205, -2792.9175249239834, -3152.2888722764105, -1957.2528549734182, -8211.762691946351, -15386.113868488535, 0.012, -0.106, 0.99, 192.0, 0.0, 0.0, 0.0, 0.0, 0.0, 0.0, 0.0, 0.0, 0.0, 1.645922796520954E9, 0.0, 2022-02-27 11:46:36.520
8.0, -566.7284806643106, -2994.1279285106575, -1963.1760672540747, -9227.15773906204, 324.6590882133351, 335.67849822980145, -4769.661101062429, -1428.5223398831297, -1194.3431132248777, -3909.4318639554817, -3604.9787527297444, -2569.8024117711084, -3008.1871757730455, -1714.043523555222, -7792.376910731425, -14314.459480578838, 0.016, -0.10200000000000001, 0.992, 192.0, 0.0, 64.0, 126.0, 104.0, 15.5, 0.0, 0.0, 0.0, 0.0, 1.64592279653612E9, 0.0, 2022-02-27 11:46:36.536
10.0, -762.8203347707195, -3159.173209568645, -2167.8733429757767, -9445.131950990195, 109.61295480882583, 123.7616090490352, -5052.209502721966, -1783.2221726443975, -3674.15740181892, -4688.032530311648, -3551.379269525918, -2692.737006275297, -2883.1291655456025, -1728.303936517708, -8136.70553406543, -15294.181143543858, 0.016, -0.10200000000000001, 0.992, 192.0, 0.0, 0.0, 0.0, 0.0, 0.0, 0.0, 0.0, 0.0, 0.0, 1.645922796545778E9, 0.0, 2022-02-27 11:46:36.545
12.0, -919.148435491137, -3263.622911408295, -2212.398017930748, -9511.918963422653, -0.6482005892039048, 139.2737197010183, -4924.648097115529, -1605.5258042247062, -1563.5492281376396, -4313.551403707434, -3808.6031447175915, -2686.970256205828, -3209.196413659622, -1900.8147002237679, -7952.884787664984, -14695.914351453108, 0.016, -0.10200000000000001, 0.992, 192.0, 0.0, 0.0, 0.0, 0.0, 0.0, 0.0, 0.0, 0.0, 0.0, 1.645922796551664E9, 0.0, 2022-02-27 11:46:36.551
14.0, -423.1632260278733, -2899.4906424868873, -1877.6135894791591, -9119.109406365085, 449.6723949518675, 359.08077467450795, -4803.94867705687, -1501.3219715740647, -2365.105136049406, -4118.644192057156, -3461.7487742601365, -2556.905455220396, -2841.1302377140805, -1625.7764847012145, -7890.054034001117, -14657.022316100874, 0.016, -0.10200000000000001, 0.992, 192.0, 0.0, 0.0, 0.0, 0.0, 0.0, 0.0, 0.0, 0.0, 0.0, 1.645922796558707E9, 0.0, 2022-02-27 11:46:36.558
16.0, -1095.458995754599, -3425.8742244093687, -2381.444261246236, -9687.558971352455, -183.03843534450954, -19.446017676117144, -5100.846898656714, -1837.8945395820786, -3281.2137342946216, -4900.172936936968, -3812.045313363709, -2775.8854956490395, -3155.52987522243, -1953.1848374825524, -8204.543078487288, -15386.493848144275, 0.016, -0.10200000000000001, 0.992, 192.0, 0.0, 0.0, 0.0, 0.0, 0.0, 0.0, 0.0, 0.0, 0.0, 1.645922796566648E9, 0.0, 2022-02-27 11:46:36.566
18.0, -570.6400359439893, -3002.666294892585, -1960.4491544305272, -9217.792358135266, 336.7290302192009, 339.47829478720365, -4789.621208861018, -1418.642868833884, -1189.2469154890675, -3908.358980221627, -3596.1721654143535, -2558.358318609991, -3001.3251902252664, -1707.3603519630853, -7786.9901403176955, -14310.056186921143, 0.018000000000000002, -0.10200000000000001, 0.992, 192.0, 0.0, 72.0, 126.0, 104.0, 15.5, 0.0, 0.0, 0.0, 0.0, 1.64592279657323E9, 0.0, 2022-02-27 11:46:36.573
20.0, -761.4345266144904, -3167.488058506019, -2163.2688836179836, -9432.078532228295, 127.15907420624188, 134.57985336540384, -5025.56622333124, -1774.5496957957382, -3682.0922711005537, -4706.807995654106, -3558.665938218348, -2690.3006661296686, -2883.509145201343, -1721.3301922476521, -8139.477150377888, -15293.823515632574, 0.018000000000000002, -0.10200000000000001, 0.992, 192.0, 0.0, 0.0, 0.0, 0.0, 0.0, 0.0, 0.0, 0.0, 0.0, 1.645922796581367E9, 0.0, 2022-02-27 11:46:36.581
22.0, -948.8315521277848, -3296.189403079677, -2238.1919310321728, -9532.974306699552, -19.602479887304295, 123.06870497092069, -4906.230259684356, -1609.9738013713124, -1635.3877348169965, -4364.312215365436, -3833.4135810629823, -2692.446433597378, -3217.4442073636305, -1905.3521043481953, -7967.279311094202, -14726.91622101262, 0.018000000000000002, -0.10200000000000001, 0.992, 192.0, 0.0, 0.0, 0.0, 0.0, 0.0, 0.0, 0.0, 0.0, 0.0, 1.645922796588379E9, 0.0, 2022-02-27 11:46:36.588
24.0, -425.0631243065744, -2888.985322592893, -1885.302589571785, -9124.89850817901, 458.5236857561691, 373.6541120593682, -4800.104177010558, -1479.2607997966768, -2307.7058562881775, -4109.09999717474, -3470.4659545977065, -2569.8024117711084, -2845.5782348606867, -1617.9980776307677, -7886.768327566187, -14621.438338928026, 0.018000000000000002, -0.10200000000000001, 0.992, 192.0, 0.0, 0.0, 0.0, 0.0, 0.0, 0.0, 0.0, 0.0, 0.0, 1.645922796596345E9, 0.0, 2022-02-27 11:46:36.596
26.0, -1111.753417462518, -3435.8878059253466, -2391.815470673498, -9688.654206830764, -182.12201382184196, -18.239023475530562, -5104.333770791742, -1846.5670164307376, -3332.1533599082663, -4902.475166615864, -3810.391284274016, -2786.12259460957, -3147.5503024518853, -1946.389907168139, -8212.924982658027, -15385.3315574326, 0.018000000000000002, -0.10200000000000001, 0.992, 192.0, 0.0, 0.0, 0.0, 0.0, 0.0, 0.0, 0.0, 0.0, 0.0, 1.645922796603071E9, 0.0, 2022-02-27 11:46:36.603
28.0, -607.3192485951482, -3034.2269580634784, -1974.9554365820215, -9234.556166476747, 324.25675681313953, 329.1070853599412, -4765.391917871466, -1433.1491509853784, -1194.2090027581457, -3936.1869020684844, -3620.244994192719, -2569.914170493385, -3025.241556792445, -1718.3127067461858, -7795.126175299428, -14313.699521267357, 0.016, -0.106, 0.99, 192.0, 0.0, 64.0, 126.0, 88.0, 15.0, 120.0, 0.0, 0.0, 0.0, 1.645922796611033E9, 0.0, 2022-02-27 11:46:36.611
30.0, -779.2488669453701, -3179.7368144675274, -2169.482668576559, -9441.220395710516, 121.32526890340674, 128.07549572890946, -5057.216293479954, -1787.111376179621, -3673.8444773965452, -4702.158832807402, -3563.2033423427756, -2703.9575819918614, -2888.694749914974, -1736.0599918436997, -8132.056371218726, -15282.088849793536, 0.016, -0.106, 0.99, 192.0, 0.0, 0.0, 0.0, 0.0, 0.0, 0.0, 0.0, 0.0, 0.0, 1.645922796618915E9, 0.0, 2022-02-27 11:46:36.618
32.0, -965.8412296582735, -3309.3992840527635, -2235.308555997438, -9534.6506875337, -5.140901224720625, 127.38259165079495, -4906.967867251381, -1614.8464816625694, -1617.3275252971084, -4353.67278500471, -3831.9383659289324, -2720.5425763776993, -3219.7017335536166, -1925.6921918025246, -7970.900293695962, -14720.993008731963, 0.016, -0.106, 0.99, 192.0, 0.0, 0.0, 0.0, 0.0, 0.0, 0.0, 0.0, 0.0, 0.0, 1.6459227966263E9, 0.0, 2022-02-27 11:46:36.626
34.0, -459.7753834456663, -2927.4526748004764, -1890.845822196701, -9132.386342571539, 455.5062002547026, 376.2022109272732, -4788.861249549538, -1485.0499016106012, -2350.531798664546, -4155.72573610851, -3484.5922570934604, -2589.94133352534, -2849.9144732850164, -1628.056362635656, -7892.244504957736, -14641.599612426713, 0.016, -0.106, 0.99, 192.0, 0.0, 0.0, 0.0, 0.0, 0.0, 0.0, 0.0, 0.0, 0.0, 1.645922796633667E9, 0.0, 2022-02-27 11:46:36.633
36.0, -1142.688231788663, -3466.1073644289213, -2392.843650918442, -9695.24797144508, -174.54477245149286, -13.500453651005467, -5083.345482748209, -1853.6078159341594, -3340.132932678811, -4919.976582524369, -3820.3825140455383, -2800.852394205617, -3152.870017632248, -1947.8204188132786, -8217.283572826813, -15396.015691282237, 0.015, -0.107, 0.991, 192.0, 0.0, 56.0, 126.0, 80.0, 15.5, 0.0, 0.0, 0.0, 0.0, 1.645922796641611E9, 0.0, 2022-02-27 11:46:36.641
38.0, -660.0693655096728, -3089.145194190168, -1974.061366803809, -9231.78455016429, 328.10125685945235, 339.12066687591874, -4761.301548636145, -1433.2609097076547, -1202.9708865846262, -3940.4113817705374, -3623.083665738543, -2573.0434147171277, -3018.2901642668444, -1708.5896979081272, -7794.053291565573, -14314.057149178643, 0.015, -0.107, 0.991, 192.0, 0.0, 0.0, 0.0, 0.0, 0.0, 0.0, 0.0, 0.0, 0.0, 1.645922796655717E9, 0.0, 2022-02-27 11:46:36.655
40.0, -866.1748011320593, -3272.317740001409, -2162.4642208175924, -9424.814215280321, 146.2698157155294, 145.17458023721937, -5022.526386085318, -1758.814067699202, -3710.4119313254278, -4722.40951328391, -3587.276171121141, -2712.7418175627968, -2887.063072569737, -1724.6158986825824, -8138.583080599676, -15280.144248025925, 0.015, -0.107, 0.991, 192.0, 0.0, 0.0, 0.0, 0.0, 0.0, 0.0, 0.0, 0.0, 0.0, 1.64592279666334E9, 0.0, 2022-02-27 11:46:36.663
42.0, -1131.9817461945709, -3476.255056411631, -2254.754573673555, -9542.674963793155, -13.880433306745687, 120.72177180311344, -4907.30314341821, -1633.2196156048317, -1733.2883755312414, -4429.556957430477, -3878.8546775406217, -2727.516320647755, -3227.3013266684206, -1926.2509854139073, -7987.261770637247, -14750.34084920178, 0.015, -0.107, 0.991, 192.0, 0.0, 0.0, 0.0, 0.0, 0.0, 0.0, 0.0, 0.0, 0.0, 1.645922796671212E9, 0.0, 2022-02-27 11:46:36.671
44.0, -668.6747871249661, -3127.590194653296, -1903.072226413754, -9130.70996173739, 459.2612933231942, 384.07002497554123, -4783.407423902443, -1464.9109798563695, -2350.0624120309844, -4170.477887449013, -3540.248100787175, -2625.659421164921, -2858.0058047778375, -1614.8688334070246, -7886.3659961659905, -14608.876658544143, 0.015, -0.107, 0.991, 192.0, 0.0, 0.0, 0.0, 0.0, 0.0, 0.0, 0.0, 0.0, 0.0, 1.645922796679242E9, 0.0, 2022-02-27 11:46:36.679
46.0, -1392.9160109658255, -3701.4265300543943, -2414.010752917618, -9706.78147158402, -172.98015033962136, -2.3022296788966274, -5091.8391456412255, -1845.8964640970785, -3459.021861436589, -4977.867600663615, -3896.1102242601187, -2869.0699182832145, -3161.1848665696225, -1942.2548344439072, -8224.614945008152, -15395.009862781748, 0.0155, -0.1065, 0.9875, 192.0, 0.0, 64.0, 126.0, 88.0, 15.0, 96.0, 0.0, 0.0, 0.0, 1.645922796685935E9, 0.0, 2022-02-27 11:46:36.685
48.0, -904.5080428729109, -3318.7646649795374, -2000.548183983348, -9256.416172554038, 332.0575156280417, 337.3325273194942, -4739.977984425782, -1421.7944648020823, -1294.9259632737594, -4003.420949390048, -3710.7472074922575, -2659.2093895923367, -3028.102580082724, -1722.62659342606, -7795.2602857661595, -14307.68690200888, 0.0155, -0.1065, 0.9875, 192.0, 0.0, 0.0, 0.0, 0.0, 0.0, 0.0, 0.0, 0.0, 0.0, 1.645922796693829E9, 0.0, 2022-02-27 11:46:36.693
50.0, -1069.5086204419877, -3468.5660563190054, -2185.151241439729, -9443.410866667136, 146.13570524879756, 152.5506559074707, -5009.8976504680695, -1751.3485850511295, -3781.758699626768, -4772.61153133053, -3656.0301370656657, -2780.4899550068326, -2895.4226249960216, -1728.7062679179035, -8129.888252006562, -15263.916881551371, 0.0155, -0.1065, 0.9875, 192.0, 0.0, 0.0, 0.0, 0.0, 0.0, 0.0, 0.0, 0.0, 0.0, 1.645922796701908E9, 0.0, 2022-02-27 11:46:36.701
52.0, -1257.0397564220139, -3595.792185758613, -2261.929483643709, -9551.660365064188, -4.895032035712247, 146.40392618226127, -4887.588904808629, -1581.5200306797065, -1782.0151784438108, -4463.777478191552, -3936.5668817242245, -2782.7251294523635, -3232.039896492946, -1897.7525112333908, -7981.29385486768, -14726.96092450153, 0.0155, -0.1065, 0.9875, 192.0, 0.0, 0.0, 0.0, 0.0, 0.0, 0.0, 0.0, 0.0, 0.0, 1.645922796708169E9, 0.0, 2022-02-27 11:46:36.708
54.0, -706.225717809882, -3164.0235381154466, -1894.8691361986562, -9129.391208814528, 476.9415231873421, 394.12830998042944, -4768.141182439468, -1460.1500582873891, -2398.6104009879114, -4188.9404283690965, -3565.483220277217, -2646.4688952528113, -2850.607377363131, -1613.2818595506978, -7883.907304275907, -14603.288722430316, 0.0155, -0.1065, 0.9875, 192.0, 0.0, 0.0, 0.0, 0.0, 0.0, 0.0, 0.0, 0.0, 0.0, 1.64592279671548E9, 0.0, 2022-02-27 11:46:36.715
56.0, -1361.1765338392895, -3670.178791305875, -2394.452976519224, -9693.035148744006, -156.3281007204176, -5.073845991354704, -5086.541782205318, -1837.5816151597041, -3465.9732539621896, -4954.867655619104, -3881.6039421086243, -2855.480057654388, -3131.725267377528, -1955.19649448353, -8217.037703637803, -15399.457859928354, 0.01575, -0.10625, 0.98375, 192.0, 0.0, 64.0, 126.0, 88.0, 15.0, 80.0, 0.0, 0.0, 0.0, 1.645922796723523E9, 0.0, 2022-02-27 11:46:36.723
58.0, -842.5043037538891, -3250.301271712932, -1989.0593873333203, -9244.413285781537, 330.17996909379593, 346.9214256908209, -4733.004240155726, -1393.5642115550295, -1267.7238902716506, -3974.520143809336, -3684.640369968459, -2627.581671188077, -3014.4233124760763, -1716.2563462562975, -7791.594599675489, -14304.8258787186, 0.01575, -0.10625, 0.98375, 192.0, 0.0, 0.0, 0.0, 0.0, 0.0, 0.0, 0.0, 0.0, 0.0, 1.645922796731509E9, 0.0, 2022-02-27 11:46:36.731
60.0, -976.0559768743489, -3374.912247051269, -2163.671215018179, -9426.490596114469, 163.0112723125544, 157.13276352080865, -4999.302923596254, -1752.242654829342, -3740.720896806824, -4731.953708166327, -3618.3897994029285, -2757.3111960066794, -2875.507220686343, -1713.52943343275, -8127.004876971827, -15264.229805973746, 0.01575, -0.10625, 0.98375, 192.0, 0.0, 0.0, 0.0, 0.0, 0.0, 0.0, 0.0, 0.0, 0.0, 1.645922796738167E9, 0.0, 2022-02-27 11:46:36.738
62.0, -1181.937895052182, -3522.79138836758, -2264.835210422899, -9554.566091843379, -11.242927461019452, 135.4292196547055, -4908.487785874341, -1612.6560107059493, -1790.173565169998, -4467.174943348759, -3907.755483121334, -2755.321890750157, -3222.5404050994402, -1933.0235639838654, -7985.674796780921, -14757.918090572131, 0.01575, -0.10625, 0.98375, 192.0, 0.0, 0.0, 0.0, 0.0, 0.0, 0.0, 0.0, 0.0, 0.0, 1.645922796746014E9, 0.0, 2022-02-27 11:46:36.746
64.0, -615.3211731101482, -3081.947932475559, -1891.650484997092, -9125.591412257125, 480.54015404464656, 397.0563885040747, -4765.861304505027, -1467.4143752353639, -2320.8710337723537, -4159.6819948771, -3541.1421705653875, -2630.8226741340964, -2847.8357610506728, -1609.9290978824017, -7880.442783885334, -14594.884466515121, 0.01575, -0.10625, 0.98375, 192.0, 0.0, 0.0, 0.0, 0.0, 0.0, 0.0, 0.0, 0.0, 0.0, 1.645922796754104E9, 0.0, 2022-02-27 11:46:36.754
66.0, -1285.515878858075, -3613.8300435340457, -2402.365494056403, -9692.610465599355, -161.98309206761027, -3.0398372459217606, -5076.707014644982, -1841.0461355502769, -3457.0102044356117, -4960.567350455207, -3861.5320755877588, -2846.6287668500863, -3130.361810965754, -1936.3763256521615, -8220.748093217384, -15397.356795949556, 0.014875, -0.107125, 0.984875, 192.0, 0.0, 56.0, 126.0, 80.0, 15.0, 104.0, 0.0, 0.0, 0.0, 1.645922796761387E9, 0.0, 2022-02-27 11:46:36.761
68.0, -770.2634656743367, -3196.165346642178, -1996.323704281295, -9246.760218949345, 313.12558807439666, 334.2479865846618, -4770.443412118365, -1424.9460607702806, -1241.1476661142906, -3970.9885681853975, -3675.3643960195063, -2620.6079269180213, -3023.3640102581994, -1704.8793083285461, -7798.054253823073, -14304.423547318405, 0.014875, -0.107125, 0.984875, 192.0, 0.0, 0.0, 0.0, 0.0, 0.0, 0.0, 0.0, 0.0, 0.0, 1.645922796768696E9, 0.0, 2022-02-27 11:46:36.768
70.0, -892.3710456336792, -3310.22629859761, -2158.9102934491984, -9424.121311202207, 150.33783320639532, 146.42627792671658, -5005.56141204374, -1763.1503061235317, -3690.8094514381232, -4709.356094522011, -3595.635723547426, -2729.192701481903, -2874.8813718415945, -1709.6178781530714, -8129.776493284285, -15248.538881366121, 0.014875, -0.107125, 0.984875, 192.0, 0.0, 0.0, 0.0, 0.0, 0.0, 0.0, 0.0, 0.0, 0.0, 1.645922796783654E9, 0.0, 2022-02-27 11:46:36.783
72.0, -1109.9652779060934, -3460.7205940151925, -2259.4931434980804, -9555.862493021787, -26.777389857457862, 119.6488880692587, -4903.570402094174, -1621.887281165991, -1765.296073591241, -4440.531663958033, -3893.0927387586526, -2759.479315218844, -3224.7979312894263, -1942.0089652548988, -7990.122793927526, -14758.879215583709, 0.014875, -0.107125, 0.984875, 192.0, 0.0, 0.0, 0.0, 0.0, 0.0, 0.0, 0.0, 0.0, 0.0, 1.645922796790373E9, 0.0, 2022-02-27 11:46:36.790
74.0, -554.0773933026068, -3022.5146439688974, -1889.0800343847318, -9133.481578049848, 462.6811102248562, 378.41503362834857, -4777.640673832974, -1478.0985090850008, -2305.3812748648256, -4157.089192520284, -3524.8477488574686, -2626.5087874542223, -2856.7094035994296, -1627.5422725131837, -7885.002539754217, -14608.004940510385, 0.014875, -0.107125, 0.984875, 192.0, 0.0, 0.0, 0.0, 0.0, 0.0, 0.0, 0.0, 0.0, 0.0, 1.64592279679836E9, 0.0, 2022-02-27 11:46:36.798
76.0, -1210.9728110996261, -3531.7320861497033, -2394.6541422193222, -9695.15856446726, -172.01902532804314, -6.951392525600497, -5085.603008938195, -1844.3541937296623, -3458.8206957364914, -4956.387574242065, -3841.259043366795, -2833.08360971017, -3137.0673343023464, -1932.3977151391168, -8227.431264809522, -15415.57346768063, 0.014437499999999999, -0.1065625, 0.9874375, 192.0, 0.0, 56.0, 126.0, 88.0, 15.0, 120.0, 0.0, 0.0, 0.0, 1.645922796806346E9, 0.0, 2022-02-27 11:46:36.806
78.0, -700.6824851849658, -3115.9002323031705, -1984.320817508795, -9247.900157916565, 312.76796016311175, 334.4938557736702, -4753.992528199259, -1420.9227467683252, -1199.7075318941513, -3951.9225301650204, -3651.0680497965873, -2601.0725022640827, -3021.5535189573193, -1711.6518868985042, -7795.014416577151, -14313.54305905617, 0.014437499999999999, -0.1065625, 0.9874375, 192.0, 0.0, 0.0, 0.0, 0.0, 0.0, 0.0, 0.0, 0.0, 0.0, 1.645922796813512E9, 0.0, 2022-02-27 11:46:36.813
80.0, -820.6666494210541, -3234.87856803877, -2147.6226624992687, -9412.990142463463, 147.96854829413275, 148.7508593500685, -5007.304848111254, -1774.594399284649, -3655.918378343389, -4675.582608650042, -3570.8476389464904, -2717.860367043062, -2869.628711894597, -1707.852090341102, -8120.925202479983, -15248.315363921567, 0.014437499999999999, -0.1065625, 0.9874375, 192.0, 0.0, 0.0, 0.0, 0.0, 0.0, 0.0, 0.0, 0.0, 0.0, 1.645922796821053E9, 0.0, 2022-02-27 11:46:36.821
82.0, -1056.432849935633, -3407.411683489285, -2260.901303398765, -9556.689507566633, -45.46344822209456, 101.5886785493706, -4925.45275991592, -1635.8347697061026, -1762.3009398342301, -4432.328573742935, -3872.976168748876, -2733.2607189727687, -3227.100160968323, -1944.8029333118122, -7995.82248876363, -14777.095887314785, 0.014437499999999999, -0.1065625, 0.9874375, 192.0, 0.0, 0.0, 0.0, 0.0, 0.0, 0.0, 0.0, 0.0, 0.0, 1.645922796828994E9, 0.0, 2022-02-27 11:46:36.828
84.0, -502.71308454431113, -2975.3301114237443, -1891.3375605747178, -9132.587508271636, 447.79484841762167, 367.70854803425647, -4793.510412396242, -1485.027549866146, -2276.145193117284, -4119.158282179628, -3511.1684812508206, -2603.0394557761497, -2858.832819322684, -1622.7366474552928, -7890.054034001117, -14607.356739921182, 0.014437499999999999, -0.1065625, 0.9874375, 192.0, 0.0, 0.0, 0.0, 0.0, 0.0, 0.0, 0.0, 0.0, 0.0, 1.645922796836089E9, 0.0, 2022-02-27 11:46:36.836
86.0, -1153.2159034271126, -3483.0723384704997, -2389.8038136725204, -9686.910770763252, -176.2435050300962, -22.798779344413205, -5101.8750789016585, -1873.0314818658212, -3456.8537422244244, -4941.322498479188, -3822.4165227909716, -2815.3586763571116, -3132.8205028558377, -1945.585244367748, -8231.275764855834, -15423.731854406817, 0.014218749999999999, -0.10828125, 0.98971875, 192.0, 0.0, 56.0, 126.0, 72.0, 15.5, 0.0, 0.0, 0.0, 0.0, 1.645922796843314E9, 0.0, 2022-02-27 11:46:36.843
88.0, -654.7272985848545, -3075.711795772528, -1986.2654192764069, -9244.122713103618, 298.86517511191073, 336.6396232413797, -4770.845743518561, -1424.3872671588979, -1177.5793048833973, -3939.003221869853, -3632.158473987398, -2578.4972403642228, -3020.2347660344562, -1707.3603519630853, -7798.009550334162, -14314.660646278937, 0.014218749999999999, -0.10828125, 0.98971875, 192.0, 0.0, 0.0, 0.0, 0.0, 0.0, 0.0, 0.0, 0.0, 0.0, 1.645922796850724E9, 0.0, 2022-02-27 11:46:36.850
90.0, -757.3888608680799, -3172.6066079862844, -2135.4409617711262, -9401.456642324525, 162.00544381206558, 165.1793915247192, -5017.609002305151, -1753.9637391524004, -3625.274136695163, -4653.834361295028, -3549.8817026474126, -2684.1539364044593, -2867.594703149164, -1691.3341511886301, -8121.5063478358215, -15238.033561472126, 0.014218749999999999, -0.10828125, 0.98971875, 192.0, 0.0, 0.0, 0.0, 0.0, 0.0, 0.0, 0.0, 0.0, 0.0, 1.645922796858682E9, 0.0, 2022-02-27 11:46:36.858
92.0, -1003.5486225543765, -3344.938557736702, -2254.5981114623683, -9547.860568506787, -48.346823256829175, 118.84422526886765, -4924.290469204244, -1622.3566677995525, -1744.2183785698867, -4408.30044845348, -3845.7070405134014, -2708.070302971638, -3218.003000975013, -1919.3889998661282, -7994.3696253740345, -14780.091021071796, 0.014218749999999999, -0.10828125, 0.98971875, 192.0, 0.0, 0.0, 0.0, 0.0, 0.0, 0.0, 0.0, 0.0, 0.0, 1.645922796866776E9, 0.0, 2022-02-27 11:46:36.866
94.0, -451.7734589306663, -2918.377866551622, -1883.5144500153604, -9115.577830741147, 445.3361565275379, 373.0282632146196, -4797.489022909287, -1484.2005353212996, -2236.180274031195, -4077.069947370285, -3486.7827280500806, -2579.5030688647116, -2854.541284387265, -1621.5743567436168, -7890.031682256661, -14598.907780517076, 0.014218749999999999, -0.10828125, 0.98971875, 192.0, 0.0, 0.0, 0.0, 0.0, 0.0, 0.0, 0.0, 0.0, 0.0, 1.645922796873307E9, 0.0, 2022-02-27 11:46:36.873
96.0, -1111.7087139736075, -3448.091858397944, -2385.959313626208, -9685.055575973462, -192.82849941593403, -33.84054110533489, -5125.746741979926, -1878.9546941464776, -3439.084105382455, -4914.254535943811, -3799.1483568129966, -2783.865068419584, -3125.4220754411313, -1930.073133715765, -8239.255337626379, -15431.890241133004, 0.014109375, -0.106140625, 0.988859375, 192.0, 0.0, 56.0, 126.0, 96.0, 15.0, 112.0, 0.0, 0.0, 0.0, 1.645922796881331E9, 0.0, 2022-02-27 11:46:36.881
98.0, -633.6496035634999, -3053.9859001619698, -1990.6016577007365, -9254.560977764248, 275.0605672670087, 302.5755646914917, -4783.027444246703, -1453.3551279729759, -1156.6357203287746, -3929.0119920983307, -3628.917471041378, -2570.0929844490274, -3027.767303915895, -1715.205814266898, -7812.73934993021, -14331.133881942498, 0.014109375, -0.106140625, 0.988859375, 192.0, 0.0, 0.0, 0.0, 0.0, 0.0, 0.0, 0.0, 0.0, 0.0, 1.645922796889357E9, 0.0, 2022-02-27 11:46:36.889
100.0, -719.3014883162366, -3132.0605435443576, -2126.2767465444504, -9388.514982284902, 150.20372273966345, 151.65658612925841, -5023.845139008181, -1762.9938439123446, -3594.2946188801075, -4635.662393052864, -3536.60476644096, -2675.5708665336215, -2855.99414777686, -1693.949305289901, -8127.22839441638, -15243.286221419123, 0.014109375, -0.106140625, 0.988859375, 192.0, 0.0, 0.0, 0.0, 0.0, 0.0, 0.0, 0.0, 0.0, 0.0, 1.645922796903E9, 0.0, 2022-02-27 11:46:36.903
102.0, -973.5302297508991, -3322.9891446815905, -2253.0111376060413, -9547.748809784509, -63.81423041990166, 98.16886164770862, -4946.6198619150955, -1651.2351216358093, -1763.7090997349144, -4407.540489141999, -3839.0909241546306, -2700.24719241228, -3211.6551055497057, -1915.075113186254, -8014.642657594998, -14803.023910882941, 0.014109375, -0.106140625, 0.988859375, 192.0, 0.0, 0.0, 0.0, 0.0, 0.0, 0.0, 0.0, 0.0, 0.0, 1.645922796910925E9, 0.0, 2022-02-27 11:46:36.910
104.0, -411.04858053309687, -2885.0961190576695, -1869.522257986338, -9111.599220228103, 444.08445883804075, 374.7940510265888, -4792.459880406843, -1472.1976485487996, -2163.7829737404554, -4066.318758287282, -3468.387242363363, -2560.4146790998793, -2841.599624347642, -1602.5083187232399, -7890.165792723393, -14588.26835015635, 0.014109375, -0.106140625, 0.988859375, 192.0, 0.0, 0.0, 0.0, 0.0, 0.0, 0.0, 0.0, 0.0, 0.0, 1.64592279691893E9, 0.0, 2022-02-27 11:46:36.918
106.0, -1072.883733854739, -3389.060901291478, -2373.4199849867805, -9683.267436417036, -180.9820748546213, -23.13405551124281, -5123.668029745582, -1869.65636845307, -3441.9451286727344, -4895.546125834719, -3773.332091967117, -2781.004045129305, -3102.109205974246, -1889.7505867183909, -8238.651840526085, -15434.751264423283, 0.014, -0.108, 0.994, 192.0, 0.0, 56.0, 126.0, 80.0, 15.5, 8.0, 0.0, 0.0, 0.0, 1.64592279692548E9, 0.0, 2022-02-27 11:46:36.925
108.0, -611.8790044640308, -3036.1492080866346, -1989.5734774557923, -9256.103248131663, 279.7991370915338, 303.06730306950845, -4801.110005511046, -1447.767191859149, -1132.8311124838726, -3901.072311529197, -3617.249860435708, -2571.165868182882, -3020.346524756733, -1709.14849151951, -7815.734483687221, -14336.07361746712, 0.014, -0.108, 0.994, 192.0, 0.0, 0.0, 0.0, 0.0, 0.0, 0.0, 0.0, 0.0, 0.0, 1.645922796933646E9, 0.0, 2022-02-27 11:46:36.933
110.0, -700.2578020403149, -3128.014877797947, -2123.3486680208052, -9386.592732261746, 160.1949525111857, 142.6935366026803, -5016.6478772935725, -1762.3456433231406, -3568.0089674006663, -4620.127930656425, -3526.0323913136, -2659.0082238922387, -2855.904740799039, -1707.7179798743703, -8123.7415222813515, -15236.401884126888, 0.014, -0.108, 0.994, 192.0, 0.0, 0.0, 0.0, 0.0, 0.0, 0.0, 0.0, 0.0, 0.0, 1.645922796941641E9, 0.0, 2022-02-27 11:46:36.941
112.0, -967.629369214698, -3319.7928452244814, -2255.961567874142, -9553.694373809622, -61.64611120773688, 90.59162027735952, -4952.923053851492, -1656.3536711160746, -1764.8043352132245, -4403.5395268844995, -3833.748857229812, -2700.96244823485, -3216.7960067744266, -1935.3034419183068, -8017.011942507261, -14811.450518542591, 0.014, -0.108, 0.994, 192.0, 0.0, 0.0, 0.0, 0.0, 0.0, 0.0, 0.0, 0.0, 0.0, 1.645922796948741E9, 0.0, 2022-02-27 11:46:36.948
114.0, -404.92420255234276, -2881.2069155224463, -1866.5718277182375, -9107.933534137432, 445.38086001644854, 375.6657690603458, -4804.328656712611, -1473.5611049605734, -2151.3330520788495, -4067.7939734213323, -3467.9849109631673, -2561.7334320227424, -2841.7560865588293, -1615.3605717850414, -7891.171621223882, -14587.039004211309, 0.014, -0.108, 0.994, 192.0, 0.0, 0.0, 0.0, 0.0, 0.0, 0.0, 0.0, 0.0, 0.0, 1.645922796955334E9, 0.0, 2022-02-27 11:46:36.955
116.0, -1074.8730391112613, -3400.974381086157, -2376.7056914217105, -9679.042956714984, -191.10741509287539, -24.58691890083777, -5131.669954260583, -1880.7875371918128, -3454.372698589885, -4909.4042073970095, -3773.823830345134, -2774.7232049373633, -3109.2841159443997, -1912.4376073405276, -8245.558529562775, -15436.002962112781, 0.012, -0.11, 0.99, 192.0, 0.0, 48.0, 126.0, 72.0, 15.0, 120.0, 0.0, 0.0, 0.0, 1.645922796963338E9, 0.0, 2022-02-27 11:46:36.963
118.0, -613.197757386894, -3037.535016242864, -1990.6910646785577, -9256.371469065127, 269.6290933643691, 308.47642522769274, -4776.634845332485, -1438.4241626768307, -1119.5765280218754, -3909.63302965558, -3620.6249738484594, -2572.4175658723793, -3028.3484492717325, -1713.1494537770097, -7817.321457543548, -14327.73641678529, 0.012, -0.11, 0.99, 192.0, 0.0, 0.0, 0.0, 0.0, 0.0, 0.0, 0.0, 0.0, 0.0, 1.645922796971238E9, 0.0, 2022-02-27 11:46:36.971
120.0, -691.8758978695748, -3115.944935792081, -2112.5304237044365, -9382.122383370684, 159.4796966886159, 160.61963565583656, -5014.345647614676, -1755.5954164976379, -3551.6474904593815, -4606.180442116313, -3521.159711022343, -2682.5222590592216, -2857.223493721902, -1699.693703614915, -8124.792054270752, -15221.828546742028, 0.012, -0.11, 0.99, 192.0, 0.0, 0.0, 0.0, 0.0, 0.0, 0.0, 0.0, 0.0, 0.0, 1.645922796978896E9, 0.0, 2022-02-27 11:46:36.978
122.0, -966.2659128029243, -3289.7968041654594, -2249.9713003601196, -9561.338670413335, -66.60819847681505, 94.92785870168909, -4956.387574242065, -1651.8386187361025, -1779.6682452760037, -4389.994369744583, -3830.977240917354, -2710.931326261917, -3216.5501375854183, -1945.9428722790328, -8023.82922456613, -14821.419396569658, 0.012, -0.11, 0.99, 192.0, 0.0, 0.0, 0.0, 0.0, 0.0, 0.0, 0.0, 0.0, 0.0, 1.645922796985951E9, 0.0, 2022-02-27 11:46:36.985
124.0, -419.18461551482864, -2900.0270843538146, -1867.6447114520922, -9116.13662435253, 445.6043774610016, 383.5559348530692, -4808.821357348127, -1476.153907317389, -2118.99007785202, -4074.2983310578265, -3464.1404109168543, -2596.199821972826, -2847.3663744171113, -1611.0243333607118, -7889.115260733994, -14575.8407802392, 0.012, -0.11, 0.99, 192.0, 0.0, 0.0, 0.0, 0.0, 0.0, 0.0, 0.0, 0.0, 0.0, 1.645922796993933E9, 0.0, 2022-02-27 11:46:36.993
126.0, -1098.364722533789, -3397.800433373503, -2379.209086800705, -9691.828154543418, -192.04618835999827, -23.648145633714872, -5135.268585117887, -1886.4425285390055, -3482.1335652033767, -4906.744349806828, -3779.6129321590583, -2809.547222798732, -3104.8584705422486, -1904.0557031697874, -8247.927814475039, -15450.397485541998, 0.01, -0.106, 0.992, 192.0, 0.0, 40.0, 126.0, 88.0, 15.5, 0.0, 0.0, 0.0, 0.0, 1.645922797001827E9, 0.0, 2022-02-27 11:46:37.001
128.0, -687.8749356120749, -3102.332723418799, -2004.1244630961971, -9278.186771653507, 253.1782094452631, 297.1664425333074, -4781.351063412555, -1460.932369343325, -1141.74945852154, -3947.675698718512, -3648.6764131398695, -2595.2163452167924, -3043.4805802679757, -1728.952137106912, -7821.3224198010475, -14339.962821002344, 0.01, -0.106, 0.992, 192.0, 0.0, 0.0, 0.0, 0.0, 0.0, 0.0, 0.0, 0.0, 0.0, 1.645922797008468E9, 0.0, 2022-02-27 11:46:37.008
130.0, -765.1002127051607, -3119.9011945606703, -2109.289420758417, -9398.506212056423, 177.83047888642298, 169.40387122677222, -5009.003580689858, -1754.2766635747748, -3558.017737629144, -4604.9957996601825, -3543.623214199926, -2767.861219389584, -2855.27889195429, -1710.2213752533646, -8116.9912954558495, -15221.001532197182, 0.01, -0.106, 0.992, 192.0, 0.0, 0.0, 0.0, 0.0, 0.0, 0.0, 0.0, 0.0, 0.0, 1.645922797016495E9, 0.0, 2022-02-27 11:46:37.016
132.0, -1140.8330369988726, -3518.7457226211695, -2273.9100186717533, -9569.452353650613, -68.21752407759716, 95.03961742396564, -4943.155341524523, -1659.8852467400131, -1841.8060948617572, -4455.484980998634, -3872.5738373486806, -2781.294617807224, -3216.7960067744266, -1948.0215845133764, -8017.794253563196, -14825.777986738443, 0.01, -0.106, 0.992, 192.0, 0.0, 0.0, 0.0, 0.0, 0.0, 0.0, 0.0, 0.0, 0.0, 1.645922797030609E9, 0.0, 2022-02-27 11:46:37.030
134.0, -647.2171124478713, -3124.9526888075698, -1888.1189093731534, -9129.19004311443, 449.3818222739485, 378.99617898418654, -4786.536668126187, -1484.155831832389, -2193.6449043327457, -4124.232128170983, -3538.41525774184, -2584.487507878245, -2867.907627571539, -1615.3829235294968, -7882.789717053141, -14569.135256902608, 0.01, -0.106, 0.992, 192.0, 0.0, 0.0, 0.0, 0.0, 0.0, 0.0, 0.0, 0.0, 0.0, 1.645922797038101E9, 0.0, 2022-02-27 11:46:37.038
136.0, -1348.5030947331304, -3660.4557824678163, -2396.9340201537634, -9697.572552868432, -178.85865913136712, -19.87070082076798, -5126.327887335764, -1888.8565169401786, -3582.2023251297865, -4970.580931971184, -3853.552502817214, -2831.3625253871114, -3117.978944537514, -1921.1547876780974, -8241.289346371812, -15446.932965151425, 0.012, -0.10200000000000001, 0.984, 192.0, 0.0, 48.0, 126.0, 104.0, 15.0, 96.0, 0.0, 0.0, 0.0, 1.645922797046124E9, 0.0, 2022-02-27 11:46:37.046
138.0, -935.889892088162, -3358.774287554537, -2029.2031203750516, -9292.22366717144, 259.4814013816597, 299.24515476765094, -4806.697941624873, -1474.0751950830454, -1227.2895845520002, -4000.0234842328414, -3725.4099518549388, -2645.6418807079654, -3054.209417606523, -1722.984221337345, -7819.891908155908, -14334.330181399606, 0.012, -0.10200000000000001, 0.984, 192.0, 0.0, 0.0, 0.0, 0.0, 0.0, 0.0, 0.0, 0.0, 0.0, 1.645922797054082E9, 0.0, 2022-02-27 11:46:37.054
140.0, -987.6341805021979, -3404.9753433436567, -2132.6916972031236, -9390.996025919441, 180.55739170997046, 171.48258346111578, -5004.712045754439, -1759.9316549219675, -3649.9728143182774, -4694.291018759134, -3625.0953227395207, -2736.9487568078944, -2873.182639262991, -1703.0911687721216, -8120.388760613056, -15215.123023405436, 0.012, -0.10200000000000001, 0.984, 192.0, 0.0, 0.0, 0.0, 0.0, 0.0, 0.0, 0.0, 0.0, 0.0, 1.645922797060821E9, 0.0, 2022-02-27 11:46:37.060
142.0, -1287.4157771367761, -3614.3664854009735, -2298.1616614057616, -9601.392996477247, -78.4993265270384, 84.02020740749924, -4941.255443245822, -1668.0212817217448, -1980.0292825733761, -4542.61208088542, -3942.199521326962, -2792.8951731795282, -3240.488855897052, -1944.6688228450803, -8028.478387412833, -14856.51163536449, 0.012, -0.10200000000000001, 0.984, 192.0, 0.0, 0.0, 0.0, 0.0, 0.0, 0.0, 0.0, 0.0, 0.0, 1.645922797068766E9, 0.0, 2022-02-27 11:46:37.068
144.0, -702.7164939303988, -3150.657194931173, -1904.2345171254299, -9150.33479336915, 441.31284252558265, 367.97676896772015, -4779.831144789594, -1485.4745847552522, -2181.6643693047013, -4123.405113626136, -3573.507496536672, -2651.609796477532, -2872.959121818438, -1621.8202259326251, -7869.266911657681, -14558.7863992198, 0.012, -0.10200000000000001, 0.984, 192.0, 0.0, 0.0, 0.0, 0.0, 0.0, 0.0, 0.0, 0.0, 0.0, 1.645922797076743E9, 0.0, 2022-02-27 11:46:37.076
146.0, -1347.4972662326416, -3649.3246137290735, -2405.7182557246992, -9701.260590703558, -185.474775490138, -25.726857868058428, -5126.596108269227, -1894.5338600318266, -3632.5831571320487, -4985.154269356045, -3869.869276269588, -2869.6510636390526, -3122.0916655172905, -1923.9711074794661, -8246.989041207915, -15459.651107746497, 0.012, -0.10200000000000001, 0.984, 192.0, 0.0, 48.0, 126.0, 104.0, 15.0, 96.0, 0.0, 0.0, 0.0, 1.645922797083965E9, 0.0, 2022-02-27 11:46:37.083
148.0, -887.9230484870731, -3273.2118097796215, -2034.098152410764, -9287.127469435629, 255.32397691297257, 305.3471810039498, -4799.925363054916, -1451.3658227164535, -1229.9270903977265, -3989.227591660928, -3724.7393995212797, -2632.9684416018063, -3054.164714117612, -1728.370991751074, -7814.773358675642, -14333.547870343671, 0.012, -0.10200000000000001, 0.984, 192.0, 0.0, 0.0, 0.0, 0.0, 0.0, 0.0, 0.0, 0.0, 0.0, 1.645922797090354E9, 0.0, 2022-02-27 11:46:37.090
150.0, -909.9842202644611, -3297.5305077469957, -2128.7801419234447, -9379.529581013869, 182.32317952193972, 179.21628704265203, -5014.904441226058, -1746.9899948823447, -3620.3120494260847, -4637.383477375923, -3605.3587323854845, -2720.609631611065, -2866.991206048871, -1694.172822734454, -8110.866917475095, -15196.90635167436, 0.012, -0.10200000000000001, 0.984, 192.0, 0.0, 0.0, 0.0, 0.0, 0.0, 0.0, 0.0, 0.0, 0.0, 1.645922797098444E9, 0.0, 2022-02-27 11:46:37.098
152.0, -1207.1283110533132, -3529.407504726351, -2296.2841148715156, -9587.08788002585, -82.20971610661938, 91.73155924458018, -4967.563446469718, -1673.2068864353762, -1951.396697926128, -4505.307019389513, -3919.043114071264, -2767.481239733844, -3237.8289983068703, -1943.104200733209, -8034.088675271115, -14849.739056794531, 0.012, -0.10200000000000001, 0.984, 192.0, 0.0, 0.0, 0.0, 0.0, 0.0, 0.0, 0.0, 0.0, 0.0, 1.645922797106462E9, 0.0, 2022-02-27 11:46:37.106
154.0, -613.421274831447, -3072.2919788708664, -1893.2821623423295, -9131.984011171344, 446.2749297946608, 379.66673131784574, -4802.316999711633, -1491.1072243579895, -2163.894732462732, -4097.968828435997, -3548.6300049579154, -2614.1035692815267, -2874.143764274569, -1627.6093277465498, -7878.162905950893, -14557.221777107929, 0.012, -0.10200000000000001, 0.984, 192.0, 0.0, 0.0, 0.0, 0.0, 0.0, 0.0, 0.0, 0.0, 0.0, 1.645922797113582E9, 0.0, 2022-02-27 11:46:37.113
156.0, -1254.7822302320278, -3575.6532640043815, -2400.309133566515, -9694.420956900234, -182.2337725441185, -20.98828804353333, -5140.364782853697, -1900.4123688235725, -3609.42674987635, -4951.112562550612, -3833.4135810629823, -2832.122484698592, -3109.0382467553914, -1914.4939678304158, -8249.268919142356, -15459.069962390658, 0.014, -0.106, 0.986, 192.0, 0.0, 56.0, 126.0, 88.0, 15.0, 104.0, 0.0, 0.0, 0.0, 1.645922797121268E9, 0.0, 2022-02-27 11:46:37.121
158.0, -817.2915360083027, -3227.9048237687143, -2031.2371291204847, -9294.972931739441, 244.14810468531905, 290.9079540858214, -4807.346142214077, -1462.6311019219283, -1197.2935434929782, -3998.5929725877018, -3707.752073735246, -2617.143406527449, -3060.17733337609, -1748.018175127289, -7821.612992478967, -14341.46038788085, 0.014, -0.106, 0.986, 192.0, 0.0, 0.0, 0.0, 0.0, 0.0, 0.0, 0.0, 0.0, 0.0, 1.645922797128964E9, 0.0, 2022-02-27 11:46:37.128
160.0, -823.5947279446993, -3244.936853043658, -2119.5265197189474, -9386.056290394818, 181.54086846600396, 163.5924176683924, -5041.480665383418, -1765.497239291339, -3572.61342675846, -4639.5068930991765, -3575.541505282105, -2708.450282627378, -2867.8405723381725, -1702.3759129495518, -8118.332400123168, -15202.293122088091, 0.014, -0.106, 0.986, 192.0, 0.0, 0.0, 0.0, 0.0, 0.0, 0.0, 0.0, 0.0, 0.0, 1.645922797137274E9, 0.0, 2022-02-27 11:46:37.137
162.0, -1128.360763592811, -3461.1005736709326, -2289.4891845571024, -9591.46882193909, -88.9599429321221, 75.43713753666134, -4994.206725860444, -1691.6023721220938, -1933.4482471285162, -4516.237022428158, -3890.745805590845, -2751.9244255929502, -3231.4140476481975, -1954.6377008721474, -8044.817512609663, -14872.493132650035, 0.014, -0.106, 0.986, 192.0, 0.0, 0.0, 0.0, 0.0, 0.0, 0.0, 0.0, 0.0, 0.0, 1.645922797150903E9, 0.0, 2022-02-27 11:46:37.150
164.0, -532.7985325811544, -3000.1628995135907, -1886.0401971388098, -9129.145339625518, 441.8716361369653, 374.90580974886535, -4802.607572389552, -1494.7729104486598, -2101.9804003215313, -4084.2672090848937, -3520.7573796221473, -2598.680865607365, -2865.046604281259, -1628.726914969315, -7883.639083342444, -14556.506521285359, 0.014, -0.106, 0.986, 192.0, 0.0, 0.0, 0.0, 0.0, 0.0, 0.0, 0.0, 0.0, 0.0, 1.645922797158679E9, 0.0, 2022-02-27 11:46:37.158
166.0, -1175.5452961379644, -3510.430873683795, -2383.7688426695877, -9684.899113762274, -171.39317648329455, -19.960107798589206, -5137.883739219158, -1891.8516506971898, -3594.1605084133757, -4953.705364907428, -3798.3883975015165, -2820.2984118817344, -3091.916810502626, -1916.0585899422874, -8247.860759241672, -15462.199206614401, 0.016, -0.106, 0.988, 192.0, 0.0, 64.0, 126.0, 88.0, 15.0, 112.0, 0.0, 0.0, 0.0, 1.645922797165846E9, 0.0, 2022-02-27 11:46:37.165
168.0, -749.319881119714, -3176.339349310321, -2025.8727104512109, -9295.196449183995, 240.41536336128277, 291.9361343307655, -4814.699866139873, -1472.510572971174, -1161.553104108942, -3978.1858299000064, -3688.3284078035845, -2606.481624422267, -3055.6399292516626, -1759.7081374774145, -7819.489576755712, -14346.17660596092, 0.016, -0.106, 0.988, 192.0, 0.0, 0.0, 0.0, 0.0, 0.0, 0.0, 0.0, 0.0, 0.0, 1.645922797173341E9, 0.0, 2022-02-27 11:46:37.173
170.0, -754.349023622158, -3187.9175529381696, -2106.897784101699, -9373.315796055293, 190.43686275921618, 181.45146148818273, -5018.301906383265, -1751.0356606287553, -3515.7505888641585, -4604.571116515532, -3547.1100863349543, -2683.7292532598085, -2848.3722029176, -1686.8638022975688, -8101.725053992875, -15179.606101465954, 0.016, -0.106, 0.988, 192.0, 0.0, 0.0, 0.0, 0.0, 0.0, 0.0, 0.0, 0.0, 0.0, 1.645922797181313E9, 0.0, 2022-02-27 11:46:37.181
172.0, -1080.0586438248927, -3427.081218609955, -2295.367693348848, -9595.670949896688, -88.82583246539026, 75.70535847012502, -4987.076519379201, -1686.9755610198451, -1930.09548546022, -4521.646144586342, -3880.978093263876, -2746.9846900683274, -3228.5530243579183, -1954.5035904054155, -8039.87777708504, -14870.772048326977, 0.016, -0.106, 0.988, 192.0, 0.0, 0.0, 0.0, 0.0, 0.0, 0.0, 0.0, 0.0, 0.0, 1.645922797189292E9, 0.0, 2022-02-27 11:46:37.189
174.0, -484.4517093243253, -2962.857838017683, -1886.4648802834608, -9125.56906051267, 444.12916232695136, 375.0622719600525, -4797.041988020181, -1474.3881195054198, -2065.569408603836, -4075.393566536137, -3506.184042237287, -2587.393234657435, -2856.441182665966, -1634.113685383044, -7868.618711068477, -14536.412303020037, 0.016, -0.106, 0.988, 192.0, 0.0, 0.0, 0.0, 0.0, 0.0, 0.0, 0.0, 0.0, 0.0, 1.645922797195918E9, 0.0, 2022-02-27 11:46:37.195
176.0, -1131.333545605367, -3475.9421319892567, -2391.5472497400347, -9693.884515033307, -178.7692521535459, -32.2759189934634, -5134.150997895122, -1893.5727350202485, -3587.834964732524, -4956.968719597902, -3792.688702665413, -2813.9505164564275, -3101.751578062961, -1923.6581830570917, -8246.050267940793, -15459.271128090755, 0.014, -0.10400000000000001, 0.988, 192.0, 0.0, 56.0, 126.0, 96.0, 15.0, 112.0, 0.0, 0.0, 0.0, 1.645922797203014E9, 0.0, 2022-02-27 11:46:37.203
178.0, -693.8652031260972, -3103.5844211082963, -2024.196329617063, -9295.375263139638, 246.94207274223243, 280.4920411696483, -4815.348066729077, -1479.350206774498, -1130.3500688493334, -3967.6581582615568, -3666.0660703260983, -2600.5360603971553, -3052.220112350001, -1739.233939556353, -7813.49930924169, -14338.465254123837, 0.014, -0.10400000000000001, 0.988, 192.0, 0.0, 0.0, 0.0, 0.0, 0.0, 0.0, 0.0, 0.0, 0.0, 1.645922797210959E9, 0.0, 2022-02-27 11:46:37.210
180.0, -692.3452845031362, -3129.691258632095, -2095.811318851867, -9356.797856902822, 203.73615071012387, 175.81882188544535, -5011.194051646477, -1751.3262333066743, -3484.122870459899, -4584.879229650406, -3526.367667480429, -2679.8624014690404, -2841.3984586475444, -1686.7743953197476, -8094.661902744998, -15177.035650853593, 0.014, -0.10400000000000001, 0.988, 192.0, 0.0, 0.0, 0.0, 0.0, 0.0, 0.0, 0.0, 0.0, 0.0, 1.645922797219062E9, 0.0, 2022-02-27 11:46:37.219
182.0, -1038.819675304851, -3389.3961774583076, -2293.020760181041, -9595.715653385598, -93.09501565635392, 60.52852398497153, -4976.101812851645, -1694.0610640121777, -1968.1381545231527, -4525.937679521761, -3864.2142849223956, -2720.833149055618, -3228.776541802471, -1943.9982705114212, -8047.566777177665, -14897.504734695523, 0.014, -0.10400000000000001, 0.988, 192.0, 0.0, 0.0, 0.0, 0.0, 0.0, 0.0, 0.0, 0.0, 0.0, 1.645922797225557E9, 0.0, 2022-02-27 11:46:37.225
184.0, -439.21177854678376, -2914.823939183228, -1875.1772493335307, -9121.009304643787, 450.4100025188926, 363.3276061210163, -4796.61730487553, -1484.9157911438695, -1997.5754019707922, -4046.3139469997823, -3487.587390850472, -2557.0842691760386, -2858.89987455605, -1616.7016764523598, -7862.606091809999, -14529.885593639088, 0.013000000000000001, -0.10600000000000001, 0.987, 192.0, 0.0, 48.0, 126.0, 80.0, 15.0, 104.0, 0.0, 0.0, 0.0, 1.645922797233603E9, 0.0, 2022-02-27 11:46:37.233
186.0, -1078.337559501834, -3414.988924859634, -2371.698900663722, -9672.739764778587, -175.88587711881127, -34.84636960582371, -5150.914806236602, -1901.0158659238657, -3584.057519919577, -4929.49842566233, -3759.6081208715586, -2778.478298005855, -3083.266685398422, -1901.7311217464355, -8242.764561505863, -15464.970822926858, 0.013000000000000001, -0.10600000000000001, 0.987, 192.0, 0.0, 0.0, 0.0, 0.0, 0.0, 0.0, 0.0, 0.0, 0.0, 1.645922797241564E9, 0.0, 2022-02-27 11:46:37.241
188.0, -670.6640923814884, -3090.0616157128356, -2022.229376104996, -9288.51327759186, 227.89838646631082, 282.16842200379637, -4812.3752847165215, -1483.8652591544699, -1113.6309639967637, -3966.1382396385957, -3655.2031225208193, -2573.7586705396975, -3056.846923452249, -1743.4137157694956, -7823.0882076130165, -14353.284460697707, 0.013000000000000001, -0.10600000000000001, 0.987, 192.0, 0.0, 0.0, 0.0, 0.0, 0.0, 0.0, 0.0, 0.0, 0.0, 1.645922797248727E9, 0.0, 2022-02-27 11:46:37.248
190.0, -660.0246620207622, -3090.016912223925, -2081.5285541449257, -9345.577281186257, 211.4698542916601, 180.7362056656129, -4995.838403205682, -1736.8870063885458, -3444.4038205628185, -4557.543046181565, -3505.8487660704573, -2645.9771568747947, -2836.0787434671815, -1667.4848398548174, -8093.03022539976, -15158.818979122518, 0.013000000000000001, -0.10600000000000001, 0.987, 192.0, 0.0, 0.0, 0.0, 0.0, 0.0, 0.0, 0.0, 0.0, 0.0, 1.645922797256292E9, 0.0, 2022-02-27 11:46:37.256
192.0, -1013.8527767482731, -3349.4312583722185, -2284.370635076837, -9587.199638748127, -96.1795563911863, 56.99694836103301, -4982.27089432131, -1702.1970989939093, -1931.8612732721895, -4487.98441743665, -3847.115200414086, -2710.7972157951854, -3216.617192818784, -1950.10029674772, -8040.704791629886, -14887.08882177935, 0.013000000000000001, -0.10600000000000001, 0.987, 192.0, 0.0, 0.0, 0.0, 0.0, 0.0, 0.0, 0.0, 0.0, 0.0, 1.645922797264783E9, 0.0, 2022-02-27 11:46:37.264
194.0, -411.94265031130914, -2890.1923167934797, -1862.7943829052906, -9109.766377182768, 445.5820257165463, 360.51128631964764, -4804.708636368351, -1480.8477736530035, -1987.7853378993677, -4024.0739612667517, -3479.6301698243824, -2555.519647064167, -2858.6316536225863, -1623.7648277002368, -7872.485562859245, -14533.998314618864, 0.015500000000000002, -0.10700000000000001, 0.9875, 192.0, 0.0, 72.0, 126.0, 80.0, 15.0, 112.0, 0.0, 0.0, 0.0, 1.645922797277945E9, 0.0, 2022-02-27 11:46:37.277
196.0, -1053.4824196675324, -3390.0667297919667, -2358.4219644572695, -9663.061459429438, -161.60311241187006, -33.01352656048853, -5140.767114253893, -1898.356008333684, -3569.8641621904567, -4910.901774275515, -3732.115475191531, -2757.959396595883, -3058.6350630086736, -1891.8292989527345, -8241.2446428829, -15466.513093294276, 0.015500000000000002, -0.10700000000000001, 0.9875, 192.0, 0.0, 0.0, 0.0, 0.0, 0.0, 0.0, 0.0, 0.0, 0.0, 1.645922797285931E9, 0.0, 2022-02-27 11:46:37.285
198.0, -656.7166038413768, -3074.728319016495, -2021.000030159954, -9293.251847416383, 226.51257831008178, 270.74668058713445, -4815.5492324291745, -1488.536773745629, -1094.9225538876717, -3955.0294226443084, -3645.949500316322, -2573.0210629726726, -3045.089905868758, -1728.885081873546, -7824.004629135684, -14358.514768900248, 0.015500000000000002, -0.10700000000000001, 0.9875, 192.0, 0.0, 0.0, 0.0, 0.0, 0.0, 0.0, 0.0, 0.0, 0.0, 1.645922797293935E9, 0.0, 2022-02-27 11:46:37.293
200.0, -635.8624262645753, -3073.2307521379894, -2073.7948505633894, -9332.523862424358, 211.69337173621318, 179.35039750938387, -5002.052188164257, -1755.7742304532803, -3427.997640132623, -4552.491551934666, -3505.0664550145216, -2647.9888138757724, -2832.502464354332, -1686.148546474999, -8101.590943526143, -15168.09495307147, 0.015500000000000002, -0.10700000000000001, 0.9875, 192.0, 0.0, 0.0, 0.0, 0.0, 0.0, 0.0, 0.0, 0.0, 0.0, 1.64592279730091E9, 0.0, 2022-02-27 11:46:37.300
202.0, -996.4184160731336, -3341.3399268793974, -2279.430899552214, -9581.790516589943, -97.58771629187063, 70.83267817886808, -4984.014330388824, -1701.2806774712417, -1951.0167182703876, -4495.852231484918, -3832.877139196055, -2695.978009221317, -3204.1449194127226, -1936.2869186743403, -8045.823341110152, -14910.938133113163, 0.015500000000000002, -0.10700000000000001, 0.9875, 192.0, 0.0, 0.0, 0.0, 0.0, 0.0, 0.0, 0.0, 0.0, 0.0, 1.645922797308515E9, 0.0, 2022-02-27 11:46:37.308
204.0, -416.54710966910244, -2892.3827877501, -1874.3055312997737, -9119.623496487558, 434.00382208869723, 365.62983579991294, -4813.179947516912, -1485.9216196443583, -1952.7601543379014, -4016.161443729573, -3470.9800447201783, -2542.935614935829, -2850.696784340952, -1613.6618392064381, -7863.768382521675, -14520.922544112509, 0.01675, -0.10850000000000001, 0.98675, 192.0, 0.0, 72.0, 126.0, 72.0, 15.0, 104.0, 0.0, 0.0, 0.0, 1.645922797316553E9, 0.0, 2022-02-27 11:46:37.316
206.0, -1042.9100445401723, -3386.5351541680284, -2360.4559732027024, -9662.122686162316, -166.87812410332253, -25.995078801522112, -5142.421143343585, -1906.6932090155137, -3593.5570113130825, -4920.043637757735, -3746.2194259428297, -2772.488030491833, -3074.393042849665, -1903.2733921138517, -8252.800494766296, -15477.39839284401, 0.01675, -0.10850000000000001, 0.98675, 192.0, 0.0, 0.0, 0.0, 0.0, 0.0, 0.0, 0.0, 0.0, 0.0, 1.645922797324437E9, 0.0, 2022-02-27 11:46:37.324
208.0, -652.000385761307, -3066.212304379023, -2017.3119923248282, -9294.07886196123, 222.22104337466283, 272.1548404878188, -4831.8660058815485, -1491.733073202738, -1083.0314258374485, -3947.519236507325, -3640.406267691406, -2569.198914670815, -3044.5087605129197, -1736.8423028996353, -7817.030884865629, -14348.389428661994, 0.01675, -0.10850000000000001, 0.98675, 192.0, 0.0, 0.0, 0.0, 0.0, 0.0, 0.0, 0.0, 0.0, 0.0, 1.645922797330736E9, 0.0, 2022-02-27 11:46:37.330
210.0, -644.1996269464048, -3084.853659254749, -2080.7015396000793, -9347.298365509316, 194.6389907168139, 167.7721938815348, -5040.385429905108, -1779.109451664621, -3421.3144685404864, -4549.652880388842, -3505.222917225709, -2658.7176512143196, -2842.851322037139, -1679.2195056938538, -8102.037978415249, -15164.33986000298, 0.01675, -0.10850000000000001, 0.98675, 192.0, 0.0, 0.0, 0.0, 0.0, 0.0, 0.0, 0.0, 0.0, 0.0, 1.645922797338221E9, 0.0, 2022-02-27 11:46:37.338
212.0, -993.8256137163179, -3337.2719093885316, -2274.826440194421, -9582.32695845687, -83.48376554057188, 73.1125561133094, -4970.290359293265, -1683.823965051647, -1984.1867070420633, -4479.513106288088, -3842.1531131450074, -2713.4570733853666, -3217.1312829412564, -1956.8281718287674, -8058.094448816115, -14921.979894874084, 0.01675, -0.10850000000000001, 0.98675, 192.0, 0.0, 0.0, 0.0, 0.0, 0.0, 0.0, 0.0, 0.0, 0.0, 1.645922797346536E9, 0.0, 2022-02-27 11:46:37.346
214.0, -411.4062084443818, -2886.414871980533, -1868.427022508028, -9115.488423763327, 446.8560751504988, 379.04088247309716, -4792.3034181956555, -1475.3715962614533, -1931.7048110610024, -4013.4121791615703, -3473.617550565905, -2539.8510742009967, -2855.7482785878515, -1603.8941268794688, -7856.548769062611, -14508.785546873278, 0.017375, -0.10525000000000001, 0.985375, 192.0, 0.0, 72.0, 126.0, 104.0, 15.0, 96.0, 0.0, 0.0, 0.0, 1.645922797354191E9, 0.0, 2022-02-27 11:46:37.354
216.0, -1047.4921521535102, -3394.2465060051095, -2360.3218627359706, -9664.514322819034, -159.8820280888114, -21.815302588379694, -5116.627230242161, -1894.913839687567, -3614.4782441232496, -4929.766646595794, -3742.21846368533, -2761.4015652420003, -3064.021833422403, -1885.5261070163378, -8240.462331826966, -15470.06702066267, 0.017375, -0.10525000000000001, 0.985375, 192.0, 0.0, 0.0, 0.0, 0.0, 0.0, 0.0, 0.0, 0.0, 0.0, 1.645922797360856E9, 0.0, 2022-02-27 11:46:37.360
218.0, -672.3404732156364, -3082.193801664567, -2032.1982541320629, -9310.41798715806, 216.7448659831126, 273.3394829439501, -4822.455921465865, -1488.8496981680034, -1109.3617808058002, -3983.572600313735, -3664.1885237918527, -2576.9773217412617, -3064.044185166858, -1752.5555792517162, -7823.73640820222, -14363.208635235864, 0.017375, -0.10525000000000001, 0.985375, 192.0, 0.0, 0.0, 0.0, 0.0, 0.0, 0.0, 0.0, 0.0, 0.0, 1.645922797368818E9, 0.0, 2022-02-27 11:46:37.368
220.0, -621.8925859800084, -3059.663243253618, -2059.31092015635, -9329.975763556453, 231.698183023713, 195.37659828383903, -4993.93850492698, -1734.7635906652918, -3390.4914129366175, -4533.85019705894, -3499.970257278712, -2644.770162674208, -2836.2128539339133, -1650.3857553465075, -8085.095356118126, -15137.4730631677, 0.017375, -0.10525000000000001, 0.985375, 192.0, 0.0, 0.0, 0.0, 0.0, 0.0, 0.0, 0.0, 0.0, 0.0, 1.645922797376876E9, 0.0, 2022-02-27 11:46:37.376
222.0, -1030.7059920675745, -3369.838401059914, -2302.3861411078146, -9611.205412293126, -117.05608571244309, 47.20688428960852, -4993.290304337776, -1724.8394161271353, -2071.090289484297, -4545.763676853619, -3857.7099272859014, -2734.5347684067215, -3231.346992414831, -1964.1148405211975, -8067.012794853783, -14955.239290623582, 0.017375, -0.10525000000000001, 0.985375, 192.0, 0.0, 0.0, 0.0, 0.0, 0.0, 0.0, 0.0, 0.0, 0.0, 1.645922797383379E9, 0.0, 2022-02-27 11:46:37.383
224.0, -423.63261266143473, -2888.694749914974, -1871.9809498764218, -9121.813967444179, 441.60341520350164, 364.40048985487107, -4795.790290330683, -1482.7476719317046, -1903.4969095584047, -4008.740664570411, -3496.416329910318, -2566.1590774248934, -2881.1175085446253, -1640.1933598748876, -7861.51085633169, -14507.10916603913, 0.0156875, -0.105625, 0.9866874999999999, 192.0, 0.0, 56.0, 126.0, 88.0, 15.0, 112.0, 0.0, 0.0, 0.0, 1.645922797398433E9, 0.0, 2022-02-27 11:46:37.398
226.0, -1055.0917452683145, -3403.1648520427766, -2364.0546040600066, -9669.409354854746, -165.31350199145103, -36.187474273142136, -5140.275375875875, -1915.5668515642706, -3613.2936016671183, -4910.722960319872, -3733.3448211365726, -2764.9554926103942, -3060.5796647762854, -1898.5571740337818, -8235.232023624423, -15465.082581649136, 0.0156875, -0.105625, 0.9866874999999999, 192.0, 0.0, 0.0, 0.0, 0.0, 0.0, 0.0, 0.0, 0.0, 0.0, 1.645922797406406E9, 0.0, 2022-02-27 11:46:37.406
228.0, -662.9750922888628, -3074.9294847165925, -2020.0389051483758, -9298.996245741397, 229.61947078936944, 276.0663957674975, -4813.3140579836445, -1479.1043375854895, -1102.2539260690126, -3976.97883569942, -3658.0417940666434, -2582.8334787885524, -3061.5184380434084, -1742.3855355245514, -7820.78597793412, -14357.017202021743, 0.0156875, -0.105625, 0.9866874999999999, 192.0, 0.0, 0.0, 0.0, 0.0, 0.0, 0.0, 0.0, 0.0, 0.0, 1.645922797413077E9, 0.0, 2022-02-27 11:46:37.413
230.0, -625.4688650928575, -3067.0169671794138, -2060.8084870348557, -9322.84555707521, 240.68358429474645, 196.8071099289787, -4990.2281153474, -1726.7616661502918, -3394.2018025161988, -4519.947412007739, -3498.1821177222873, -2631.135598556471, -2830.222586419891, -1679.1300987160325, -8077.562818236687, -15131.818071820508, 0.0156875, -0.105625, 0.9866874999999999, 192.0, 0.0, 0.0, 0.0, 0.0, 0.0, 0.0, 0.0, 0.0, 0.0, 1.645922797421007E9, 0.0, 2022-02-27 11:46:37.421
232.0, -1020.3794861292228, -3360.227150944132, -2295.6359142823117, -9607.316208757902, -97.1630331472198, 57.198114061130774, -4969.731565681883, -1701.2583257267866, -2067.3575481602606, -4552.156275767837, -3860.4144883649933, -2722.040143256205, -3223.9932684890355, -1958.415145685094, -8060.97782385085, -14944.5775085184, 0.0156875, -0.105625, 0.9866874999999999, 192.0, 0.0, 0.0, 0.0, 0.0, 0.0, 0.0, 0.0, 0.0, 0.0, 1.645922797429039E9, 0.0, 2022-02-27 11:46:37.429
234.0, -411.94265031130914, -2883.0174068233264, -1864.2472462948856, -9124.004438400798, 458.18840958933947, 374.23525741520615, -4777.819487788616, -1464.3298345005317, -1897.2160693664634, -4001.811623789266, -3481.9100477588236, -2549.395269083413, -2862.4538019244437, -1611.3149060386309, -7844.724696245754, -14492.312311209716, 0.01484375, -0.1078125, 0.98834375, 192.0, 0.0, 56.0, 126.0, 72.0, 15.0, 120.0, 0.0, 0.0, 0.0, 1.645922797436223E9, 0.0, 2022-02-27 11:46:37.436
236.0, -1046.3969166752001, -3378.577933141939, -2360.500676691613, -9671.979805467106, -146.8062575824568, -33.90759633870081, -5128.7642274813925, -1898.356008333684, -3640.607433391504, -4912.958134765403, -3734.0600769591424, -2779.059443361693, -3057.4504205525427, -1893.8856594426227, -8236.573128291742, -15468.63650901753, 0.01484375, -0.1078125, 0.98834375, 192.0, 0.0, 0.0, 0.0, 0.0, 0.0, 0.0, 0.0, 0.0, 0.0, 1.645922797443786E9, 0.0, 2022-02-27 11:46:37.443
238.0, -685.9079821000079, -3106.8030723098605, -2034.5675390443255, -9315.983571527431, 219.44942706220473, 262.0965554829306, -4812.576450416619, -1480.7807184196377, -1114.9273651751716, -3969.870980962632, -3667.8542098825233, -2590.6118858589994, -3066.6816910125845, -1764.2902450907525, -7818.662562210866, -14357.017202021743, 0.01484375, -0.1078125, 0.98834375, 192.0, 0.0, 0.0, 0.0, 0.0, 0.0, 0.0, 0.0, 0.0, 0.0, 1.645922797450688E9, 0.0, 2022-02-27 11:46:37.450
240.0, -618.7186382673548, -3064.5135718004194, -2056.8745800107217, -9324.834862331732, 239.70010753871293, 196.538888995515, -4985.444842033964, -1727.9016051175124, -3391.184317014732, -4535.794798826551, -3506.3405044484743, -2647.43002026439, -2839.543263857754, -1670.368214889552, -8077.473411258867, -15120.597496103943, 0.01484375, -0.1078125, 0.98834375, 192.0, 0.0, 0.0, 0.0, 0.0, 0.0, 0.0, 0.0, 0.0, 0.0, 1.645922797458716E9, 0.0, 2022-02-27 11:46:37.458
242.0, -1017.8984424946836, -3354.482752619118, -2293.736016003611, -9609.797252392442, -98.12415815879801, 51.900750625223, -4986.182449600989, -1720.2573085137974, -2065.278835925917, -4524.663630087809, -3852.52432257227, -2726.3987334249896, -3225.759056301005, -1957.6998898625243, -8064.241178541324, -14952.422970822212, 0.01484375, -0.1078125, 0.98834375, 192.0, 0.0, 0.0, 0.0, 0.0, 0.0, 0.0, 0.0, 0.0, 0.0, 1.645922797465896E9, 0.0, 2022-02-27 11:46:37.465
244.0, -427.5665196855688, -2901.6811134435075, -1868.6952434414916, -9119.33292380964, 455.2156275767836, 372.4247661143263, -4792.012845517736, -1461.8264391215373, -1914.0245811968543, -4015.446187907003, -3483.4299663817847, -2560.3476238665135, -2870.120450272614, -1617.5286909972062, -7853.508931816689, -14495.39685194455, 0.012421874999999999, -0.10690625000000001, 0.9921718749999999, 192.0, 0.0, 40.0, 126.0, 88.0, 15.5, 16.0, 0.0, 0.0, 0.0, 1.645922797473516E9, 0.0, 2022-02-27 11:46:37.473
246.0, -1057.4833819250325, -3401.6896369087267, -2367.1838482837497, -9667.308290875948, -149.95785355065507, -30.845407348323747, -5131.915823449591, -1905.3074008592846, -3661.9980528352326, -4925.11748374909, -3739.558606095148, -2770.83400140214, -3067.978092190992, -1889.32590357374, -8243.792741750805, -15475.878474221048, 0.012421874999999999, -0.10690625000000001, 0.9921718749999999, 192.0, 0.0, 0.0, 0.0, 0.0, 0.0, 0.0, 0.0, 0.0, 0.0, 1.645922797481236E9, 0.0, 2022-02-27 11:46:37.481
