%OpenBCI Raw EEG Data
%Number of channels = 16
%Sample Rate = 125 Hz
%Board = OpenBCI_GUI$BoardCytonSerialDaisy
Sample Index, EXG Channel 0, EXG Channel 1, EXG Channel 2, EXG Channel 3, EXG Channel 4, EXG Channel 5, EXG Channel 6, EXG Channel 7, EXG Channel 8, EXG Channel 9, EXG Channel 10, EXG Channel 11, EXG Channel 12, EXG Channel 13, EXG Channel 14, EXG Channel 15, Accel Channel 0, Accel Channel 1, Accel Channel 2, Other, Other, Other, Other, Other, Other, Other, Analog Channel 0, Analog Channel 1, Analog Channel 2, Timestamp, Other, Timestamp (Formatted)
92.0, -551.551646179157, -3043.122952356691, -2045.6987077830684, -9356.641394691635, 268.4891543971484, 241.1306191838526, -4961.930806866981, -1612.9018798949576, -3261.588902662862, -4517.4663683732, -3462.0616986825107, -2707.3103436601573, -2954.63239605813, -1750.2309978283643, -8176.893970596072, -15155.689734898775, 0.0, 0.0, 0.0, 192.0, 0.0, 0.0, 0.0, 0.0, 0.0, 0.0, 0.0, 0.0, 0.0, 1.645922829044706E9, 0.0, 2022-02-27 11:47:09.044
94.0, -1017.8090355168624, -3400.1697182857656, -2341.9040253047974, -9704.479241905123, -143.76642033653502, 48.59269244583756, -5011.4846243243965, -1661.7851450187143, -2280.6155420083455, -4676.521381917165, -3839.1132758990857, -2816.811539746707, -3357.299072420487, -2063.9153795141438, -8225.777235719828, -15135.617868377909, 0.0, 0.0, 0.0, 192.0, 0.0, 0.0, 0.0, 0.0, 0.0, 0.0, 0.0, 0.0, 0.0, 1.645922829044708E9, 0.0, 2022-02-27 11:47:09.044
0.0, -245.10922969689724, -1504.7417884757267, -1003.6156777877425, -4648.6040530924865, 170.186182282708, 126.73439106159104, -2478.428480437813, -795.8785648201185, -1233.548072999486, -2095.9677810630537, -1704.6334391395378, -1318.708219374206, -1463.3240060000428, -846.4829142669338, -4016.4967198964027, -7390.738414614012, 0.006, -0.10200000000000001, 0.988, 192.0, 0.0, 24.0, 126.0, 104.0, 15.0, 112.0, 0.0, 0.0, 0.0, 1.645922829126419E9, 0.0, 2022-02-27 11:47:09.126
2.0, -1111.8651761847946, -3490.9401525187677, -2435.1555031723387, -9783.202085876714, -223.02570617505387, -45.82107613337948, -5123.757436723404, -1781.299922621241, -3274.262341769021, -4966.334100524677, -3830.9325374284435, -2901.5470029767757, -3290.8026326659483, -2090.1786792491293, -8341.335754553766, -15505.181611201957, 0.006, -0.10200000000000001, 0.988, 192.0, 0.0, 0.0, 0.0, 0.0, 0.0, 0.0, 0.0, 0.0, 0.0, 1.645922829132426E9, 0.0, 2022-02-27 11:47:09.132
4.0, -578.4407947588915, -3060.423202565098, -2008.8853846651775, -9307.467556889958, 303.5143379586146, 321.37338177840496, -4797.913706053938, -1352.8840366463705, -1285.4264718802538, -4005.0526267352852, -3612.243069677719, -2675.704977000353, -3140.3530407372764, -1831.4795889234053, -7928.655496675432, -14457.197720670429, 0.006, -0.10200000000000001, 0.988, 192.0, 0.0, 0.0, 0.0, 0.0, 0.0, 0.0, 0.0, 0.0, 0.0, 1.645922829138898E9, 0.0, 2022-02-27 11:47:09.138
6.0, -797.8231665877303, -3247.686117611661, -2236.2696810090165, -9549.93928074113, 54.448849493128, 101.65573378273652, -5078.942189090513, -1731.299070274719, -3778.1824205139187, -4806.787348602695, -3583.610485030471, -2815.381028101567, -3035.858635408716, -1866.0577375957655, -8282.885942803137, -15451.783293698229, 0.008, -0.10300000000000001, 0.989, 192.0, 0.0, 40.0, 126.0, 96.0, 15.0, 120.0, 0.0, 0.0, 0.0, 1.645922829147013E9, 0.0, 2022-02-27 11:47:09.147
8.0, -943.5565404363324, -3346.99491822659, -2276.3240070729266, -9610.557211703923, -41.19426503113092, 116.4749403566051, -4936.293355976743, -1526.6912015308383, -1625.1059323675554, -4411.250878721581, -3833.8382642076335, -2795.21975460288, -3340.42350535673, -2037.6967832680684, -8088.001082897316, -14829.622486784756, 0.008, -0.10300000000000001, 0.989, 192.0, 0.0, 0.0, 0.0, 0.0, 0.0, 0.0, 0.0, 0.0, 0.0, 1.645922829155062E9, 0.0, 2022-02-27 11:47:09.155
10.0, -437.7365634127335, -2959.1698001825575, -1948.3792124246613, -9228.722361173912, 407.6958188648008, 340.17119886531816, -4846.171122332946, -1437.6865551098056, -2453.5733406035115, -4236.594347547812, -3481.127736702888, -2690.479480085311, -2969.563361354275, -1743.8831024030571, -8034.267489226758, -14800.811088181865, 0.008, -0.10300000000000001, 0.989, 192.0, 0.0, 0.0, 0.0, 0.0, 0.0, 0.0, 0.0, 0.0, 0.0, 1.645922829168637E9, 0.0, 2022-02-27 11:47:09.168
12.0, -1113.653315741219, -3494.6952455872593, -2441.972785231207, -9785.817239977985, -215.2025956156964, -33.97465157206673, -5123.48921578994, -1773.946198695445, -3291.607295466339, -4971.31853953821, -3833.011249662787, -2902.351665777167, -3289.260362298532, -2081.997940778487, -8340.620498731196, -15504.712224568395, 0.008, -0.10300000000000001, 0.989, 192.0, 0.0, 0.0, 0.0, 0.0, 0.0, 0.0, 0.0, 0.0, 0.0, 1.645922829176725E9, 0.0, 2022-02-27 11:47:09.176
14.0, -580.8547831600646, -3067.106374157235, -2015.4791492794932, -9312.116719736663, 295.78063437707834, 320.5687189780139, -4796.2820287087, -1356.616777970407, -1276.8881054983265, -4015.9826297739305, -3615.3276104125516, -2679.393014835479, -3133.267537744944, -1831.3231267122183, -7923.604002428532, -14455.543691580737, 0.008, -0.10300000000000001, 0.989, 192.0, 0.0, 0.0, 0.0, 0.0, 0.0, 0.0, 0.0, 0.0, 0.0, 1.645922829184684E9, 0.0, 2022-02-27 11:47:09.184
16.0, -796.1020822646716, -3249.1166292568005, -2244.4280677352035, -9550.6545365637, 55.76760241599112, 98.92882095918905, -5084.7983461378035, -1733.9365761204454, -3767.990025042299, -4812.464691694342, -3581.8446972185016, -2816.744484513341, -3033.3552400297217, -1870.9527696314776, -8284.897599804115, -15447.089427362613, 0.01, -0.10350000000000001, 0.9884999999999999, 192.0, 0.0, 48.0, 126.0, 96.0, 15.0, 112.0, 0.0, 0.0, 0.0, 1.645922829191709E9, 0.0, 2022-02-27 11:47:09.191
18.0, -928.6255751401873, -3335.7296390211154, -2269.2608558250495, -9598.71078714261, -31.538311426438266, 124.11923696032012, -4943.401210713531, -1535.54249233514, -1596.1380715534774, -4407.87576530883, -3824.674048980957, -2790.8164609451846, -3333.0697814309337, -2031.7288674985014, -8089.02926314226, -14821.106472147283, 0.01, -0.10350000000000001, 0.9884999999999999, 192.0, 0.0, 0.0, 0.0, 0.0, 0.0, 0.0, 0.0, 0.0, 0.0, 1.645922829199247E9, 0.0, 2022-02-27 11:47:09.199
20.0, -432.41684823237046, -2954.25241640239, -1941.3160611767844, -9221.145119803563, 412.2555747336835, 344.23921635618404, -4845.634680466018, -1439.47469466623, -2453.8415615369754, -4234.940318458119, -3473.0811086989775, -2678.9906834352832, -2964.0648322182697, -1745.1348000925543, -8042.001192808294, -14807.203687096082, 0.01, -0.10350000000000001, 0.9884999999999999, 192.0, 0.0, 0.0, 0.0, 0.0, 0.0, 0.0, 0.0, 0.0, 0.0, 1.645922829207343E9, 0.0, 2022-02-27 11:47:09.207
22.0, -1110.009981395004, -3489.4202338958066, -2441.2128259197266, -9780.117545141882, -220.45525556269357, -32.14180852673156, -5137.6825735190605, -1763.7761549682803, -3319.4128655687414, -4980.46040302043, -3823.2435373358176, -2895.3555697626557, -3281.4372517391744, -2080.9474087890876, -8347.303670323334, -15513.429404905964, 0.01, -0.10350000000000001, 0.9884999999999999, 192.0, 0.0, 0.0, 0.0, 0.0, 0.0, 0.0, 0.0, 0.0, 0.0, 1.645922829215227E9, 0.0, 2022-02-27 11:47:09.215
24.0, -587.8061756856652, -3069.9673974475145, -2020.5306435263926, -9312.407292414582, 282.48134642617066, 314.35493401943853, -4816.130377785013, -1352.2134843127114, -1264.3487768588993, -4013.7251035839445, -3615.23820343473, -2676.397881078468, -3137.7155348915503, -1834.0276877913104, -7936.612717701521, -14455.543691580737, 0.01, -0.10350000000000001, 0.9884999999999999, 192.0, 0.0, 0.0, 0.0, 0.0, 0.0, 0.0, 0.0, 0.0, 0.0, 1.645922829221377E9, 0.0, 2022-02-27 11:47:09.221
26.0, -787.0272740158169, -3237.493722140041, -2232.894567596265, -9539.053981191395, 70.63151247877032, 92.69268425615839, -5078.562209434773, -1739.435105256451, -3750.8909405339887, -4796.237325219789, -3578.827211717035, -2809.5248710542764, -3026.470902737487, -1861.5426852157934, -8289.323245206268, -15438.52870923623, 0.013000000000000001, -0.10475000000000001, 0.98725, 192.0, 0.0, 64.0, 126.0, 88.0, 15.0, 104.0, 0.0, 0.0, 0.0, 1.645922829228948E9, 0.0, 2022-02-27 11:47:09.228
28.0, -936.0240025548939, -3336.2437291435876, -2276.4804692841135, -9601.549458688434, -47.20688428960852, 116.34082988987326, -4959.561521954718, -1540.929262748869, -1625.0612288786447, -4412.279058966525, -3833.435932807438, -2786.1449463540253, -3340.065877445445, -2033.9193384551215, -8101.210963870402, -14838.384370611237, 0.013000000000000001, -0.10475000000000001, 0.98725, 192.0, 0.0, 0.0, 0.0, 0.0, 0.0, 0.0, 0.0, 0.0, 0.0, 1.645922829236892E9, 0.0, 2022-02-27 11:47:09.236
30.0, -424.5713859285577, -2944.082372675225, -1939.550273364815, -9215.02074182281, 412.6355543894237, 340.7746959656115, -4857.235235838322, -1443.7885813461044, -2426.103046667939, -4215.2931350819035, -3478.5572860905277, -2675.034424666694, -2968.2893119203227, -1737.2446342998308, -8042.2694137417575, -14793.613826467255, 0.013000000000000001, -0.10475000000000001, 0.98725, 192.0, 0.0, 0.0, 0.0, 0.0, 0.0, 0.0, 0.0, 0.0, 0.0, 1.645922829244005E9, 0.0, 2022-02-27 11:47:09.244
32.0, -1101.2480975685237, -3477.0373674675666, -2437.2565671511375, -9779.514048041588, -223.56214804198123, -38.914387096689595, -5144.20928290001, -1799.4271873744951, -3312.5955835098725, -4962.713117922916, -3823.5117582692815, -2890.080558071203, -3281.7054726726383, -2074.8006790638783, -8353.070420392802, -15515.329303184666, 0.013000000000000001, -0.10475000000000001, 0.98725, 192.0, 0.0, 0.0, 0.0, 0.0, 0.0, 0.0, 0.0, 0.0, 0.0, 1.645922829251646E9, 0.0, 2022-02-27 11:47:09.251
34.0, -566.1920387973832, -3049.5826065042743, -2009.06419862082, -9307.422853401047, 280.60379989192484, 310.8010066510447, -4823.640563921996, -1376.934513680281, -1248.032003406525, -3988.512335838358, -3604.084682951532, -2661.735136715786, -3123.276307973422, -1831.4572371789502, -7929.23664203127, -14454.314345635696, 0.013000000000000001, -0.10475000000000001, 0.98725, 192.0, 0.0, 0.0, 0.0, 0.0, 0.0, 0.0, 0.0, 0.0, 0.0, 1.645922829259679E9, 0.0, 2022-02-27 11:47:09.259
36.0, -765.3460818941692, -3219.25469866451, -2223.1939105026618, -9530.895594465208, 61.75786993001341, 95.50900405752708, -5098.544668977817, -1746.6547187155152, -3739.759771795246, -4777.70772906634, -3568.5901127565044, -2792.4704900348775, -3014.8703473651826, -1861.0285950933214, -8286.797498082817, -15438.774578425238, 0.0145, -0.106375, 0.987625, 192.0, 0.0, 64.0, 126.0, 80.0, 15.0, 112.0, 0.0, 0.0, 0.0, 1.645922829267604E9, 0.0, 2022-02-27 11:47:09.267
38.0, -921.8529965702292, -3321.6927435031826, -2273.8206116939323, -9604.298723256436, -47.63156743425935, 107.98127746358843, -4973.374900028098, -1561.3364054365643, -1627.9669556578347, -4407.16050948626, -3827.1550926154964, -2774.0750043481594, -3335.9978599545793, -2045.0728589383198, -8103.870821460584, -14849.359077138792, 0.0145, -0.106375, 0.987625, 192.0, 0.0, 0.0, 0.0, 0.0, 0.0, 0.0, 0.0, 0.0, 0.0, 1.645922829274134E9, 0.0, 2022-02-27 11:47:09.274
40.0, -412.9708305562533, -2934.314660348256, -1933.2023779395079, -9217.233564523884, 409.4392549323148, 329.1294371043965, -4866.86883769856, -1455.992633818702, -2396.956371898219, -4207.1347483557165, -3467.44846909624, -2668.7312327302975, -2962.701375806496, -1749.627500728071, -8040.794198607708, -14795.06668985685, 0.0145, -0.106375, 0.987625, 192.0, 0.0, 0.0, 0.0, 0.0, 0.0, 0.0, 0.0, 0.0, 0.0, 1.645922829289268E9, 0.0, 2022-02-27 11:47:09.289
42.0, -1087.9711613620714, -3468.387242363363, -2431.489817081668, -9780.341062586434, -225.84202597642255, -48.65974767920348, -5150.40071611413, -1794.979190227889, -3329.337040106898, -4965.194161557456, -3809.7654354292677, -2885.118470802125, -3270.4401934671637, -2079.5616006328587, -8355.260891349422, -15529.254439980323, 0.0145, -0.106375, 0.987625, 192.0, 0.0, 0.0, 0.0, 0.0, 0.0, 0.0, 0.0, 0.0, 0.0, 1.645922829297289E9, 0.0, 2022-02-27 11:47:09.297
44.0, -562.8169253846319, -3043.055897123325, -2014.9427074125658, -9313.904859293087, 285.3200179719947, 300.67566641279063, -4820.108988298058, -1378.767356725616, -1235.492674767098, -3989.3169986387493, -3600.217831160764, -2658.494133769767, -3124.0362672849024, -1836.4863796813943, -7931.471816476801, -14458.449418359927, 0.0145, -0.106375, 0.987625, 192.0, 0.0, 0.0, 0.0, 0.0, 0.0, 0.0, 0.0, 0.0, 0.0, 1.64592282930389E9, 0.0, 2022-02-27 11:47:09.303
46.0, -747.867017730119, -3204.4578438350973, -2223.0374482914744, -9526.760521740976, 71.01149213451053, 95.9113354577226, -5099.9975323674125, -1741.6702797019816, -3719.2185186408187, -4763.939054481871, -3552.9885951267, -2786.547277754221, -3006.600201916719, -1855.84299037969, -8281.008396268893, -15433.76778766725, 0.01425, -0.10618749999999999, 0.9848125, 192.0, 0.0, 56.0, 126.0, 88.0, 15.0, 88.0, 0.0, 0.0, 0.0, 1.645922829313317E9, 0.0, 2022-02-27 11:47:09.313
48.0, -913.0464092548382, -3316.976525423113, -2275.0052541500636, -9605.908048857218, -51.14079131374256, 102.75096926104656, -4983.053205377246, -1563.6833386043716, -1627.4752172798178, -4407.406378675268, -3816.493310510315, -2772.868010147573, -3329.1805778957105, -2039.8649024802332, -8105.010760427805, -14853.002411485008, 0.01425, -0.10618749999999999, 0.9848125, 192.0, 0.0, 0.0, 0.0, 0.0, 0.0, 0.0, 0.0, 0.0, 0.0, 1.645922829320099E9, 0.0, 2022-02-27 11:47:09.320
50.0, -402.80078682908857, -2923.474064287432, -1934.1858546955414, -9215.87010811211, 418.3576009699823, 335.4326290407931, -4851.602596235585, -1451.7234506277384, -2383.6123804584004, -4199.758672685465, -3460.0053381926227, -2663.5679797611215, -2960.06386996077, -1742.363183780096, -8036.4579601833775, -14789.54580897639, 0.01425, -0.10618749999999999, 0.9848125, 192.0, 0.0, 0.0, 0.0, 0.0, 0.0, 0.0, 0.0, 0.0, 0.0, 1.645922829327059E9, 0.0, 2022-02-27 11:47:09.327
52.0, -1085.8700973832724, -3464.095707427944, -2439.424686363302, -9783.760879488096, -219.40472357329412, -44.97170984407781, -5149.30548063582, -1789.0559779472326, -3334.589700053895, -4968.278702292288, -3804.557478971181, -2885.3196365022227, -3269.8590481113256, -2075.895914542188, -8352.958661670526, -15528.226259735378, 0.01425, -0.10618749999999999, 0.9848125, 192.0, 0.0, 0.0, 0.0, 0.0, 0.0, 0.0, 0.0, 0.0, 0.0, 1.645922829334517E9, 0.0, 2022-02-27 11:47:09.334
54.0, -575.5350679797016, -3056.7128129855173, -2022.9669836720211, -9323.22553673095, 280.6485033808355, 297.5240704445923, -4817.136206285501, -1380.5107927931301, -1224.6744304507292, -3999.55409759928, -3604.464662607272, -2664.640863494976, -3131.077066788324, -1843.7954001182795, -7930.197767042848, -14455.342525880638, 0.01425, -0.10618749999999999, 0.9848125, 192.0, 0.0, 0.0, 0.0, 0.0, 0.0, 0.0, 0.0, 0.0, 0.0, 1.645922829341413E9, 0.0, 2022-02-27 11:47:09.341
56.0, -747.3752793521022, -3204.971933957569, -2220.7128668681225, -9527.721646752554, 73.00079739103286, 88.42350106519474, -5091.0791863297445, -1735.3447360211296, -3710.9260214479, -4773.416194130921, -3557.0342608731107, -2794.951533669416, -3014.5127194538977, -1867.0635660962544, -8276.78391656684, -15430.81735739915, 0.015125, -0.10609374999999999, 0.98540625, 192.0, 0.0, 64.0, 126.0, 88.0, 15.0, 104.0, 0.0, 0.0, 0.0, 1.645922829349553E9, 0.0, 2022-02-27 11:47:09.349
58.0, -933.855883342729, -3333.0921331753893, -2293.110167158862, -9619.877889141786, -59.4779919955721, 91.21746912210813, -4975.431260517987, -1560.0400042581564, -1667.8648195105577, -4436.396591233801, -3829.814950205678, -2784.200344586414, -3341.8540170018696, -2056.069917210331, -8111.582173297665, -14875.577673384867, 0.015125, -0.10609374999999999, 0.98540625, 192.0, 0.0, 0.0, 0.0, 0.0, 0.0, 0.0, 0.0, 0.0, 0.0, 1.645922829356125E9, 0.0, 2022-02-27 11:47:09.356
60.0, -400.9455920392981, -2920.1883578525017, -1937.6950785750246, -9213.031436566287, 425.6442696624124, 334.7620767071339, -4869.8416197111155, -1454.2044942622774, -2341.792266582521, -4192.673169693133, -3468.3648906189073, -2663.1432966164707, -2970.5915415992195, -1750.208646083909, -8033.01579153726, -14776.671204170134, 0.015125, -0.10609374999999999, 0.98540625, 192.0, 0.0, 0.0, 0.0, 0.0, 0.0, 0.0, 0.0, 0.0, 0.0, 1.645922829364128E9, 0.0, 2022-02-27 11:47:09.364
62.0, -1078.6728356686635, -3458.574826547483, -2440.564625330523, -9779.73756548614, -222.26574686357344, -47.51980871198282, -5163.610597087217, -1798.331951896185, -3371.425374916241, -4974.246618061855, -3797.1590515564744, -2879.016444565826, -3265.545161431451, -2074.8453825527886, -8363.620443775708, -15542.285506997767, 0.015125, -0.10609374999999999, 0.98540625, 192.0, 0.0, 0.0, 0.0, 0.0, 0.0, 0.0, 0.0, 0.0, 0.0, 1.645922829372137E9, 0.0, 2022-02-27 11:47:09.372
64.0, -580.1171755930395, -3054.812914706816, -2026.9232424406105, -9327.114740266174, 276.4016719343271, 300.78742513506717, -4825.719276156339, -1380.063757904024, -1211.4645494776428, -4005.097330224196, -3608.756197542691, -2664.3055873281464, -3147.3491367517877, -1859.1286968146203, -7939.451389247345, -14464.819665529689, 0.015125, -0.10609374999999999, 0.98540625, 192.0, 0.0, 0.0, 0.0, 0.0, 0.0, 0.0, 0.0, 0.0, 0.0, 1.64592282937916E9, 0.0, 2022-02-27 11:47:09.379
66.0, -731.997279166851, -3191.650294262206, -2202.8761747927874, -9512.164832611661, 99.06293142592091, 106.57311756290407, -5086.832354883237, -1722.470131214873, -3690.6753409713915, -4757.635862545474, -3548.473542746728, -2785.094414364626, -3005.728483882962, -1866.460068995961, -8275.375756666155, -15416.601647925574, 0.0165625, -0.10704687499999999, 0.985703125, 192.0, 0.0, 72.0, 126.0, 80.0, 15.0, 104.0, 0.0, 0.0, 0.0, 1.645922829386661E9, 0.0, 2022-02-27 11:47:09.386
68.0, -944.5623689368211, -3346.7937525264924, -2296.507632316069, -9634.585336993377, -66.47408801008321, 86.7247684865914, -4980.058071620235, -1574.4792311762849, -1725.755837649803, -4465.163286347782, -3833.9723746743653, -2789.9223911669724, -3340.6023193123724, -2072.0737662403308, -8124.054446703726, -14904.567885943401, 0.0165625, -0.10704687499999999, 0.985703125, 192.0, 0.0, 0.0, 0.0, 0.0, 0.0, 0.0, 0.0, 0.0, 0.0, 1.645922829394737E9, 0.0, 2022-02-27 11:47:09.394
70.0, -406.980563042231, -2929.084352145714, -1934.7670000513795, -9212.897326099555, 419.25167074819456, 344.0380506560863, -4851.133209602023, -1421.9956305021801, -2294.048940425985, -4180.983207343007, -3468.2754836410863, -2661.846895438063, -2967.8422770312163, -1758.9928816548445, -8022.331657687624, -14755.414695193136, 0.0165625, -0.10704687499999999, 0.985703125, 192.0, 0.0, 0.0, 0.0, 0.0, 0.0, 0.0, 0.0, 0.0, 0.0, 1.645922829402915E9, 0.0, 2022-02-27 11:47:09.402
72.0, -1084.7301584160518, -3462.9781202051786, -2437.413029362325, -9778.687033496743, -212.0062961585875, -43.787067387946536, -5160.4590011190185, -1802.7352455538805, -3387.8539070908914, -4979.812202431226, -3795.4379672334157, -2883.866773112628, -3262.259454996521, -2084.5683913908474, -8360.357089085233, -15543.112521542613, 0.0165625, -0.10704687499999999, 0.985703125, 192.0, 0.0, 0.0, 0.0, 0.0, 0.0, 0.0, 0.0, 0.0, 0.0, 1.645922829416356E9, 0.0, 2022-02-27 11:47:09.416
74.0, -588.1861553414053, -3061.6749002545957, -2029.2478238639624, -9326.958278054986, 278.05570102401987, 296.60764892192475, -4841.76782867525, -1379.9967026706581, -1207.8882703647937, -4004.940868013009, -3608.532680098138, -2660.796363448663, -3145.2033692840782, -1860.2686357818409, -7937.663249690921, -14463.545616095736, 0.0165625, -0.10704687499999999, 0.985703125, 192.0, 0.0, 0.0, 0.0, 0.0, 0.0, 0.0, 0.0, 0.0, 0.0, 1.645922829424376E9, 0.0, 2022-02-27 11:47:09.424
76.0, -730.0079739103287, -3189.7727477279604, -2201.7809393144776, -9508.409739543169, 92.7150360006137, 111.31168738742917, -5089.827488640248, -1734.8753493875683, -3686.7637856917127, -4751.980871198281, -3548.8758741469237, -2786.4355190319443, -3006.667257150085, -1868.9634643749553, -8274.459335143487, -15415.059377558158, 0.016, -0.11, 0.988, 192.0, 0.0, 64.0, 126.0, 72.0, 15.0, 112.0, 0.0, 0.0, 0.0, 1.645922829432468E9, 0.0, 2022-02-27 11:47:09.432
78.0, -954.5312469638881, -3351.2417496730986, -2300.732112018122, -9635.389999793768, -77.24762883754121, 94.41376857921703, -4993.714987482427, -1574.7027486208378, -1742.8772739025683, -4476.495620786622, -3839.0238689212647, -2797.03024590376, -3347.352546137875, -2080.209801222062, -8130.469397362399, -14913.106252325328, 0.016, -0.11, 0.988, 192.0, 0.0, 0.0, 0.0, 0.0, 0.0, 0.0, 0.0, 0.0, 0.0, 1.645922829438988E9, 0.0, 2022-02-27 11:47:09.438
80.0, -415.3401154685158, -2934.2699568593453, -1933.939985506533, -9210.572744676203, 410.1321590104293, 345.04387915657514, -4854.128343359035, -1416.4300461328085, -2281.420204808737, -4179.060957319851, -3477.6855680567705, -2668.351253074557, -2979.7110533369846, -1766.748936980836, -8024.276259455235, -14744.663506110133, 0.016, -0.11, 0.988, 192.0, 0.0, 0.0, 0.0, 0.0, 0.0, 0.0, 0.0, 0.0, 0.0, 1.645922829446977E9, 0.0, 2022-02-27 11:47:09.446
82.0, -1082.137356059236, -3465.794440006547, -2433.210901404727, -9774.864885194884, -218.84592996191145, -43.89882611022307, -5159.743745296449, -1803.8304810321906, -3414.8324626484473, -4984.84134493367, -3798.947191112899, -2887.7112731589405, -3261.9241788296913, -2088.904629815177, -8361.720545497006, -15546.442931466454, 0.016, -0.11, 0.988, 192.0, 0.0, 0.0, 0.0, 0.0, 0.0, 0.0, 0.0, 0.0, 0.0, 1.645922829455068E9, 0.0, 2022-02-27 11:47:09.455
84.0, -596.1210246230394, -3071.397909092654, -2027.7949604743674, -9332.65797289109, 262.7000525832239, 297.8593466114219, -4837.453941995375, -1377.0686241470128, -1196.2877149924893, -4007.1983942029947, -3615.662886579381, -2665.2220088508143, -3144.041078572402, -1865.1860195620084, -7932.835272888574, -14462.875063762078, 0.016, -0.11, 0.988, 192.0, 0.0, 0.0, 0.0, 0.0, 0.0, 0.0, 0.0, 0.0, 0.0, 1.645922829462032E9, 0.0, 2022-02-27 11:47:09.462
86.0, -721.6707732284991, -3189.6386372612283, -2187.341712396349, -9500.519573750445, 110.57407982040404, 119.44772236916094, -5082.429061225541, -1727.9239568619678, -3669.9329221168664, -4746.191769384357, -3547.579472968516, -2789.832984189151, -3000.49817568042, -1870.1257550866312, -8267.038555984325, -15399.793136095184, 0.016, -0.106, 0.988, 192.0, 0.0, 64.0, 126.0, 88.0, 15.0, 112.0, 0.0, 0.0, 0.0, 1.645922829468689E9, 0.0, 2022-02-27 11:47:09.468
88.0, -954.4418399860668, -3360.383613155319, -2296.507632316069, -9638.228671339593, -72.82198343539041, 83.81904170740148, -4990.786908958782, -1576.8261643440921, -1758.6352537435596, -4486.799774980518, -3833.9053194409994, -2798.9524959269165, -3341.8540170018696, -2086.021254780442, -8129.932955495472, -14924.550345486445, 0.016, -0.106, 0.988, 192.0, 0.0, 0.0, 0.0, 0.0, 0.0, 0.0, 0.0, 0.0, 0.0, 1.645922829476681E9, 0.0, 2022-02-27 11:47:09.476
90.0, -410.60154564399073, -2936.728648749429, -1927.748552292413, -9212.494994699358, 416.54710966910244, 349.6483385143684, -4849.814456679161, -1418.4640548782415, -2260.7224894431224, -4178.837439875298, -3466.6885097847594, -2668.3065495856467, -2970.524486365853, -1767.911227692512, -8018.174233218937, -14741.243689208472, 0.016, -0.106, 0.988, 192.0, 0.0, 0.0, 0.0, 0.0, 0.0, 0.0, 0.0, 0.0, 0.0, 1.645922829484763E9, 0.0, 2022-02-27 11:47:09.484
92.0, -1086.9429811171271, -3470.1306784308767, -2435.423724105802, -9778.955254430206, -218.77887472854553, -41.820113875879514, -5160.727222052482, -1801.6400100755704, -3414.988924859634, -4984.349606555654, -3796.600257945092, -2889.2311917819015, -3262.237103252066, -2091.9444670610987, -8361.742897241462, -15547.582870433675, 0.016, -0.106, 0.988, 192.0, 0.0, 0.0, 0.0, 0.0, 0.0, 0.0, 0.0, 0.0, 0.0, 1.64592282949123E9, 0.0, 2022-02-27 11:47:09.491
94.0, -589.9295914089194, -3064.8264962227936, -2029.7619139864344, -9334.021429302864, 262.2977211830284, 301.8379571244666, -4835.732857672317, -1378.968522425714, -1196.6900463926847, -4002.482176122925, -3612.243069677719, -2661.511619271233, -3144.3540029947762, -1864.5601707172598, -7934.355191511535, -14458.225900915373, 0.016, -0.106, 0.988, 192.0, 0.0, 0.0, 0.0, 0.0, 0.0, 0.0, 0.0, 0.0, 0.0, 1.645922829499294E9, 0.0, 2022-02-27 11:47:09.499
96.0, -717.5357005042673, -3180.4744220345524, -2192.3261514098826, -9502.017140628952, 113.6362688107811, 131.3835539082949, -5085.223029282454, -1711.0930932871215, -3660.3216720010846, -4734.635917500963, -3538.728182164214, -2779.640588717531, -3000.9899140584366, -1843.9965658183773, -8265.228064683446, -15393.489944158788, 0.016, -0.108, 0.986, 192.0, 0.0, 64.0, 126.0, 80.0, 15.0, 104.0, 0.0, 0.0, 0.0, 1.645922829507327E9, 0.0, 2022-02-27 11:47:09.507
98.0, -948.116296305215, -3345.944386237191, -2292.372559591837, -9636.418180038712, -68.50809675551615, 93.29618135645168, -4988.395272302065, -1563.1468967374442, -1730.6508696855153, -4470.080670127949, -3830.3066885836947, -2794.8397749471396, -3340.401153612275, -2076.991150020498, -8125.931993237972, -14909.373511001291, 0.016, -0.108, 0.986, 192.0, 0.0, 0.0, 0.0, 0.0, 0.0, 0.0, 0.0, 0.0, 0.0, 1.645922829514266E9, 0.0, 2022-02-27 11:47:09.514
100.0, -408.05344677608576, -2934.96286093746, -1924.7981220243123, -9212.942029588465, 425.46545570676994, 348.53075129160305, -4850.172084590446, -1429.5058166391632, -2265.6398732232897, -4181.050262576373, -3471.4717830981954, -2670.2064478643474, -2974.1007654787027, -1773.8120882287133, -8020.699980342386, -14750.072628268317, 0.016, -0.108, 0.986, 192.0, 0.0, 0.0, 0.0, 0.0, 0.0, 0.0, 0.0, 0.0, 0.0, 1.645922829521942E9, 0.0, 2022-02-27 11:47:09.521
102.0, -1079.6339606802417, -3464.766259761603, -2431.0651339370174, -9777.010652662595, -210.32991532443947, -38.73557314104714, -5161.800105786337, -1794.979190227889, -3457.25607362462, -4991.502164781352, -3791.1240805535417, -2888.7171016594293, -3251.0835827688675, -2087.2058972365735, -8360.357089085233, -15566.000707864847, 0.016, -0.108, 0.986, 192.0, 0.0, 0.0, 0.0, 0.0, 0.0, 0.0, 0.0, 0.0, 0.0, 1.645922829536948E9, 0.0, 2022-02-27 11:47:09.536
104.0, -599.9431729248969, -3078.3493016182547, -2029.3372308417836, -9344.482045707948, 253.93816875674355, 294.9089163433214, -4838.415067006954, -1373.872324689904, -1191.683255634696, -4013.2110134614727, -3622.3237064270625, -2668.418308307923, -3155.6192822002513, -1871.13158358712, -7932.298831021647, -14468.686517320457, 0.016, -0.108, 0.986, 192.0, 0.0, 0.0, 0.0, 0.0, 0.0, 0.0, 0.0, 0.0, 0.0, 1.645922829544022E9, 0.0, 2022-02-27 11:47:09.544
106.0, -707.9691538773959, -3181.3684918127647, -2177.19402041364, -9496.7421289375, 120.09592295836485, 132.5458446199709, -5072.169610520556, -1694.3516366900965, -3634.8406833220347, -4728.399780797932, -3533.4308187283063, -2784.200344586414, -2990.953980798004, -1858.3463857586844, -8253.426343611043, -15382.314071931134, 0.016, -0.108, 0.99, 192.0, 0.0, 64.0, 126.0, 80.0, 15.0, 120.0, 0.0, 0.0, 0.0, 1.645922829551689E9, 0.0, 2022-02-27 11:47:09.551
108.0, -962.019081356416, -3365.6362731023164, -2298.1616614057616, -9644.151883620249, -68.75396594452452, 89.83166096587908, -4974.358376784132, -1564.890332804958, -1772.135707394565, -4488.543211048032, -3837.1463223870187, -2805.79212973024, -3344.1562466807663, -2082.5343826454146, -8123.853281003629, -14928.998342633051, 0.016, -0.108, 0.99, 192.0, 0.0, 0.0, 0.0, 0.0, 0.0, 0.0, 0.0, 0.0, 0.0, 1.645922829559486E9, 0.0, 2022-02-27 11:47:09.559
110.0, -414.08841777901864, -2942.7189162634513, -1921.3783051226503, -9213.500823199847, 440.01644134717486, 351.3917745818823, -4833.251814037778, -1417.99466824468, -2229.698268139156, -4174.344739239781, -3475.83037326698, -2677.1801921344036, -2970.9044660215936, -1766.0336811582663, -8003.645599322987, -14734.404055405148, 0.016, -0.108, 0.99, 192.0, 0.0, 0.0, 0.0, 0.0, 0.0, 0.0, 0.0, 0.0, 0.0, 1.645922829567551E9, 0.0, 2022-02-27 11:47:09.567
112.0, -1093.2461730535238, -3475.83037326698, -2429.724029269699, -9779.067013152482, -203.2220605876518, -37.08154405135442, -5143.002288699423, -1784.339759867163, -3459.4018410923295, -4995.436071805486, -3789.715920652857, -2890.8405173826836, -3246.5461786444403, -2082.713196601057, -8350.410562802621, -15561.195082806957, 0.016, -0.108, 0.99, 192.0, 0.0, 0.0, 0.0, 0.0, 0.0, 0.0, 0.0, 0.0, 0.0, 1.645922829574295E9, 0.0, 2022-02-27 11:47:09.574
114.0, -619.6350597900224, -3094.889592515182, -2035.4392570780824, -9343.56562418528, 265.7398898291457, 306.6212304379023, -4811.771787616228, -1358.5613797380186, -1188.6881218776848, -4017.5696036302575, -3625.698819839814, -2673.7156717438306, -3147.1926745406004, -1865.744813173391, -7918.28428724817, -14454.984897969354, 0.016, -0.108, 0.99, 192.0, 0.0, 0.0, 0.0, 0.0, 0.0, 0.0, 0.0, 0.0, 0.0, 1.645922829582108E9, 0.0, 2022-02-27 11:47:09.582
116.0, -736.2441106133593, -3208.30234388141, -2178.9151047366986, -9493.434070758114, 136.993841766577, 141.71005984664677, -5055.450505667985, -1687.9590377758789, -3641.859131081001, -4735.217062856801, -3543.4444002442838, -2791.3305510676564, -2993.4573761769984, -1852.1102490556539, -8242.630451039131, -15373.507484615742, 0.014, -0.10200000000000001, 0.992, 192.0, 0.0, 56.0, 126.0, 104.0, 15.5, 0.0, 0.0, 0.0, 0.0, 1.645922829589234E9, 0.0, 2022-02-27 11:47:09.589
118.0, -997.5136515514436, -3402.986038087134, -2298.0946061723957, -9640.888528929774, -66.25057056553014, 100.6499052822477, -4967.742260425361, -1553.6921088328493, -1792.7663675268136, -4507.475138601678, -3852.4125638499936, -2814.1740339009802, -3343.8880257473024, -2074.375995919227, -8118.667676289997, -14927.567830987911, 0.014, -0.10200000000000001, 0.992, 192.0, 0.0, 0.0, 0.0, 0.0, 0.0, 0.0, 0.0, 0.0, 0.0, 1.645922829596243E9, 0.0, 2022-02-27 11:47:09.596
120.0, -455.7297176992557, -2988.2270679744565, -1920.2383661554297, -9209.835137109178, 442.31867102607146, 364.2663793881392, -4821.852424365571, -1391.8431272319708, -2242.8634456233317, -4179.1950677865825, -3485.8216030385024, -2679.1918491353813, -2970.9268177660488, -1756.2212653423865, -7997.387110875501, -14722.490575610469, 0.014, -0.10200000000000001, 0.992, 192.0, 0.0, 0.0, 0.0, 0.0, 0.0, 0.0, 0.0, 0.0, 0.0, 1.645922829603903E9, 0.0, 2022-02-27 11:47:09.603
122.0, -1151.494819104054, -3542.1703508103315, -2431.0874856814726, -9781.190428875736, -192.58263022692566, -33.5499684274159, -5145.058649189312, -1791.626428559593, -3511.7496266066587, -5017.988981960891, -3801.718807425357, -2906.2632210568454, -3238.097219240334, -2072.4313941516157, -8348.197740101545, -15565.084286342179, 0.014, -0.10200000000000001, 0.992, 192.0, 0.0, 0.0, 0.0, 0.0, 0.0, 0.0, 0.0, 0.0, 0.0, 1.645922829611916E9, 0.0, 2022-02-27 11:47:09.611
124.0, -710.7854736787646, -3188.6104570162843, -2045.385783360694, -9349.734705654944, 265.5387241290479, 302.9555443472319, -4806.206203246857, -1352.2805395460773, -1220.651116448774, -4039.1837405185393, -3652.073878297076, -2692.2452678972804, -3154.9487298665917, -1861.9003131270783, -7919.200708770837, -14458.628232315568, 0.014, -0.10200000000000001, 0.992, 192.0, 0.0, 0.0, 0.0, 0.0, 0.0, 0.0, 0.0, 0.0, 0.0, 1.645922829619849E9, 0.0, 2022-02-27 11:47:09.619
126.0, -837.7210304404534, -3316.2165661116323, -2188.7945757859443, -9492.897628891185, 141.88887380228923, 147.29799596047354, -5050.533121887818, -1687.5343546312279, -3678.113660587509, -4755.311281122123, -3573.798069214591, -2811.0447896772375, -3001.5710594142747, -1844.778876874313, -8242.563395805764, -15366.846664768062, 0.01, -0.10400000000000001, 0.988, 192.0, 0.0, 40.0, 126.0, 96.0, 15.0, 112.0, 0.0, 0.0, 0.0, 1.645922829626541E9, 0.0, 2022-02-27 11:47:09.626
128.0, -1135.0886386738587, -3546.3724787679294, -2318.0100104820744, -9653.159636635737, -64.64124496474803, 102.16982390520859, -4953.861827118615, -1553.2227221992878, -1862.5485137162823, -4554.749078124652, -3889.739977090356, -2847.9698715174045, -3355.779153797526, -2075.6947488420906, -8126.915469994005, -14932.99930489055, 0.01, -0.10400000000000001, 0.988, 192.0, 0.0, 0.0, 0.0, 0.0, 0.0, 0.0, 0.0, 0.0, 0.0, 1.645922829634422E9, 0.0, 2022-02-27 11:47:09.634
130.0, -600.7925392141985, -3138.81077036986, -1936.3986773966167, -9216.026570323298, 444.9338251273424, 368.69202479029, -4813.358761472555, -1399.9791622137025, -2275.3628820613485, -4216.768350215954, -3529.340449492985, -2715.804006553174, -2983.6673121055737, -1756.6459484870375, -7999.756395787764, -14716.05327320734, 0.01, -0.10400000000000001, 0.988, 192.0, 0.0, 0.0, 0.0, 0.0, 0.0, 0.0, 0.0, 0.0, 0.0, 1.645922829642514E9, 0.0, 2022-02-27 11:47:09.642
132.0, -1295.7529778186058, -3693.424605539394, -2451.1817039467937, -9785.50431555561, -193.56610698295916, -25.48098867905005, -5136.386172340653, -1767.687710247959, -3583.9010577083895, -5056.903369057581, -3848.1210289145747, -2941.3778115961327, -3248.9601670456136, -2064.9435597590877, -8354.70209773804, -15566.60420496514, 0.01, -0.10400000000000001, 0.988, 192.0, 0.0, 0.0, 0.0, 0.0, 0.0, 0.0, 0.0, 0.0, 0.0, 1.645922829649693E9, 0.0, 2022-02-27 11:47:09.649
134.0, -841.9231583980511, -3325.1796156382106, -2063.3789376472164, -9361.603481960712, 264.93522702875464, 312.8797188853883, -4792.61634261803, -1332.0745625584798, -1270.2272856506452, -4088.0446538978404, -3703.0582073996316, -2735.451189929389, -3170.9525788965916, -1862.3696997606398, -7923.358133239524, -14455.588395069648, 0.01, -0.10400000000000001, 0.988, 192.0, 0.0, 0.0, 0.0, 0.0, 0.0, 0.0, 0.0, 0.0, 0.0, 1.645922829664163E9, 0.0, 2022-02-27 11:47:09.664
136.0, -915.3486389337348, -3395.431148461241, -2189.2639624195053, -9490.55069572338, 161.22313275612984, 172.4884119616046, -5026.080313453712, -1660.7346130293147, -3703.438187055372, -4783.586237858086, -3608.063293464577, -2846.89698778355, -3003.694475137529, -1832.3066034682518, -8237.780122492328, -15354.530853573187, 0.018000000000000002, -0.106, 0.984, 192.0, 0.0, 72.0, 126.0, 88.0, 15.0, 96.0, 0.0, 0.0, 0.0, 1.645922829672203E9, 0.0, 2022-02-27 11:47:09.672
138.0, -1194.0301888025033, -3596.1051101809876, -2332.3821821668366, -9666.973014709118, -70.9220851566893, 100.53814655997117, -4951.045507317246, -1558.1624577239106, -1932.1518459501085, -4589.461337263744, -3913.7681023798114, -2875.6860346419853, -3358.5731218544393, -2076.3653011757497, -8132.0787229631815, -14954.4793313121, 0.018000000000000002, -0.106, 0.984, 192.0, 0.0, 0.0, 0.0, 0.0, 0.0, 0.0, 0.0, 0.0, 0.0, 1.645922829679222E9, 0.0, 2022-02-27 11:47:09.679
140.0, -605.1287776385282, -3132.753447622472, -1943.1489042221194, -9215.311314500728, 440.2176070472726, 385.7911092985999, -4808.1508050144685, -1361.2212373282, -2241.432933978192, -4210.040475134906, -3544.8078566560575, -2724.7670560797524, -2991.468070920476, -1744.978337881367, -7991.441546850389, -14692.650996762633, 0.018000000000000002, -0.106, 0.984, 192.0, 0.0, 0.0, 0.0, 0.0, 0.0, 0.0, 0.0, 0.0, 0.0, 1.64592282968681E9, 0.0, 2022-02-27 11:47:09.686
142.0, -1253.7540499870838, -3644.608395649004, -2447.4042591338466, -9775.781306717552, -187.30761853547318, -11.220575716564145, -5121.499910533418, -1773.2532946173305, -3609.4938051097165, -5052.544778888796, -3838.8003514767115, -2935.3875440821107, -3244.422762921186, -2058.5733125893253, -8355.08207739378, -15562.759704918828, 0.018000000000000002, -0.106, 0.984, 192.0, 0.0, 0.0, 0.0, 0.0, 0.0, 0.0, 0.0, 0.0, 0.0, 1.64592282969478E9, 0.0, 2022-02-27 11:47:09.694
144.0, -788.9495240389734, -3260.672481140194, -2066.3517196597722, -9361.916406383087, 253.28996816753963, 310.3763235063939, -4781.798098301661, -1350.067716845002, -1240.8347416919162, -4084.0213398958854, -3695.7715387072017, -2719.8273205551295, -3174.908837665181, -1873.1879440770083, -7931.605926943533, -14465.154941696519, 0.018000000000000002, -0.106, 0.985, 192.0, 0.0, 72.0, 126.0, 88.0, 15.0, 104.0, 0.0, 0.0, 0.0, 1.645922829701913E9, 0.0, 2022-02-27 11:47:09.701
146.0, -838.1904170740148, -3316.5071387895514, -2178.9151047366986, -9479.553637451369, 155.18816175319694, 170.5438101939929, -5014.300944125765, -1656.9571682163678, -3645.3907067049395, -4742.324917593589, -3577.1955343717977, -2815.9398217129497, -2994.1055767662024, -1832.910100568545, -8231.096950900192, -15336.381237075477, 0.018000000000000002, -0.106, 0.985, 192.0, 0.0, 0.0, 0.0, 0.0, 0.0, 0.0, 0.0, 0.0, 0.0, 1.645922829709402E9, 0.0, 2022-02-27 11:47:09.709
148.0, -1105.0925976148364, -3503.7253503472034, -2324.022629740552, -9655.618328525821, -72.7772799464798, 98.68295177018068, -4959.405059743531, -1565.180905482877, -1908.5260520608488, -4569.344767253968, -3890.5669916352026, -2842.381935403578, -3355.801505541981, -2074.375995919227, -8138.158397455025, -14958.502645314056, 0.018000000000000002, -0.106, 0.985, 192.0, 0.0, 0.0, 0.0, 0.0, 0.0, 0.0, 0.0, 0.0, 0.0, 1.64592282971636E9, 0.0, 2022-02-27 11:47:09.716
150.0, -524.0142970102188, -3054.120010628702, -1934.1187994621755, -9206.460023696425, 438.2506535352056, 376.96217023875363, -4804.842746835083, -1378.745004981161, -2212.8450528198546, -4184.000692844474, -3518.209280754242, -2689.9877417072944, -2987.824736574261, -1753.427297285473, -7997.0741864531265, -14698.86478172121, 0.018000000000000002, -0.106, 0.985, 192.0, 0.0, 0.0, 0.0, 0.0, 0.0, 0.0, 0.0, 0.0, 0.0, 1.645922829725872E9, 0.0, 2022-02-27 11:47:09.725
152.0, -1175.9699792826152, -3575.3626913264625, -2438.1506369293497, -9776.943597429228, -188.0005226135877, -24.989250301033294, -5137.280242118864, -1793.0569402047327, -3586.7173775097585, -5032.070580967735, -3813.56523198667, -2909.4148170250437, -3237.650184351228, -2057.187504433096, -8356.512589038919, -15575.388440536075, 0.018000000000000002, -0.106, 0.985, 192.0, 0.0, 0.0, 0.0, 0.0, 0.0, 0.0, 0.0, 0.0, 0.0, 1.645922829731919E9, 0.0, 2022-02-27 11:47:09.731
154.0, -715.4569882699237, -3189.996265172513, -2061.1661149461406, -9363.99511861743, 245.13158144135255, 297.21114602221803, -4816.66681965194, -1378.7897084700714, -1208.424712231721, -4053.220636036472, -3667.675395926881, -2700.6942273013865, -3173.1654015976674, -1867.2423800518968, -7932.388237999468, -14470.072325476685, 0.017, -0.10500000000000001, 0.9864999999999999, 192.0, 0.0, 64.0, 126.0, 96.0, 15.0, 112.0, 0.0, 0.0, 0.0, 1.645922829739056E9, 0.0, 2022-02-27 11:47:09.739
156.0, -757.0982881901608, -3234.655050594217, -2165.124078407774, -9469.093021046285, 157.35628096536172, 158.13859202129746, -5035.065714724746, -1689.8812877990351, -3611.594869088515, -4711.032475356159, -3552.429801515317, -2787.21783008788, -2991.915105809582, -1827.366867943629, -8239.30004111529, -15346.014838935715, 0.017, -0.10500000000000001, 0.9864999999999999, 192.0, 0.0, 0.0, 0.0, 0.0, 0.0, 0.0, 0.0, 0.0, 0.0, 1.645922829747024E9, 0.0, 2022-02-27 11:47:09.747
158.0, -1047.8497800647951, -3452.1375241443548, -2327.0624669864737, -9665.475447830611, -102.97448670559963, 68.75396594452452, -5000.532269541296, -1601.0331035891895, -1920.1713109220639, -4564.695604407264, -3871.210380936907, -2827.0486387072374, -3359.8024677994813, -2085.998903035987, -8153.603452873642, -14989.124535217827, 0.017, -0.10500000000000001, 0.9864999999999999, 192.0, 0.0, 0.0, 0.0, 0.0, 0.0, 0.0, 0.0, 0.0, 0.0, 1.645922829754931E9, 0.0, 2022-02-27 11:47:09.754
160.0, -470.10188938401814, -3002.018094303381, -1930.4978168604157, -9210.930372587487, 415.6306881464348, 363.86404798794365, -4830.48019772532, -1403.9801244712025, -2144.672232231168, -4154.496390163468, -3497.31039968853, -2671.838125209585, -2992.7421203544286, -1757.4059077985178, -8004.137337701004, -14693.701528752033, 0.017, -0.10500000000000001, 0.9864999999999999, 192.0, 0.0, 0.0, 0.0, 0.0, 0.0, 0.0, 0.0, 0.0, 0.0, 1.64592282976167E9, 0.0, 2022-02-27 11:47:09.761
162.0, -1109.428836039166, -3503.613591624927, -2427.600613546445, -9768.65110023631, -201.85860417587807, -34.8016661169131, -5162.627120331183, -1822.3377254411848, -3584.1022234084876, -5013.876260981115, -3781.8481066045892, -2890.415834238033, -3229.737666814049, -2051.8230857638223, -8367.621406033208, -15588.777135464805, 0.017, -0.10500000000000001, 0.9864999999999999, 192.0, 0.0, 0.0, 0.0, 0.0, 0.0, 0.0, 0.0, 0.0, 0.0, 1.645922829769759E9, 0.0, 2022-02-27 11:47:09.769
164.0, -676.386138962047, -3147.617357685251, -2064.2730074254287, -9365.671499451579, 213.81678745946735, 284.06832028249744, -4848.763924689762, -1396.224069145211, -1177.9145810502268, -4047.8115138782878, -3655.0690120540876, -2675.4367560668893, -3178.7533377114937, -1879.13350810212, -7944.011145116227, -14483.304558194228, 0.0175, -0.10350000000000001, 0.98825, 192.0, 0.0, 72.0, 126.0, 104.0, 15.0, 120.0, 0.0, 0.0, 0.0, 1.645922829784772E9, 0.0, 2022-02-27 11:47:09.784
166.0, -699.2966770287368, -3179.1556691116893, -2152.9870811685423, -9452.195102238073, 157.06570828744273, 159.36793796633935, -5042.687659584005, -1679.8900580275129, -3555.693156205792, -4682.288131986634, -3526.121798291421, -2760.3063297636904, -2984.136698739135, -1825.4446179204724, -8234.092084657203, -15327.820518949095, 0.0175, -0.10350000000000001, 0.98825, 192.0, 0.0, 0.0, 0.0, 0.0, 0.0, 0.0, 0.0, 0.0, 0.0, 1.645922829791268E9, 0.0, 2022-02-27 11:47:09.791
168.0, -1006.2755353779239, -3403.924811354257, -2317.1606441927725, -9655.81949422592, -106.48371058508285, 82.03090215097691, -4989.4681560359195, -1595.8698506200137, -1917.5785085652483, -4560.247607260658, -3848.366898103583, -2804.898059952028, -3347.9560432381686, -2080.813298322356, -8152.977604028893, -14993.6395875978, 0.0175, -0.10350000000000001, 0.98825, 192.0, 0.0, 0.0, 0.0, 0.0, 0.0, 0.0, 0.0, 0.0, 0.0, 1.645922829799383E9, 0.0, 2022-02-27 11:47:09.799
170.0, -424.19140627281746, -2953.3806983686327, -1917.354991120695, -9196.759366602822, 427.6335749189347, 370.2119434132509, -4817.180909774413, -1405.1647669273339, -2098.3370659753164, -4128.0095729839295, -3475.2715796555976, -2644.1219620850043, -2980.3592539261886, -1744.10661984761, -7993.9002387404735, -14680.804572201321, 0.0175, -0.10350000000000001, 0.98825, 192.0, 0.0, 0.0, 0.0, 0.0, 0.0, 0.0, 0.0, 0.0, 0.0, 1.64592282980724E9, 0.0, 2022-02-27 11:47:09.807
172.0, -1083.657274682197, -3474.153992432832, -2423.398485588847, -9763.241978078126, -198.90817390777755, -31.94064282663379, -5165.175219199088, -1827.3445161991735, -3570.1100313794655, -5003.929734698503, -3765.9113128079553, -2871.215685750924, -3220.7746172874713, -2049.029117706909, -8362.70402225304, -15587.480734286397, 0.0175, -0.10350000000000001, 0.98825, 192.0, 0.0, 0.0, 0.0, 0.0, 0.0, 0.0, 0.0, 0.0, 0.0, 1.645922829814287E9, 0.0, 2022-02-27 11:47:09.814
174.0, -652.6709380949662, -3126.9643458085475, -2053.8347427648, -9362.430496505558, 219.6505927623025, 279.1509365023299, -4844.67355545444, -1400.6497145473618, -1157.5744935958974, -4039.675478896556, -3642.5520351591153, -2663.769145461219, -3170.0585091183793, -1879.915819158056, -7938.043229346661, -14477.67191859149, 0.018750000000000003, -0.10275000000000001, 0.987125, 192.0, 0.0, 80.0, 126.0, 104.0, 15.0, 104.0, 0.0, 0.0, 0.0, 1.645922829821909E9, 0.0, 2022-02-27 11:47:09.821
176.0, -675.4473656949241, -3158.4803054905306, -2141.0736013738633, -9444.126122489706, 155.99282455358798, 163.77123162403484, -5058.8479708251925, -1691.244744210809, -3541.5668537100382, -4683.383367464944, -3516.510548175639, -2751.9244255929502, -2978.7722800698616, -1832.1277895126093, -8232.862738712161, -15328.781643960672, 0.018750000000000003, -0.10275000000000001, 0.987125, 192.0, 0.0, 0.0, 0.0, 0.0, 0.0, 0.0, 0.0, 0.0, 0.0, 1.645922829829971E9, 0.0, 2022-02-27 11:47:09.829
178.0, -990.0928723922816, -3389.127956524844, -2314.724304047144, -9654.992479681074, -107.06485594092084, 77.62760849328143, -5008.265973122832, -1613.4830252507957, -1919.746627777413, -4561.342842738967, -3843.5389213012368, -2796.2702865922793, -3349.833589772414, -2086.289475713906, -8163.795848345262, -15003.027320269028, 0.018750000000000003, -0.10275000000000001, 0.987125, 192.0, 0.0, 0.0, 0.0, 0.0, 0.0, 0.0, 0.0, 0.0, 0.0, 1.645922829836986E9, 0.0, 2022-02-27 11:47:09.836
180.0, -405.6841618638232, -2932.8841487031164, -1911.8341102402344, -9193.853639823632, 426.0689528070632, 369.6978532907788, -4839.711468185362, -1426.644793348884, -2092.1679845056515, -4129.618898584712, -3469.929512730779, -2640.3445172720576, -2979.4428324035207, -1755.9306926644676, -8000.762224288253, -14688.448868805037, 0.018750000000000003, -0.10275000000000001, 0.987125, 192.0, 0.0, 0.0, 0.0, 0.0, 0.0, 0.0, 0.0, 0.0, 0.0, 1.645922829843494E9, 0.0, 2022-02-27 11:47:09.843
182.0, -1061.1937715046133, -3452.830428222469, -2414.1895668732604, -9756.111771596881, -197.94704889619933, -29.52665442546063, -5180.150887984144, -1817.5991556166598, -3574.535676781616, -4995.234906105388, -3753.3496324240728, -2860.084517012181, -3214.784349773449, -2048.604434562258, -8372.538789813374, -15592.934559933492, 0.018750000000000003, -0.10275000000000001, 0.987125, 192.0, 0.0, 0.0, 0.0, 0.0, 0.0, 0.0, 0.0, 0.0, 0.0, 1.645922829851589E9, 0.0, 2022-02-27 11:47:09.851
184.0, -641.0927344671172, -3113.3521334352654, -2052.3818793752052, -9364.777429673366, 220.6117177738807, 276.73694810115677, -4831.597784948085, -1397.6992842792613, -1149.0584789584254, -4032.2099962484835, -3640.3839159469508, -2657.6224157360098, -3167.778631183938, -1878.4406040240056, -7938.154988068937, -14473.939177267453, 0.017375, -0.10237500000000001, 0.9865625, 192.0, 0.0, 64.0, 126.0, 104.0, 15.0, 104.0, 0.0, 0.0, 0.0, 1.645922829859587E9, 0.0, 2022-02-27 11:47:09.859
186.0, -656.4483829079131, -3144.62222392824, -2132.1776070806513, -9439.007573009441, 169.85090611587836, 164.50883919106, -5044.676964840528, -1688.6072383650826, -3521.025600555611, -4663.713832344274, -3511.5708126510162, -2749.644547658509, -2968.021090986859, -1827.8586063216458, -8225.933697931016, -15315.728225198774, 0.017375, -0.10237500000000001, 0.9865625, 192.0, 0.0, 0.0, 0.0, 0.0, 0.0, 0.0, 0.0, 0.0, 0.0, 1.645922829867481E9, 0.0, 2022-02-27 11:47:09.867
188.0, -987.3883113131895, -3388.546811169006, -2315.5066151030796, -9658.546407049467, -110.93170773168895, 77.35938755981775, -5009.942353956981, -1611.2031473163543, -1941.1148954766866, -4566.595502685965, -3843.583624790147, -2802.8193477176846, -3345.7879240260036, -2083.4061006791712, -8164.622862890109, -15013.286770974013, 0.017375, -0.10237500000000001, 0.9865625, 192.0, 0.0, 0.0, 0.0, 0.0, 0.0, 0.0, 0.0, 0.0, 0.0, 1.645922829875624E9, 0.0, 2022-02-27 11:47:09.875
190.0, -400.3420949390048, -2929.3972765680883, -1905.776787492846, -9191.730224100378, 429.53347319763583, 360.7124520197454, -4831.128398314524, -1410.8421100189819, -2054.3711846317274, -4115.738465277966, -3466.487344084662, -2637.6623079374203, -2974.5925038567193, -1751.594454240138, -7988.2675991377355, -14671.483894763458, 0.017375, -0.10237500000000001, 0.9865625, 192.0, 0.0, 0.0, 0.0, 0.0, 0.0, 0.0, 0.0, 0.0, 0.0, 1.645922829882236E9, 0.0, 2022-02-27 11:47:09.882
192.0, -1056.075222024348, -3454.9761956901784, -2412.557889528023, -9754.480094251645, -201.90330766478868, -39.65199466371473, -5183.324835696797, -1819.2755364508077, -3594.7193020247582, -4999.995827674369, -3748.432248643905, -2861.8726565686056, -3204.7037130241056, -2046.2127979055404, -8365.497990309954, -15593.493353544874, 0.017375, -0.10237500000000001, 0.9865625, 192.0, 0.0, 0.0, 0.0, 0.0, 0.0, 0.0, 0.0, 0.0, 0.0, 1.64592282989023E9, 0.0, 2022-02-27 11:47:09.890
194.0, -640.7798100447428, -3114.9167555471367, -2055.4664201100377, -9361.625833705168, 220.03057241804274, 276.58048588996957, -4836.179892561423, -1390.5020225646524, -1145.236330656568, -4035.2721852388604, -3638.394610690428, -2655.7001657128535, -3165.655215460684, -1882.3074558147737, -7941.172473570404, -14476.822552302188, 0.014687500000000001, -0.10218750000000001, 0.98928125, 192.0, 0.0, 48.0, 126.0, 104.0, 15.5, 0.0, 0.0, 0.0, 0.0, 1.645922829896923E9, 0.0, 2022-02-27 11:47:09.896
196.0, -641.6068245895892, -3128.9089475761593, -2125.762656421978, -9425.305953658337, 180.60209519888107, 160.1726007667304, -5044.922834029536, -1688.3837209205296, -3506.9216498043124, -4648.134666458925, -3504.6864753587815, -2739.0498207866935, -2963.3942798846106, -1819.4096469175397, -8221.329238573222, -15304.015911104192, 0.014687500000000001, -0.10218750000000001, 0.98928125, 192.0, 0.0, 0.0, 0.0, 0.0, 0.0, 0.0, 0.0, 0.0, 0.0, 1.645922829911905E9, 0.0, 2022-02-27 11:47:09.911
198.0, -989.2882095918906, -3385.8869535788244, -2322.525062862046, -9659.708697761143, -115.04442871146546, 68.21752407759716, -5022.973420974425, -1606.1516530694548, -1968.2499132454293, -4568.405993986845, -3841.7284300003566, -2794.325684824668, -3341.8540170018696, -2082.8473070677887, -8168.713232125429, -15026.720169391654, 0.014687500000000001, -0.10218750000000001, 0.98928125, 192.0, 0.0, 0.0, 0.0, 0.0, 0.0, 0.0, 0.0, 0.0, 0.0, 1.645922829920011E9, 0.0, 2022-02-27 11:47:09.920
200.0, -397.7939960710998, -2924.882224188116, -1910.068322428265, -9189.517401399304, 427.6782784078453, 367.68619628980116, -4828.245023279789, -1395.352351111454, -2040.446047836071, -4107.647133785144, -3470.8235825089914, -2632.677868923887, -2979.822812059261, -1751.7062129624146, -7988.781689260208, -14663.057287103808, 0.014687500000000001, -0.10218750000000001, 0.98928125, 192.0, 0.0, 0.0, 0.0, 0.0, 0.0, 0.0, 0.0, 0.0, 0.0, 1.645922829926548E9, 0.0, 2022-02-27 11:47:09.926
202.0, -1046.3298614418343, -3443.286233340053, -2416.044761663051, -9747.953384870694, -201.85860417587807, -37.707392896103016, -5175.7252425819925, -1824.6623068645367, -3614.657058078892, -4992.172717115011, -3745.079486975609, -2852.6860895974746, -3202.4685385785747, -2037.1379896566857, -8364.98390018748, -15594.879161701103, 0.014687500000000001, -0.10218750000000001, 0.98928125, 192.0, 0.0, 0.0, 0.0, 0.0, 0.0, 0.0, 0.0, 0.0, 0.0, 1.645922829934528E9, 0.0, 2022-02-27 11:47:09.934
204.0, -636.063591964673, -3108.7029705885616, -2069.190391205596, -9363.61513896169, 206.37365655585012, 267.68449159675737, -4863.605483008085, -1408.5845838289958, -1139.5142840760093, -4032.724086370956, -3641.993241547733, -2656.638938979976, -3176.942846410614, -1879.7370052024135, -7944.681697449887, -14483.77394482779, 0.01134375, -0.10309375000000001, 0.987640625, 192.0, 0.0, 32.0, 126.0, 96.0, 15.0, 104.0, 0.0, 0.0, 0.0, 1.645922829942399E9, 0.0, 2022-02-27 11:47:09.942
206.0, -623.5019115807905, -3111.6086973677516, -2128.4672175010705, -9414.420654108602, 181.78673765501233, 171.34847299438394, -5058.646805125094, -1672.8045550351806, -3476.277408156086, -4629.985049961216, -3499.0985392449547, -2733.8865678175175, -2969.764527054373, -1810.3348386686848, -8221.351590317678, -15295.723413911273, 0.01134375, -0.10309375000000001, 0.987640625, 192.0, 0.0, 0.0, 0.0, 0.0, 0.0, 0.0, 0.0, 0.0, 0.0, 1.645922829949013E9, 0.0, 2022-02-27 11:47:09.949
208.0, -991.9927706709827, -3390.804337358992, -2333.6562316007894, -9667.062421686938, -124.92389976071118, 53.64418669273695, -5036.451522880974, -1623.340144555586, -2008.0583701203311, -4582.375834271412, -3846.7352207583453, -2798.3042953377126, -3355.041546230501, -2087.2058972365735, -8177.408060718544, -15047.216719057169, 0.01134375, -0.10309375000000001, 0.987640625, 192.0, 0.0, 0.0, 0.0, 0.0, 0.0, 0.0, 0.0, 0.0, 0.0, 1.645922829957161E9, 0.0, 2022-02-27 11:47:09.957
210.0, -401.45968216177016, -2934.8511022151833, -1918.9866684659326, -9194.479488668381, 419.56459517056885, 358.81255374104427, -4831.128398314524, -1394.5700400555183, -2002.068102606309, -4105.14373840615, -3475.0480622110445, -2635.6282991919875, -2986.3048179513003, -1756.5118380203055, -7980.802116489664, -14656.195301556028, 0.01134375, -0.10309375000000001, 0.987640625, 192.0, 0.0, 0.0, 0.0, 0.0, 0.0, 0.0, 0.0, 0.0, 0.0, 1.645922829964038E9, 0.0, 2022-02-27 11:47:09.964
212.0, -1046.6427858642085, -3448.4271345647735, -2423.018505933107, -9752.624899461855, -194.68369420572452, -39.31671849688512, -5179.1227077391995, -1818.850853306157, -3628.6492501079147, -4998.230039862399, -3743.6489753304695, -2861.179752490491, -3205.4413205911305, -2043.552940315359, -8363.262815864422, -15600.332987348198, 0.01134375, -0.10309375000000001, 0.987640625, 192.0, 0.0, 0.0, 0.0, 0.0, 0.0, 0.0, 0.0, 0.0, 0.0, 1.64592282997218E9, 0.0, 2022-02-27 11:47:09.972
214.0, -646.3453944141144, -3116.727246848017, -2074.353644174772, -9373.651072222123, 204.33964781041718, 264.7340613286569, -4859.738631217317, -1395.1735371558116, -1143.783467266973, -4036.3674207171707, -3646.0612590385986, -2661.645729737965, -3183.111927880279, -1889.7282349739355, -7941.150121825948, -14490.814744331212, 0.011671875, -0.10054687500000001, 0.9908203125, 192.0, 0.0, 48.0, 126.0, 120.0, 15.5, 8.0, 0.0, 0.0, 0.0, 1.645922829978829E9, 0.0, 2022-02-27 11:47:09.978
216.0, -620.3279638681369, -3111.116958989735, -2120.509996474981, -9412.319590129804, 196.74005469561277, 174.0977375623867, -5034.238700179899, -1652.5315228142172, -3473.8410680104575, -4628.509834827165, -3501.512527646128, -2738.3345649641237, -2971.172686955057, -1815.945126526967, -8211.986209390905, -15291.07425106457, 0.011671875, -0.10054687500000001, 0.9908203125, 192.0, 0.0, 0.0, 0.0, 0.0, 0.0, 0.0, 0.0, 0.0, 0.0, 1.645922829986638E9, 0.0, 2022-02-27 11:47:09.986
218.0, -995.6584567616532, -3392.0560350484893, -2341.054659015496, -9671.82334325592, -118.21837642411906, 55.78995416044643, -5022.414627363041, -1616.634621218994, -2059.1544579451634, -4600.078415880014, -3844.432991079449, -2798.9748476713717, -3345.9220344927353, -2090.1339757602186, -8175.731679884396, -15068.160303611792, 0.011671875, -0.10054687500000001, 0.9908203125, 192.0, 0.0, 0.0, 0.0, 0.0, 0.0, 0.0, 0.0, 0.0, 0.0, 1.645922829994655E9, 0.0, 2022-02-27 11:47:09.994
220.0, -390.9767140122311, -2922.311773575756, -1914.5610230637817, -9190.143250244051, 436.48486572323634, 372.08948994749665, -4818.09733129708, -1382.991836427669, -1952.4919334044378, -4078.1204793596844, -3472.4329081097735, -2624.5418339421553, -2985.3213411952665, -1751.0356606287553, -7969.2462646062695, -14636.570469924269, 0.011671875, -0.10054687500000001, 0.9908203125, 192.0, 0.0, 0.0, 0.0, 0.0, 0.0, 0.0, 0.0, 0.0, 0.0, 1.645922830001788E9, 0.0, 2022-02-27 11:47:10.001
222.0, -1032.047096734893, -3435.798398947525, -2411.037970905062, -9746.388762758823, -171.39317648329455, -29.481950936550017, -5167.388041900163, -1812.2570886918413, -3642.619090392481, -4988.7081967244385, -3731.2214054133187, -2852.283758197279, -3190.331541339343, -2028.6219750192138, -8355.663222749617, -15599.237751869889, 0.011671875, -0.10054687500000001, 0.9908203125, 192.0, 0.0, 0.0, 0.0, 0.0, 0.0, 0.0, 0.0, 0.0, 0.0, 1.645922830009463E9, 0.0, 2022-02-27 11:47:10.009
224.0, -657.0295282637511, -3127.4113806976534, -2074.8453825527886, -9382.56941825979, 199.0646361189647, 265.35991017340547, -4853.3460323030995, -1394.547688311063, -1137.9273102196826, -4046.716278399978, -3648.8775788399676, -2659.7234797148085, -3182.9778174135467, -1894.3103425872735, -7939.205520058337, -14495.218037988907, 0.012, -0.1, 0.994, 192.0, 0.0, 48.0, 126.0, 112.0, 15.5, 8.0, 0.0, 0.0, 0.0, 1.645922830017531E9, 0.0, 2022-02-27 11:47:10.017
226.0, -609.5097195517683, -3103.1820897081006, -2109.6246969252466, -9403.535354558868, 205.81486294446742, 193.25318256058486, -5036.47387462543, -1657.3594996165634, -3441.5427972725392, -4612.662448008353, -3494.40467290934, -2729.863253815562, -2964.310701407278, -1810.044265990766, -8205.168927332035, -15273.148152011414, 0.012, -0.1, 0.994, 192.0, 0.0, 0.0, 0.0, 0.0, 0.0, 0.0, 0.0, 0.0, 0.0, 1.645922830032358E9, 0.0, 2022-02-27 11:47:10.032
228.0, -1004.5097475659547, -3404.282439265542, -2343.17807473875, -9684.385023639801, -127.62846083980332, 56.46050649410564, -5033.836368779704, -1630.7832754592032, -2089.999865293487, -4615.679933509819, -3843.8071422347, -2803.5346035402545, -3350.191217683699, -2084.5236879019367, -8182.079575309704, -15081.839571218441, 0.012, -0.1, 0.994, 192.0, 0.0, 0.0, 0.0, 0.0, 0.0, 0.0, 0.0, 0.0, 0.0, 1.645922830039196E9, 0.0, 2022-02-27 11:47:10.039
230.0, -400.78912982811096, -2936.4827795604206, -1917.6679155430695, -9197.049939280741, 429.108790052985, 364.4898968326923, -4830.5696047031415, -1389.3397318529765, -1934.8340552847453, -4087.105880630718, -3476.836201767469, -2635.360078258524, -2991.2892569648334, -1766.1677916249982, -7968.754526228253, -14632.793025111321, 0.012, -0.1, 0.994, 192.0, 0.0, 0.0, 0.0, 0.0, 0.0, 0.0, 0.0, 0.0, 0.0, 1.645922830046981E9, 0.0, 2022-02-27 11:47:10.046
232.0, -1032.784704301918, -3439.77700946057, -2412.8931656948525, -9740.711419667176, -183.06078708896484, -36.25452950650806, -5179.793260072859, -1828.3726964441178, -3663.696785413836, -4994.944333427469, -3734.440056614883, -2855.636519865575, -3190.309189594888, -2037.160341401141, -8360.714716996517, -15603.305769360753, 0.012, -0.1, 0.994, 192.0, 0.0, 0.0, 0.0, 0.0, 0.0, 0.0, 0.0, 0.0, 0.0, 1.645922830055079E9, 0.0, 2022-02-27 11:47:10.055
234.0, -667.2666272242817, -3139.6824884036173, -2087.2729524699394, -9380.267188580894, 182.054958588476, 263.16943921678535, -4864.834828953127, -1403.063702948535, -1150.5560458369312, -4055.858141882198, -3660.545189445638, -2662.0257093937053, -3194.779538485949, -1902.6251915246478, -7946.581595728589, -14502.728224125889, 0.008, -0.10400000000000001, 0.996, 192.0, 0.0, 32.0, 126.0, 96.0, 15.5, 16.0, 0.0, 0.0, 0.0, 1.645922830061858E9, 0.0, 2022-02-27 11:47:10.061
236.0, -617.6234027890448, -3116.459025914553, -2121.5605284643802, -9402.104842913728, 198.95287739668817, 183.217249300152, -5044.386392162609, -1659.5723223176387, -3429.5399105000392, -4603.900564181872, -3494.4940798871617, -2726.801064825185, -2970.5915415992195, -1808.3231816677073, -8207.67232271103, -15262.620480372963, 0.008, -0.10400000000000001, 0.996, 192.0, 0.0, 0.0, 0.0, 0.0, 0.0, 0.0, 0.0, 0.0, 0.0, 1.645922830069704E9, 0.0, 2022-02-27 11:47:10.069
238.0, -1009.6953522795859, -3411.7255701691593, -2350.0624120309844, -9676.181933424705, -132.25527194205188, 52.81717214789059, -5048.834389309214, -1633.3537260715636, -2072.766670318445, -4610.024942162627, -3846.7352207583453, -2807.1108826531035, -3354.326290407931, -2095.4983944294922, -8185.342930000178, -15072.831818202952, 0.008, -0.10400000000000001, 0.996, 192.0, 0.0, 0.0, 0.0, 0.0, 0.0, 0.0, 0.0, 0.0, 0.0, 1.645922830077578E9, 0.0, 2022-02-27 11:47:10.077
240.0, -410.26626947716113, -2942.785971496817, -1927.0332964698432, -9194.367729946105, 424.81725511756605, 366.70271953376766, -4833.855311138072, -1399.1074441799456, -1967.3334917227617, -4094.7948807233433, -3475.025710466589, -2636.298851525647, -2988.49528890792, -1761.5409805227496, -7978.633997277499, -14644.103007805707, 0.008, -0.10400000000000001, 0.996, 192.0, 0.0, 0.0, 0.0, 0.0, 0.0, 0.0, 0.0, 0.0, 0.0, 1.645922830083822E9, 0.0, 2022-02-27 11:47:10.083
242.0, -1045.5699021303537, -3451.8916549553464, -2420.0233721760956, -9744.265347035569, -182.5690487109481, -35.51692193948292, -5185.783527586881, -1824.8187690757238, -3675.207933808319, -5004.488528309886, -3733.747152536768, -2860.352737945645, -3191.292666350921, -2037.6967832680684, -8363.821609475805, -15608.491374074385, 0.008, -0.10400000000000001, 0.996, 192.0, 0.0, 0.0, 0.0, 0.0, 0.0, 0.0, 0.0, 0.0, 0.0, 1.645922830091365E9, 0.0, 2022-02-27 11:47:10.091
244.0, -674.9109238279967, -3147.4385437296087, -2090.357493204772, -9388.179706118073, 188.11228133586425, 265.27050319558424, -4865.639491753518, -1412.6526013198616, -1145.7280690345847, -4058.830923894754, -3662.2662737686965, -2669.1782676194034, -3189.169250627667, -1903.6757235140471, -7943.251185804747, -14501.00713980283, 0.016, -0.106, 0.992, 192.0, 0.0, 64.0, 126.0, 88.0, 15.5, 0.0, 0.0, 0.0, 0.0, 1.645922830099276E9, 0.0, 2022-02-27 11:47:10.099
246.0, -612.7283707533325, -3116.6378398701954, -2111.748112648501, -9395.935761444063, 208.78764495702328, 188.6263714583363, -5039.826636293726, -1639.9921941747898, -3424.9130993977906, -4614.24942186468, -3500.8419753124685, -2738.8486550865955, -2966.0764892192474, -1813.0170480033219, -8201.302075541267, -15256.20552971429, 0.016, -0.106, 0.992, 192.0, 0.0, 0.0, 0.0, 0.0, 0.0, 0.0, 0.0, 0.0, 0.0, 1.645922830107221E9, 0.0, 2022-02-27 11:47:10.107
248.0, -1016.4902825939993, -3421.381523773852, -2353.4822289326466, -9681.814573027441, -140.57012087942613, 46.91631161168952, -5030.863586767147, -1617.9310223974016, -2124.6227174547575, -4641.071515211048, -3850.8926452270325, -2814.3975513455334, -3348.3360228939086, -2106.0484178123975, -8190.684996924997, -15091.204952145214, 0.016, -0.106, 0.992, 192.0, 0.0, 0.0, 0.0, 0.0, 0.0, 0.0, 0.0, 0.0, 0.0, 1.645922830113907E9, 0.0, 2022-02-27 11:47:10.113
250.0, -419.0728567925521, -2952.5536838237863, -1927.7709040368682, -9193.585418890169, 417.30706898058287, 364.69106253279006, -4808.2849154812, -1374.4087665568313, -1930.587223838237, -4092.1797266220724, -3489.3755304068964, -2643.6972789403535, -2999.693512880029, -1769.9005329490344, -7969.358023328546, -14620.27604821635, 0.016, -0.106, 0.992, 192.0, 0.0, 0.0, 0.0, 0.0, 0.0, 0.0, 0.0, 0.0, 0.0, 1.64592283012191E9, 0.0, 2022-02-27 11:47:10.121
252.0, -1039.6913933386081, -3444.6273380073712, -2417.0729419079953, -9738.565652199466, -181.85379288837825, -31.828884104357257, -5171.523114624395, -1815.6322021045928, -3701.582992265581, -5002.476871308908, -3733.9259664924107, -2858.810467578229, -3190.5774105283513, -2022.519948782915, -8364.156885642635, -15604.199839138966, 0.016, -0.106, 0.992, 192.0, 0.0, 0.0, 0.0, 0.0, 0.0, 0.0, 0.0, 0.0, 0.0, 1.645922830131274E9, 0.0, 2022-02-27 11:47:10.131
254.0, -680.1635837749939, -3149.5172559639523, -2097.577106663836, -9388.760851473911, 187.26291504656257, 262.9459217722323, -4846.618157222051, -1392.2007551432557, -1150.176066181191, -4064.575322219768, -3664.121468558487, -2663.456221038845, -3195.8971257087146, -1906.7379125044242, -7948.570900985111, -14497.430860689981, 0.008, -0.108, 0.99, 192.0, 0.0, 32.0, 126.0, 80.0, 15.0, 120.0, 0.0, 0.0, 0.0, 1.645922830137412E9, 0.0, 2022-02-27 11:47:10.137
0.0, -616.7069812663772, -3112.4133601681424, -2117.5372144624253, -9393.09708989824, 210.732246724635, 197.5447174960038, -5031.824711778726, -1635.857121450558, -3413.8266341479584, -4604.749930471174, -3502.7418735911697, -2729.7514950932855, -2971.083279977236, -1820.4154754180283, -8204.096043598181, -15241.92276500735, 0.008, -0.108, 0.99, 192.0, 0.0, 0.0, 0.0, 0.0, 0.0, 0.0, 0.0, 0.0, 0.0, 1.645922830144576E9, 0.0, 2022-02-27 11:47:10.144
2.0, -1021.4747216075327, -3426.2765558095643, -2360.858304602898, -9691.604637098866, -137.73144933360211, 43.18357028765325, -5045.191054962999, -1637.2205778623318, -2151.489514290037, -4651.219207193757, -3857.3522993746165, -2816.2080426464136, -3359.355432910375, -2116.7549034064896, -8199.156308073558, -15100.257408649613, 0.008, -0.108, 0.99, 192.0, 0.0, 0.0, 0.0, 0.0, 0.0, 0.0, 0.0, 0.0, 0.0, 1.645922830159514E9, 0.0, 2022-02-27 11:47:10.159
4.0, -420.97275507125323, -2958.499247848898, -1932.6435843281251, -9200.96149456042, 418.91639458136495, 370.43546085780395, -4825.8757383675265, -1384.4223480728087, -1914.4939678304158, -4090.615104510201, -3487.699149572748, -2638.5563777156326, -3000.49817568042, -1778.170678397498, -7973.560151286144, -14620.410158683082, 0.008, -0.108, 0.99, 192.0, 0.0, 0.0, 0.0, 0.0, 0.0, 0.0, 0.0, 0.0, 0.0, 1.645922830166596E9, 0.0, 2022-02-27 11:47:10.166
6.0, -1047.3803934312336, -3457.3007771135303, -2423.040857677562, -9744.578271457944, -174.54477245149286, -29.59370965882655, -5163.387079642664, -1811.9218125250118, -3722.2807076311956, -5012.84808073617, -3734.685925803891, -2864.644272881064, -3190.711520995083, -2043.9552717155543, -8365.922673454605, -15607.440842084987, 0.008, -0.108, 0.99, 192.0, 0.0, 0.0, 0.0, 0.0, 0.0, 0.0, 0.0, 0.0, 0.0, 1.645922830174261E9, 0.0, 2022-02-27 11:47:10.174
8.0, -709.869052156097, -3178.1498406112005, -2113.446845227104, -9409.43621509507, 178.41162424226098, 253.5581891010033, -4858.978671905837, -1402.5719645705183, -1177.6463601167632, -4090.5033457879244, -3686.4061577804277, -2682.991645692783, -3217.041875963435, -1931.6601075720916, -7950.515502752723, -14507.310331739227, 0.01, -0.106, 0.988, 192.0, 0.0, 40.0, 126.0, 88.0, 15.0, 112.0, 0.0, 0.0, 0.0, 1.645922830182168E9, 0.0, 2022-02-27 11:47:10.182
10.0, -607.7662834842544, -3117.2860404593994, -2106.8530806127883, -9392.895924198143, 231.8993487238108, 205.0996071218976, -5020.201804661966, -1631.9679179153345, -3397.9568955846903, -4605.308724082556, -3505.222917225709, -2743.7883906112183, -2967.439945631021, -1819.5437573842714, -8192.987226603893, -15231.372741624446, 0.01, -0.106, 0.988, 192.0, 0.0, 0.0, 0.0, 0.0, 0.0, 0.0, 0.0, 0.0, 0.0, 1.645922830189218E9, 0.0, 2022-02-27 11:47:10.189
12.0, -1043.7370590850187, -3451.3999165773293, -2373.0847088199507, -9704.881573305318, -148.21441748314112, 39.2496632635192, -5031.489435611897, -1638.4946272962843, -2222.277488979994, -4680.857620341494, -3865.5330378452586, -2833.284775410268, -3357.969624754146, -2121.024086597453, -8205.19127907649, -15125.403121161835, 0.01, -0.106, 0.988, 192.0, 0.0, 0.0, 0.0, 0.0, 0.0, 0.0, 0.0, 0.0, 0.0, 1.645922830196749E9, 0.0, 2022-02-27 11:47:10.196
14.0, -434.76378140017766, -2974.6819108345403, -1935.0799244737536, -9203.420186450505, 423.2079295167839, 370.3013503910721, -4815.728046384817, -1377.6050660139401, -1879.8934674136005, -4094.6607702566116, -3499.5232223896055, -2655.6331104794876, -3009.3494664847217, -1785.5467540677494, -7965.66998549342, -14601.902914274087, 0.01, -0.106, 0.988, 192.0, 0.0, 0.0, 0.0, 0.0, 0.0, 0.0, 0.0, 0.0, 0.0, 1.645922830204812E9, 0.0, 2022-02-27 11:47:10.204
16.0, -1053.4824196675324, -3467.4931725851507, -2424.113741411417, -9743.237166790625, -165.4923159470935, -25.9503753126115, -5170.919617524102, -1807.8537950341458, -3733.724800792313, -5021.028819206813, -3736.78698978269, -2875.2613514973345, -3188.8339744608375, -2041.2507106364621, -8364.536865298374, -15601.22705712641, 0.01, -0.106, 0.988, 192.0, 0.0, 0.0, 0.0, 0.0, 0.0, 0.0, 0.0, 0.0, 0.0, 1.645922830211782E9, 0.0, 2022-02-27 11:47:10.211
18.0, -707.2315463103707, -3177.3898812997204, -2111.792816137411, -9406.351674360238, 174.88004861832246, 255.27927342406196, -4861.951453918392, -1406.3494093834652, -1166.559894866931, -4094.996046423441, -3684.9979978797437, -2692.6252475530205, -3212.3256578833652, -1926.5862615807368, -7951.744848697764, -14504.158735771029, 0.01, -0.106, 0.99, 192.0, 0.0, 40.0, 126.0, 88.0, 15.0, 120.0, 0.0, 0.0, 0.0, 1.645922830218898E9, 0.0, 2022-02-27 11:47:10.218
20.0, -622.0713999356509, -3121.532871905908, -2113.424493482649, -9391.264246852905, 224.7020870092019, 202.79737744300098, -5016.08908368219, -1633.2643190937424, -3388.189183257721, -4601.2407065916905, -3508.1956992382648, -2746.224730756847, -2970.5468381103087, -1818.8285015617016, -8191.400252747567, -15224.600163054487, 0.01, -0.106, 0.99, 192.0, 0.0, 0.0, 0.0, 0.0, 0.0, 0.0, 0.0, 0.0, 0.0, 1.645922830226457E9, 0.0, 2022-02-27 11:47:10.226
22.0, -1054.2647307234681, -3449.3435560874414, -2374.045833831529, -9699.561858124955, -142.20179822466352, 37.05919230689911, -5047.7615055753595, -1654.431421092918, -2207.123006239296, -4684.389195965433, -3874.2502181828286, -2841.2643481808127, -3368.7878690705147, -2124.6674209436683, -8204.990113376392, -15116.261257679613, 0.01, -0.106, 0.99, 192.0, 0.0, 0.0, 0.0, 0.0, 0.0, 0.0, 0.0, 0.0, 0.0, 1.64592283023449E9, 0.0, 2022-02-27 11:47:10.234
24.0, -447.1689995728731, -2971.463259632976, -1940.3102326762955, -9206.214154507417, 422.4703219497588, 366.2333329002062, -4821.226575520823, -1378.5438392810631, -1911.6329445401366, -4106.686008773567, -3506.1393387483763, -2660.19286634837, -3014.9597543430036, -1780.5176115653053, -7970.453258806856, -14611.760033578877, 0.01, -0.106, 0.99, 192.0, 0.0, 0.0, 0.0, 0.0, 0.0, 0.0, 0.0, 0.0, 0.0, 1.645922830242564E9, 0.0, 2022-02-27 11:47:10.242
26.0, -1051.4484109220996, -3455.937320701757, -2418.8387297199642, -9737.470416721157, -160.3961182112835, -21.167101999175788, -5180.463812406518, -1821.6001178741597, -3751.3826789120058, -5018.65953429455, -3738.888053761489, -2872.6238456516085, -3191.6949977511167, -2032.3994198321607, -8367.241426377466, -15604.222190883422, 0.01, -0.106, 0.99, 192.0, 0.0, 0.0, 0.0, 0.0, 0.0, 0.0, 0.0, 0.0, 0.0, 1.645922830249163E9, 0.0, 2022-02-27 11:47:10.249
28.0, -713.579441735678, -3178.0604336333795, -2114.407970238682, -9408.00570344993, 172.8013363839789, 253.2229129341737, -4862.242026596311, -1409.2327844181998, -1167.6774820896962, -4090.637456254656, -3686.048529869143, -2681.583485792099, -3215.58901257384, -1919.1207789326645, -7951.297813808658, -14505.946875327454, 0.008, -0.106, 0.986, 192.0, 0.0, 32.0, 126.0, 88.0, 15.0, 104.0, 0.0, 0.0, 0.0, 1.64592283025701E9, 0.0, 2022-02-27 11:47:10.257
30.0, -604.0558939046733, -3112.3239531903214, -2097.6888653861124, -9378.479049024469, 244.14810468531905, 218.55535728399246, -5011.7751970023155, -1631.27501383722, -3364.518685879551, -4588.2096395742465, -3499.1432427338655, -2737.284032974724, -2966.3000066638, -1828.6632691220368, -8184.918246855527, -15214.228953627224, 0.008, -0.106, 0.986, 192.0, 0.0, 0.0, 0.0, 0.0, 0.0, 0.0, 0.0, 0.0, 0.0, 1.645922830265092E9, 0.0, 2022-02-27 11:47:10.265
32.0, -1049.2579399654794, -3452.0034136776226, -2375.7445664101324, -9705.887401805807, -146.8286093269121, 40.233140019552714, -5051.069563754745, -1660.9357787294125, -2267.092736612885, -4701.756501407207, -3868.014081479798, -2842.091362725659, -3364.2728166905426, -2124.443903499115, -8211.62858147962, -15139.775292846596, 0.008, -0.106, 0.986, 192.0, 0.0, 0.0, 0.0, 0.0, 0.0, 0.0, 0.0, 0.0, 0.0, 1.645922830278744E9, 0.0, 2022-02-27 11:47:10.278
34.0, -430.1369702979291, -2961.7402507949178, -1932.8894535171335, -9198.189878247962, 412.47909217823656, 373.56470508154695, -4832.581261704119, -1392.4689760767194, -1855.172438046031, -4082.7025869730223, -3500.1267194898987, -2648.5252557426998, -3020.2571177789114, -1790.1512134255427, -7964.462991292834, -14597.097289216197, 0.008, -0.106, 0.986, 192.0, 0.0, 0.0, 0.0, 0.0, 0.0, 0.0, 0.0, 0.0, 0.0, 1.645922830286704E9, 0.0, 2022-02-27 11:47:10.286
36.0, -1021.050038462882, -3430.1434076003325, -2403.974819657185, -9720.907774079773, -157.46803968763825, -9.141863482220588, -5183.54835314135, -1833.5359494132936, -3760.3457284385836, -5001.873374208614, -3716.111626161531, -2860.2856827122787, -3177.1216603662565, -2029.3595825862387, -8364.156885642635, -15607.843173485182, 0.01, -0.106, 0.988, 192.0, 0.0, 48.0, 126.0, 88.0, 15.0, 120.0, 0.0, 0.0, 0.0, 1.6459228302957E9, 0.0, 2022-02-27 11:47:10.295
38.0, -720.1061511166276, -3180.0497388899016, -2124.175682565651, -9415.135909931172, 158.58562691040362, 250.47364836617095, -4872.72499474585, -1425.124874725923, -1183.524868908509, -4104.406130839126, -3691.8376316830677, -2682.634017781498, -3227.6589545797056, -1935.1693314515749, -7962.473686036312, -14529.259744794339, 0.01, -0.106, 0.988, 192.0, 0.0, 0.0, 0.0, 0.0, 0.0, 0.0, 0.0, 0.0, 0.0, 1.645922830301877E9, 0.0, 2022-02-27 11:47:10.301
40.0, -596.7692252122432, -3099.6281623397067, -2096.839499096811, -9370.275958809372, 247.72438379816816, 216.4766450496489, -5004.577935287707, -1628.7492667137703, -3326.520720305529, -4562.035746817082, -3496.5951438659604, -2726.801064825185, -2972.82671604475, -1810.6924665799697, -8181.900761354061, -15192.39129929439, 0.01, -0.106, 0.988, 192.0, 0.0, 0.0, 0.0, 0.0, 0.0, 0.0, 0.0, 0.0, 0.0, 1.645922830309374E9, 0.0, 2022-02-27 11:47:10.309
42.0, -1042.1277334842364, -3439.508788527106, -2376.3257117659705, -9696.812593556953, -142.29120520248475, 46.156352300209086, -5047.158008475067, -1658.0524036946779, -2245.188027046684, -4685.149155276913, -3863.7672500332897, -2830.7143247979075, -3368.5643516259615, -2119.4371127411264, -8213.707293713964, -15134.90261255534, 0.01, -0.106, 0.988, 192.0, 0.0, 0.0, 0.0, 0.0, 0.0, 0.0, 0.0, 0.0, 0.0, 1.645922830317321E9, 0.0, 2022-02-27 11:47:10.317
44.0, -429.3770109864487, -2955.839390258717, -1938.745610564424, -9197.00523579183, 421.5091969381806, 379.5102691066586, -4830.4578459808645, -1383.2600573611328, -1852.0655455667431, -4069.604464722212, -3498.6515043558484, -2639.517502727211, -3022.5146439688974, -1775.555524296227, -7969.045098906172, -14592.336367647216, 0.01, -0.106, 0.988, 192.0, 0.0, 0.0, 0.0, 0.0, 0.0, 0.0, 0.0, 0.0, 0.0, 1.645922830325381E9, 0.0, 2022-02-27 11:47:10.325
46.0, -1024.693372809097, -3434.993736147134, -2410.8815086938753, -9726.674524149243, -151.14249600678636, -19.446017676117144, -5178.049824005345, -1837.4028012040617, -3763.3185104511394, -4996.352493328153, -3715.664591272425, -2857.6258251220975, -3182.7095964800833, -2023.7492947279568, -8366.190894388068, -15607.2843798738, 0.01, -0.107, 0.988, 192.0, 0.0, 40.0, 126.0, 80.0, 15.0, 112.0, 0.0, 0.0, 0.0, 1.645922830331635E9, 0.0, 2022-02-27 11:47:10.331
48.0, -708.3491335331361, -3172.785421941927, -2119.951202863598, -9410.889078484664, 174.20949628466326, 252.01591873358714, -4874.133154646534, -1436.9489475427804, -1165.5540663664422, -4094.1019766452287, -3686.562619991615, -2683.237514881792, -3227.9942307465353, -1930.1401889491308, -7956.125790611004, -14521.414282490527, 0.01, -0.107, 0.988, 192.0, 0.0, 0.0, 0.0, 0.0, 0.0, 0.0, 0.0, 0.0, 0.0, 1.645922830338953E9, 0.0, 2022-02-27 11:47:10.338
50.0, -579.2007540703719, -3084.808955765838, -2089.910458315666, -9358.965976114987, 260.82250604897814, 227.5854620439365, -5015.440883092986, -1627.631679491005, -3316.931821934202, -4557.252473503647, -3489.9790275071896, -2724.63294561302, -2972.4243846445543, -1805.4845101218832, -8180.00086307536, -15197.19692435228, 0.01, -0.107, 0.988, 192.0, 0.0, 0.0, 0.0, 0.0, 0.0, 0.0, 0.0, 0.0, 0.0, 1.645922830347016E9, 0.0, 2022-02-27 11:47:10.347
52.0, -1045.078163752337, -3438.9499949157234, -2384.2605810476043, -9704.993332027594, -153.55648440795952, 32.94647132712261, -5048.901444542581, -1665.9425694874012, -2313.763179035566, -4699.990713595237, -3863.5660843331916, -2830.759028286818, -3367.6255783588385, -2117.648973184702, -8221.373942062133, -15168.05024958256, 0.01, -0.107, 0.988, 192.0, 0.0, 0.0, 0.0, 0.0, 0.0, 0.0, 0.0, 0.0, 0.0, 1.645922830354372E9, 0.0, 2022-02-27 11:47:10.354
54.0, -420.8386446045214, -2950.609082056175, -1935.1246279626644, -9197.988712547865, 422.09034229401857, 371.10601319146315, -4821.517148198742, -1386.545763796063, -1797.5049373513386, -4054.315871514782, -3498.36093167793, -2633.2813660241804, -3025.9568126150148, -1775.7343382518695, -7956.125790611004, -14585.049698954786, 0.01, -0.107, 0.988, 192.0, 0.0, 0.0, 0.0, 0.0, 0.0, 0.0, 0.0, 0.0, 0.0, 1.645922830361654E9, 0.0, 2022-02-27 11:47:10.361
56.0, -1000.1288056527145, -3413.4019510033077, -2400.756168455621, -9713.241125731603, -142.49237090258254, -17.613174630781966, -5176.9545885270345, -1840.2861762387963, -3767.4982866642817, -4983.902571666547, -3703.438187055372, -2845.667641838508, -3170.840820174315, -2010.15943409913, -8361.474676307998, -15610.972417708925, 0.011, -0.1075, 0.988, 192.0, 0.0, 48.0, 126.0, 80.0, 15.0, 112.0, 0.0, 0.0, 0.0, 1.645922830369726E9, 0.0, 2022-02-27 11:47:10.369
58.0, -717.8486249266416, -3179.558000511885, -2132.959918136587, -9421.528508845391, 156.88689433180028, 235.1850551587409, -4876.435384325431, -1436.0772295090235, -1177.8028223279503, -4105.635476784168, -3690.138899104464, -2677.873096212518, -3235.4373616501525, -1928.6426220706253, -7968.866284950529, -14545.665925224535, 0.011, -0.1075, 0.988, 192.0, 0.0, 0.0, 0.0, 0.0, 0.0, 0.0, 0.0, 0.0, 0.0, 1.645922830377793E9, 0.0, 2022-02-27 11:47:10.377
60.0, -574.4398325013915, -3083.199630165056, -2091.4750804275373, -9359.211845303995, 254.1393344568413, 228.07720042195328, -5019.553604072762, -1637.8687784515357, -3282.5771907063954, -4539.304022706035, -3485.9780652496893, -2717.793311809696, -2973.1619922115797, -1799.9636292414225, -8177.251598507357, -15184.657595712853, 0.011, -0.1075, 0.988, 192.0, 0.0, 0.0, 0.0, 0.0, 0.0, 0.0, 0.0, 0.0, 0.0, 1.645922830384353E9, 0.0, 2022-02-27 11:47:10.384
62.0, -1035.0645822363595, -3431.3727535453745, -2384.4617467477024, -9704.948628538685, -154.7634786085461, 37.640337662737096, -5052.880055055625, -1666.3896043765074, -2290.115033401851, -4692.50287920271, -3861.554427332214, -2826.869824751595, -3371.9841685276233, -2117.2689935289613, -8225.173738619535, -15165.122171058914, 0.011, -0.1075, 0.988, 192.0, 0.0, 0.0, 0.0, 0.0, 0.0, 0.0, 0.0, 0.0, 0.0, 1.64592283039234E9, 0.0, 2022-02-27 11:47:10.392
64.0, -426.09130455151853, -2956.7111082924735, -1936.5104361188933, -9203.509593428325, 412.5461474116025, 373.4305946148151, -4815.146901028979, -1388.3115516080322, -1800.4106641305286, -4049.8455226237206, -3495.9469432767564, -2633.393124746457, -3027.9684696159925, -1771.0628236607104, -7959.702069723853, -14586.904893744577, 0.011, -0.1075, 0.988, 192.0, 0.0, 0.0, 0.0, 0.0, 0.0, 0.0, 0.0, 0.0, 0.0, 1.645922830407441E9, 0.0, 2022-02-27 11:47:10.407
66.0, -1014.5903843152981, -3430.4786837671622, -2402.566659756501, -9720.036056046016, -143.94523429217747, -15.06507576287696, -5182.967207785512, -1851.9984903333773, -3777.757737369268, -4996.888935195081, -3708.8473092135564, -2857.3352524441784, -3176.1605353546784, -2014.0262858898982, -8362.256987363933, -15615.174545666523, 0.0115, -0.10575000000000001, 0.988, 192.0, 0.0, 48.0, 126.0, 96.0, 15.0, 112.0, 0.0, 0.0, 0.0, 1.64592283041398E9, 0.0, 2022-02-27 11:47:10.413
68.0, -726.09641863065, -3185.2576953479884, -2131.730572191545, -9420.500328600447, 156.79748735397905, 249.57957858795865, -4885.040805940725, -1434.8478835639817, -1164.0341477434813, -4100.628686026178, -3692.754053205735, -2681.8964102144732, -3232.9563180156138, -1927.9050145036001, -7964.664156992932, -14539.675657710512, 0.0115, -0.10575000000000001, 0.988, 192.0, 0.0, 0.0, 0.0, 0.0, 0.0, 0.0, 0.0, 0.0, 0.0, 1.645922830421864E9, 0.0, 2022-02-27 11:47:10.421
70.0, -580.810079671154, -3087.8264412673047, -2086.021254780442, -9354.786199901844, 266.2092764627071, 235.98971795913198, -4984.573124000207, -1615.8970136519688, -3275.26817026951, -4537.806455827529, -3493.9129345313236, -2724.5658903796543, -2976.8053265577946, -1794.2415826608637, -8171.104868782148, -15177.259168298146, 0.0115, -0.10575000000000001, 0.988, 192.0, 0.0, 0.0, 0.0, 0.0, 0.0, 0.0, 0.0, 0.0, 0.0, 1.645922830430026E9, 0.0, 2022-02-27 11:47:10.430
72.0, -1056.5893121468202, -3447.1307333863656, -2391.368435784392, -9712.324704208935, -152.10362101836455, 39.964919086089026, -5050.063735254256, -1668.244799166298, -2349.8388945864317, -4714.452292257821, -3870.8304012811664, -2839.4538568799326, -3376.2086482296763, -2111.412836481671, -8225.263145597357, -15183.830581168007, 0.0115, -0.10575000000000001, 0.988, 192.0, 0.0, 0.0, 0.0, 0.0, 0.0, 0.0, 0.0, 0.0, 0.0, 1.645922830436665E9, 0.0, 2022-02-27 11:47:10.436
74.0, -432.08157206554085, -2954.0065472133815, -1942.4336483995496, -9204.470718439903, 432.34979299900453, 391.5578593680691, -4811.481214938309, -1386.2104876292335, -1770.68284400497, -4045.5986911772125, -3504.127681747399, -2639.8304271495854, -3030.471864994987, -1764.9384456799562, -7958.360965056535, -14577.807733751266, 0.0115, -0.10575000000000001, 0.988, 192.0, 0.0, 0.0, 0.0, 0.0, 0.0, 0.0, 0.0, 0.0, 0.0, 1.645922830444759E9, 0.0, 2022-02-27 11:47:10.444
76.0, -1009.7847592574071, -3418.028762105556, -2406.0982353804393, -9710.022474530038, -132.3223271754178, 8.001924514999928, -5157.150942939633, -1813.397027659062, -3787.7266153963346, -4984.930751911492, -3707.886184201978, -2855.7035750989407, -3169.119735851257, -1997.2624775484178, -8360.871179207705, -15605.630350784106, 0.01075, -0.105875, 0.99, 192.0, 0.0, 40.0, 126.0, 88.0, 15.5, 0.0, 0.0, 0.0, 0.0, 1.645922830452585E9, 0.0, 2022-02-27 11:47:10.452
78.0, -740.1333141485827, -3193.4160820741754, -2142.9064444191986, -9435.364238663225, 141.55359763545962, 242.20350291770734, -4877.731785503839, -1430.3328311840096, -1186.654113132252, -4122.1981194255495, -3710.680152258891, -2690.5912388075876, -3246.8591030668144, -1943.417125155583, -7971.213218118337, -14548.750465959367, 0.01075, -0.105875, 0.99, 192.0, 0.0, 0.0, 0.0, 0.0, 0.0, 0.0, 0.0, 0.0, 0.0, 1.645922830459894E9, 0.0, 2022-02-27 11:47:10.459
80.0, -562.3698904955257, -3063.954778189037, -2070.352681917272, -9345.443170719525, 282.0119597926092, 242.85170350691124, -4981.399176287553, -1608.1186065815218, -3230.1176464697896, -4515.521766605588, -3484.0111117376223, -2715.133454219515, -2966.4564688749874, -1798.0860827071767, -8161.024232032804, -15156.695563399264, 0.01075, -0.105875, 0.99, 192.0, 0.0, 0.0, 0.0, 0.0, 0.0, 0.0, 0.0, 0.0, 0.0, 1.64592283046629E9, 0.0, 2022-02-27 11:47:10.466
82.0, -1051.8283905778399, -3439.6652507382933, -2382.7406624246437, -9709.26251521856, -155.63519664230307, 41.66365166469237, -5057.99860453589, -1670.2341044228203, -2345.8155805844763, -4712.015952112192, -3859.43101160896, -2827.920356740994, -3363.557560867973, -2123.281612787439, -8222.133901373614, -15182.71299394524, 0.01075, -0.105875, 0.99, 192.0, 0.0, 0.0, 0.0, 0.0, 0.0, 0.0, 0.0, 0.0, 0.0, 1.645922830474366E9, 0.0, 2022-02-27 11:47:10.474
84.0, -431.27690926514975, -2948.038631443814, -1935.5940145962256, -9199.665093382013, 413.0378857896192, 381.3431121519938, -4829.876700625026, -1376.1074991354346, -1759.529323521772, -4045.062249310285, -3497.8468415554576, -2632.074371823594, -3028.9519463720258, -1770.235809115864, -7956.14814235546, -14570.543416803292, 0.01075, -0.105875, 0.99, 192.0, 0.0, 0.0, 0.0, 0.0, 0.0, 0.0, 0.0, 0.0, 0.0, 1.645922830482377E9, 0.0, 2022-02-27 11:47:10.482
86.0, -999.6147155302425, -3409.468043979173, -2391.1896218287498, -9704.546297138488, -130.1095044743424, -4.358590168784877, -5169.131477967677, -1820.3484201846625, -3796.264981778262, -4981.13095535409, -3699.504280031238, -2842.51604587031, -3165.521104993952, -2001.06227410582, -8360.84882746325, -15603.931618205503, 0.010374999999999999, -0.10593749999999999, 0.989, 192.0, 0.0, 40.0, 126.0, 88.0, 15.0, 112.0, 0.0, 0.0, 0.0, 1.645922830489512E9, 0.0, 2022-02-27 11:47:10.489
88.0, -737.160532136027, -3189.2139541165775, -2131.730572191545, -9429.061046726829, 149.60022563937017, 246.96442448668773, -4868.545218532708, -1429.125836983423, -1175.008854271037, -4116.118444933706, -3699.4595765423273, -2681.002340436261, -3240.9135390417027, -1940.5561018653038, -7966.318186082624, -14544.25776532385, 0.010374999999999999, -0.10593749999999999, 0.989, 192.0, 0.0, 0.0, 0.0, 0.0, 0.0, 0.0, 0.0, 0.0, 0.0, 1.645922830496965E9, 0.0, 2022-02-27 11:47:10.496
90.0, -555.5302566922018, -3059.9985194204473, -2064.228303936518, -9335.22842350345, 283.39776794883824, 246.69620355322405, -4980.326292553698, -1610.6220019605164, -3217.310096896899, -4514.985324738661, -3478.6690448128043, -2711.0877884731044, -2964.1989426850014, -1793.0569402047327, -8157.9620430424275, -15148.872452839907, 0.010374999999999999, -0.10593749999999999, 0.989, 192.0, 0.0, 0.0, 0.0, 0.0, 0.0, 0.0, 0.0, 0.0, 0.0, 1.645922830504902E9, 0.0, 2022-02-27 11:47:10.504
92.0, -1054.890579568217, -3443.1074193844106, -2389.4238340167803, -9710.11188150786, -150.53899890649308, 32.99117481603322, -5066.536970917818, -1682.147584217499, -2393.1565753408167, -4731.417266299399, -3858.3357761306497, -2832.3012986542344, -3363.1775812122323, -2113.5362522049254, -8237.19897713649, -15205.221200611735, 0.010374999999999999, -0.10593749999999999, 0.989, 192.0, 0.0, 0.0, 0.0, 0.0, 0.0, 0.0, 0.0, 0.0, 0.0, 1.645922830512938E9, 0.0, 2022-02-27 11:47:10.512
94.0, -438.2953570241162, -2959.460372860476, -1938.6115000976922, -9201.185012004973, 407.9416880538092, 380.7396150517005, -4819.192566775389, -1379.4379090592754, -1728.8403783846354, -4047.5879964337346, -3503.770053836114, -2635.382430002979, -3037.914995898604, -1779.1988586424422, -7958.00333714525, -14558.45112305297, 0.010374999999999999, -0.10593749999999999, 0.989, 192.0, 0.0, 0.0, 0.0, 0.0, 0.0, 0.0, 0.0, 0.0, 0.0, 1.645922830526492E9, 0.0, 2022-02-27 11:47:10.526
96.0, -996.1278433952145, -3408.1716428007658, -2388.1050810939173, -9702.378177926324, -134.98218476559936, -6.61611635877089, -5183.101318252244, -1831.9936790458776, -3802.143490570008, -4987.612961246128, -3693.6481229839474, -2851.3673366746116, -3158.525008979441, -1997.5754019707922, -8363.151057142146, -15604.333949605698, 0.0111875, -0.10596875, 0.9884999999999999, 192.0, 0.0, 48.0, 126.0, 88.0, 15.0, 112.0, 0.0, 0.0, 0.0, 1.645922830534555E9, 0.0, 2022-02-27 11:47:10.534
98.0, -740.4462385709571, -3187.2022971156, -2134.5915954818247, -9433.039657239873, 133.99870800956583, 240.34830812791685, -4896.3060851462, -1446.9401773143027, -1185.134194509291, -4128.925994506597, -3706.6121347680255, -2689.5630585626436, -3247.7978763339374, -1935.7057733185022, -7977.985796688295, -14552.773779961322, 0.0111875, -0.10596875, 0.9884999999999999, 192.0, 0.0, 0.0, 0.0, 0.0, 0.0, 0.0, 0.0, 0.0, 0.0, 1.645922830543284E9, 0.0, 2022-02-27 11:47:10.543
100.0, -546.2766344877047, -3047.012155891914, -2055.0417369653865, -9328.299382722305, 284.2918377270505, 256.53097111355913, -4984.215496088922, -1597.6132866875275, -3195.8300704753483, -4499.3391036199455, -3476.9703122342007, -2706.706846559864, -2961.092050205714, -1777.8354022306685, -8160.241920976869, -15134.589688132965, 0.0111875, -0.10596875, 0.9884999999999999, 192.0, 0.0, 0.0, 0.0, 0.0, 0.0, 0.0, 0.0, 0.0, 0.0, 1.645922830549792E9, 0.0, 2022-02-27 11:47:10.549
102.0, -1054.0635650233705, -3436.9830414036564, -2380.527839723568, -9709.217811729648, -164.93352233571082, 37.930910340656084, -5056.545741146296, -1675.5538196031832, -2397.470462020691, -4725.136426107458, -3858.0675551971863, -2829.3285166416786, -3361.7694213115483, -2104.260278255973, -8234.58382303522, -15200.974369165227, 0.0111875, -0.10596875, 0.9884999999999999, 192.0, 0.0, 0.0, 0.0, 0.0, 0.0, 0.0, 0.0, 0.0, 0.0, 1.645922830556882E9, 0.0, 2022-02-27 11:47:10.556
104.0, -435.32257501156033, -2951.9725384679487, -1927.4132761255833, -9197.63108463658, 413.2614032341723, 384.0253214866306, -4810.453034693365, -1370.4301560437866, -1725.91229986099, -4033.4616939379807, -3501.4901759016725, -2630.71091541182, -3028.080228338269, -1768.693538748448, -7947.766238184719, -14554.606623006657, 0.0111875, -0.10596875, 0.9884999999999999, 192.0, 0.0, 0.0, 0.0, 0.0, 0.0, 0.0, 0.0, 0.0, 0.0, 1.645922830564536E9, 0.0, 2022-02-27 11:47:10.564
106.0, -990.2046311145582, -3397.6886746512264, -2380.6843019347552, -9693.169259210737, -125.639155583281, 4.470348891061413, -5172.394832658152, -1827.6127371326372, -3801.0482550916977, -4973.464307005919, -3682.963989134311, -2836.4587231229216, -3145.4715902175417, -1990.6016577007365, -8352.802199459338, -15600.668263515028, 0.004, -0.10400000000000001, 0.99, 192.0, 0.0, 16.0, 126.0, 96.0, 15.0, 120.0, 0.0, 0.0, 0.0, 1.645922830572456E9, 0.0, 2022-02-27 11:47:10.572
108.0, -744.737773506376, -3190.4656518060747, -2132.937566392132, -9427.049389725851, 132.21056845314126, 237.7108022821906, -4881.173954149956, -1442.8498080789816, -1173.0866042478806, -4118.934764735075, -3701.4488817988495, -2677.3143026011353, -3240.332393685865, -1937.2480436859184, -7970.0732791511155, -14547.655230481058, 0.004, -0.10400000000000001, 0.99, 192.0, 0.0, 0.0, 0.0, 0.0, 0.0, 0.0, 0.0, 0.0, 0.0, 1.645922830579448E9, 0.0, 2022-02-27 11:47:10.579
110.0, -552.713936890833, -3055.3270048292884, -2051.7560305304564, -9319.448091918004, 287.3763784618829, 248.93137799875475, -4981.466231520919, -1602.3295047675974, -3185.1906401146225, -4499.473214086677, -3477.5961610789495, -2704.8516517700737, -2961.8967130061046, -1789.3465506251516, -8152.865845306617, -15129.940525286262, 0.004, -0.10400000000000001, 0.99, 192.0, 0.0, 0.0, 0.0, 0.0, 0.0, 0.0, 0.0, 0.0, 0.0, 1.645922830586658E9, 0.0, 2022-02-27 11:47:10.586
112.0, -1077.3093792568898, -3462.218160893698, -2388.507412494113, -9710.78243384152, -173.58364743991464, 27.649107891214836, -5075.276502999843, -1692.988180278323, -2456.4343638937908, -4750.438600830866, -3862.3143866436944, -2835.8105225337176, -3361.1435724667995, -2115.123226061252, -8235.991982935904, -15222.141471164403, 0.004, -0.10400000000000001, 0.99, 192.0, 0.0, 0.0, 0.0, 0.0, 0.0, 0.0, 0.0, 0.0, 0.0, 1.645922830594102E9, 0.0, 2022-02-27 11:47:10.594
114.0, -476.9191714428868, -2991.5574778982973, -1936.5998430967145, -9201.006198049332, 404.23129847422825, 373.85527775946593, -4822.187700532401, -1382.5671532830183, -1701.8394710826244, -4041.0165835638745, -3515.0800365304995, -2636.4329619923788, -3038.920824399093, -1783.1327656665762, -7942.558281726633, -14546.805864191756, 0.004, -0.10400000000000001, 0.99, 192.0, 0.0, 0.0, 0.0, 0.0, 0.0, 0.0, 0.0, 0.0, 0.0, 1.645922830602077E9, 0.0, 2022-02-27 11:47:10.602
116.0, -1041.144256728203, -3453.6127392784047, -2384.8193746589873, -9691.001139998572, -125.75091430555753, -5.85615704729045, -5179.100355994744, -1836.0393447922881, -3829.3455635721166, -4990.2281153474, -3695.436262540372, -2853.1778279754913, -3149.4054972416757, -1997.5977537152476, -8351.975184914492, -15600.623560026117, 0.012, -0.098, 0.988, 192.0, 0.0, 48.0, 126.0, 120.0, 15.0, 112.0, 0.0, 0.0, 0.0, 1.645922830609207E9, 0.0, 2022-02-27 11:47:10.609
118.0, -846.4382107780232, -3291.607295466339, -2151.288348589939, -9441.980355021997, 114.59739382235931, 230.17826440075214, -4891.6792740439505, -1450.2035320047776, -1220.4499507486762, -4162.8782943342085, -3735.2894229041844, -2708.718503560842, -3258.772582861493, -1957.4316689290606, -7976.778802487708, -14564.173169633528, 0.012, -0.098, 0.988, 192.0, 0.0, 0.0, 0.0, 0.0, 0.0, 0.0, 0.0, 0.0, 0.0, 1.645922830616807E9, 0.0, 2022-02-27 11:47:10.616
120.0, -663.8021068337091, -3170.147916096201, -2053.9241497426215, -9321.70561810799, 298.4404919672599, 255.9498257577212, -4978.694615208461, -1591.0418738176672, -3187.068186648868, -4522.160234708815, -3507.1675189933208, -2732.746628850297, -2967.9763874979485, -1794.8450797611572, -8144.908624280528, -15113.80256578953, 0.012, -0.098, 0.988, 192.0, 0.0, 0.0, 0.0, 0.0, 0.0, 0.0, 0.0, 0.0, 0.0, 1.645922830624722E9, 0.0, 2022-02-27 11:47:10.624
122.0, -1239.7842097025168, -3613.695933067314, -2400.8455754334423, -9719.454910690178, -163.57006592393708, 29.414895703184094, -5083.457241470485, -1701.5488984047054, -2511.0843790870167, -4798.181926987401, -3903.9333348194764, -2874.501392185854, -3364.7869068130144, -2128.511920989981, -8239.858834726672, -15225.002494454682, 0.012, -0.098, 0.988, 192.0, 0.0, 0.0, 0.0, 0.0, 0.0, 0.0, 0.0, 0.0, 0.0, 1.645922830632754E9, 0.0, 2022-02-27 11:47:10.632
124.0, -652.581531117145, -3160.4472590025975, -1944.5347123783486, -9204.113090528619, 419.1175602814627, 390.9767140122311, -4829.876700625026, -1384.3105893505324, -1754.0307943857665, -4083.931932918064, -3567.740746467203, -2674.4309275664004, -3038.853769165727, -1784.339759867163, -7943.318241038113, -14546.135311858096, 0.012, -0.098, 0.988, 192.0, 0.0, 0.0, 0.0, 0.0, 0.0, 0.0, 0.0, 0.0, 0.0, 1.64592283063937E9, 0.0, 2022-02-27 11:47:10.639
126.0, -1226.2837560515113, -3629.655078608403, -2392.821299173987, -9693.884515033307, -116.1173124453202, 19.80364558740206, -5170.472582634996, -1814.782835815291, -3893.5621253922136, -5036.965613003446, -3747.5158271212376, -2892.919229617027, -3146.298604762388, -1988.2994280218397, -8347.482484278975, -15597.18139138, 0.012, -0.1, 0.99, 192.0, 0.0, 48.0, 126.0, 112.0, 15.0, 120.0, 0.0, 0.0, 0.0, 1.645922830654384E9, 0.0, 2022-02-27 11:47:10.654
128.0, -1005.0238376884267, -3435.932509414257, -2163.7829737404554, -9446.137779490684, 130.42242889671672, 248.0596599649978, -4892.550992077708, -1407.1987756727667, -1270.9872449621255, -4204.653704721178, -3785.3573304840725, -2746.761172623774, -3257.4091264497197, -1950.7708490813793, -7975.325939098113, -14553.220814850429, 0.012, -0.1, 0.99, 192.0, 0.0, 0.0, 0.0, 0.0, 0.0, 0.0, 0.0, 0.0, 0.0, 1.645922830662354E9, 0.0, 2022-02-27 11:47:10.662
130.0, -792.2128787294482, -3285.8181936524147, -2066.8881615266996, -9327.18179549954, 305.83891938196655, 265.02463400657587, -4949.480885205375, -1558.475382146285, -3225.2449661785326, -4548.4682379327105, -3556.27430156163, -2769.0458618457155, -2972.82671604475, -1789.1900884139645, -8142.964022512916, -15100.168001671793, 0.012, -0.1, 0.99, 192.0, 0.0, 0.0, 0.0, 0.0, 0.0, 0.0, 0.0, 0.0, 0.0, 1.645922830669195E9, 0.0, 2022-02-27 11:47:10.669
132.0, -1316.741265862139, -3683.701596701336, -2415.396561073847, -9732.374218985346, -172.98015033962136, 24.51986366747185, -5059.898502814592, -1671.0611189676665, -2592.444728904334, -4843.53361648722, -3945.1499515950627, -2913.773407193829, -3372.386499927819, -2126.097932588808, -8240.462331826966, -15236.312477149067, 0.012, -0.1, 0.99, 192.0, 0.0, 0.0, 0.0, 0.0, 0.0, 0.0, 0.0, 0.0, 0.0, 1.645922830677026E9, 0.0, 2022-02-27 11:47:10.677
134.0, -674.128612772061, -3180.787346456927, -1950.8379043147452, -9213.34436098866, 415.13894976841806, 378.03505397260835, -4803.658104378951, -1375.0569671460353, -1738.429276755962, -4099.175822636584, -3586.7620809986693, -2696.737968532797, -3052.622443750196, -1785.2561813898303, -7933.975211855795, -14531.629029706603, 0.012, -0.1, 0.99, 192.0, 0.0, 0.0, 0.0, 0.0, 0.0, 0.0, 0.0, 0.0, 0.0, 1.645922830685051E9, 0.0, 2022-02-27 11:47:10.685
136.0, -1167.3198541784113, -3578.08960415001, -2379.164383311794, -9684.474430617624, -92.4021115782394, 23.581090400348952, -5153.015870215401, -1790.7100070369254, -3890.9469712909427, -5029.634240822106, -3735.5799955821035, -2896.0931773296807, -3141.045944815391, -1975.4695267044935, -8341.067533620302, -15589.000652909357, 0.012, -0.108, 0.99, 192.0, 0.0, 48.0, 126.0, 80.0, 15.0, 120.0, 0.0, 0.0, 0.0, 1.6459228306922E9, 0.0, 2022-02-27 11:47:10.692
138.0, -950.2620637729244, -3389.418529202763, -2171.7848982554556, -9461.15815176465, 119.02303922451011, 232.52519756855938, -4906.319666662177, -1439.832322577515, -1281.9843032341366, -4218.243565350004, -3783.233914760818, -2751.5220941927546, -3267.8920945992586, -1959.711546863502, -7977.829334477107, -14575.751373261379, 0.012, -0.108, 0.99, 192.0, 0.0, 0.0, 0.0, 0.0, 0.0, 0.0, 0.0, 0.0, 0.0, 1.645922830699706E9, 0.0, 2022-02-27 11:47:10.699
140.0, -679.2695139967816, -3189.5492302834073, -2046.6374810501911, -9313.256658703884, 323.7873701795781, 270.567866631492, -4950.2184927724, -1579.2401527452653, -3138.3637354807543, -4497.819184996985, -3518.41044645434, -2742.6708033884534, -2957.5828263262306, -1776.0249109297886, -8128.547147339243, -15081.347832840424, 0.012, -0.108, 0.99, 192.0, 0.0, 0.0, 0.0, 0.0, 0.0, 0.0, 0.0, 0.0, 0.0, 1.645922830706638E9, 0.0, 2022-02-27 11:47:10.706
142.0, -1210.1234448103244, -3595.345150869507, -2403.907764423819, -9724.752274126085, -163.21243801265217, 29.884282336745542, -5069.085069785723, -1674.6373980805158, -2554.782039497142, -4812.218822505334, -3902.078140029686, -2884.224401023913, -3359.1989706991876, -2118.7889121519224, -8241.199939393991, -15241.475730118244, 0.012, -0.108, 0.99, 192.0, 0.0, 0.0, 0.0, 0.0, 0.0, 0.0, 0.0, 0.0, 0.0, 1.645922830714641E9, 0.0, 2022-02-27 11:47:10.714
144.0, -574.328073779115, -3092.5203076029193, -1939.5279216203598, -9211.53386968778, 415.8542055909879, 376.31396964954973, -4801.825261333616, -1363.4117082848202, -1686.148546474999, -4062.1389820741397, -3546.528940979116, -2669.3347298305907, -3042.787676189861, -1786.8431552461573, -7933.192900799859, -14529.617372705625, 0.012, -0.108, 0.99, 192.0, 0.0, 0.0, 0.0, 0.0, 0.0, 0.0, 0.0, 0.0, 0.0, 1.645922830721935E9, 0.0, 2022-02-27 11:47:10.721
146.0, -1091.010998607993, -3506.5863736374827, -2379.522011223079, -9691.738747565598, -107.31072512992921, 14.103950751298756, -5159.0508412183335, -1798.041379218266, -3861.330909887661, -5000.286400352287, -3703.0135039107213, -2875.753089875351, -3133.4910551894973, -1978.4423087170494, -8335.948984140037, -15591.794620966271, 0.01, -0.10400000000000001, 0.99, 192.0, 0.0, 40.0, 126.0, 96.0, 15.0, 120.0, 0.0, 0.0, 0.0, 1.645922830729265E9, 0.0, 2022-02-27 11:47:10.729
148.0, -872.1650686460816, -3317.960002179146, -2164.542933051936, -9458.475942430014, 123.29222241547376, 232.6369562908359, -4882.827983239649, -1433.8420550634928, -1236.587910245408, -4191.197954559083, -3756.948263281377, -2743.251948744291, -3264.6063881643286, -1981.5715529407923, -7968.1286773835045, -14570.968099947942, 0.01, -0.10400000000000001, 0.99, 192.0, 0.0, 0.0, 0.0, 0.0, 0.0, 0.0, 0.0, 0.0, 0.0, 1.645922830737338E9, 0.0, 2022-02-27 11:47:10.737
150.0, -622.0937516801062, -3132.373467966732, -2050.8843124966997, -9313.055493003785, 318.758227677134, 266.7680700740898, -4933.097056519635, -1556.0390420006565, -3133.4910551894973, -4504.3235426334795, -3512.3307719624963, -2741.1061812765815, -2968.7363468094286, -1805.5515653552493, -8126.803711271729, -15091.115545167393, 0.01, -0.10400000000000001, 0.99, 192.0, 0.0, 0.0, 0.0, 0.0, 0.0, 0.0, 0.0, 0.0, 0.0, 1.645922830744767E9, 0.0, 2022-02-27 11:47:10.744
152.0, -1152.7018133046406, -3534.6154611844377, -2415.0612849070176, -9730.20609977318, -170.9237898497331, 17.300250208407668, -5065.57584590624, -1683.9580755183788, -2583.235810188748, -4811.838842849594, -3892.8915730585545, -2875.3284067307004, -3358.774287554537, -2130.2330053130395, -8241.468160327455, -15260.854692560995, 0.01, -0.10400000000000001, 0.99, 192.0, 0.0, 0.0, 0.0, 0.0, 0.0, 0.0, 0.0, 0.0, 0.0, 1.645922830752036E9, 0.0, 2022-02-27 11:47:10.752
154.0, -521.5779568645903, -3037.7808854318723, -1951.1061252482089, -9212.24912551035, 400.207984472273, 376.0904522049966, -4816.823281863128, -1360.5283332500856, -1637.5782057736167, -4044.0787725542514, -3543.3549932664628, -2656.8177529356185, -3050.208455349023, -1787.8266320021908, -7928.543737953155, -14519.648494678557, 0.01, -0.10400000000000001, 0.99, 192.0, 0.0, 0.0, 0.0, 0.0, 0.0, 0.0, 0.0, 0.0, 0.0, 1.64592283076035E9, 0.0, 2022-02-27 11:47:10.760
156.0, -1017.3843523722115, -3439.084105382455, -2369.37431924037, -9674.773773524019, -97.85593722533432, 13.008715272988711, -5167.700966322537, -1817.5321003832937, -3850.5126655712925, -4978.001711130347, -3689.0436636261543, -2860.5986071346533, -3128.9312993206145, -1977.034148816365, -8344.822626688794, -15589.201818609456, 0.014, -0.10400000000000001, 0.988, 192.0, 0.0, 56.0, 126.0, 96.0, 15.0, 112.0, 0.0, 0.0, 0.0, 1.645922830774309E9, 0.0, 2022-02-27 11:47:10.774
158.0, -834.3012135387914, -3276.4081092367305, -2166.576941797369, -9472.222265270027, 101.05223668244324, 205.90426992228865, -4891.455756599397, -1476.735052673227, -1241.7958667034945, -4191.846155148287, -3749.1251527220197, -2723.224785712336, -3267.3333009878756, -1971.3121022358064, -7983.260808379747, -14600.628864840135, 0.014, -0.10400000000000001, 0.988, 192.0, 0.0, 0.0, 0.0, 0.0, 0.0, 0.0, 0.0, 0.0, 0.0, 1.645922830781546E9, 0.0, 2022-02-27 11:47:10.781
160.0, -557.296044504171, -3075.1306504166905, -2024.2633848504288, -9298.146879452095, 326.2460620696619, 276.8934103123439, -4947.826856115682, -1548.0147657412012, -3062.7477839884505, -4467.040832882027, -3485.9110100163234, -2720.386114166512, -2952.285462890323, -1784.7420912673583, -8119.360580368112, -15072.295376336024, 0.014, -0.10400000000000001, 0.988, 192.0, 0.0, 0.0, 0.0, 0.0, 0.0, 0.0, 0.0, 0.0, 0.0, 1.6459228307896E9, 0.0, 2022-02-27 11:47:10.789
162.0, -1105.070245870381, -3496.393978165863, -2400.0856161219617, -9727.143910782805, -173.87422011783363, 20.720067110069646, -5068.570979663251, -1688.1825552204318, -2627.224043276792, -4817.38207547451, -3862.448497110426, -2862.1408775020695, -3340.736429779104, -2113.446845227104, -8251.973480221448, -15288.414393474388, 0.014, -0.10400000000000001, 0.988, 192.0, 0.0, 0.0, 0.0, 0.0, 0.0, 0.0, 0.0, 0.0, 0.0, 1.645922830797674E9, 0.0, 2022-02-27 11:47:10.797
164.0, -480.3613400890041, -3001.504004180909, -1938.3656309086837, -9207.711721385924, 413.9319555678315, 376.76100453865587, -4783.89916228046, -1343.6974696752393, -1571.7970218416478, -4027.516129912869, -3524.803045368558, -2644.7254591852975, -3039.189045332557, -1786.105547679132, -7919.535984937666, -14511.53481144128, 0.014, -0.10400000000000001, 0.988, 192.0, 0.0, 0.0, 0.0, 0.0, 0.0, 0.0, 0.0, 0.0, 0.0, 1.645922830804174E9, 0.0, 2022-02-27 11:47:10.804
166.0, -978.984055397994, -3403.187203787232, -2360.3218627359706, -9668.045898442972, -82.6120475068149, 23.245814233519344, -5130.485311804451, -1799.2930769077632, -3827.3786100600496, -4960.433239988475, -3669.1059075720204, -2846.025269749793, -3110.5134618894413, -1968.7640033679013, -8325.577774712774, -15577.55655974824, 0.012, -0.112, 0.994, 192.0, 0.0, 48.0, 126.0, 64.0, 15.5, 8.0, 0.0, 0.0, 0.0, 1.645922830812206E9, 0.0, 2022-02-27 11:47:10.812
168.0, -785.0826722482053, -3231.4140476481975, -2153.3223573353716, -9453.759724349944, 114.01624846652133, 230.17826440075214, -4871.182724378434, -1440.636985377906, -1210.8387006328942, -4166.007538557951, -3728.8744722455112, -2705.9468872483835, -3250.0777542683786, -1952.4695816599826, -7968.352194828057, -14578.366527362648, 0.012, -0.112, 0.994, 192.0, 0.0, 0.0, 0.0, 0.0, 0.0, 0.0, 0.0, 0.0, 0.0, 1.645922830820153E9, 0.0, 2022-02-27 11:47:10.820
170.0, -517.1746632068948, -3032.5058737404197, -2019.5248150259038, -9286.345158379694, 327.43070452579315, 290.97500931918734, -4932.314745463699, -1545.9137017624023, -3044.5534640018304, -4442.655079681287, -3469.1919051637537, -2698.5261080892215, -2943.769448252851, -1766.0336811582663, -8116.924240222484, -15064.092286120927, 0.012, -0.112, 0.994, 192.0, 0.0, 0.0, 0.0, 0.0, 0.0, 0.0, 0.0, 0.0, 0.0, 1.645922830827316E9, 0.0, 2022-02-27 11:47:10.827
172.0, -1077.9575798460937, -3466.73321327367, -2392.508374751613, -9721.734788624619, -173.27072301754035, 23.938718311633863, -5062.33484296022, -1688.0260930092447, -2589.2707811916807, -4795.075034508113, -3853.105467928108, -2843.7230400708963, -3336.3107843769535, -2103.992057322509, -8247.458427841477, -15277.819666602572, 0.012, -0.112, 0.994, 192.0, 0.0, 0.0, 0.0, 0.0, 0.0, 0.0, 0.0, 0.0, 0.0, 1.645922830833965E9, 0.0, 2022-02-27 11:47:10.833
174.0, -452.7792874311552, -2971.753832310895, -1932.2412529279297, -9203.151965517041, 408.1652054983623, 374.61523707094636, -4796.863174064538, -1368.3961472983538, -1582.7046731358378, -4014.172138473051, -3508.0168852826223, -2626.5981944320433, -3026.0238678483806, -1772.0463004167439, -7924.699237906842, -14522.330704013195, 0.012, -0.11, 0.993, 192.0, 0.0, 48.0, 126.0, 80.0, 15.5, 0.0, 0.0, 0.0, 0.0, 1.645922830841879E9, 0.0, 2022-02-27 11:47:10.841
176.0, -944.115334047715, -3365.3009969354866, -2345.234435228638, -9656.758267493042, -77.69466372664735, 24.564567156382463, -5148.746687024437, -1808.6361060900815, -3818.370857044561, -4946.709268892917, -3645.636575893948, -2828.903833497028, -3097.0353599828914, -1953.0283752713651, -8333.825568416783, -15589.224170353911, 0.012, -0.11, 0.993, 192.0, 0.0, 0.0, 0.0, 0.0, 0.0, 0.0, 0.0, 0.0, 0.0, 1.645922830851395E9, 0.0, 2022-02-27 11:47:10.851
178.0, -766.6871865614876, -3204.971933957569, -2150.4613340450924, -9449.848169070265, 129.1483794627642, 232.14521791281916, -4884.482012329342, -1436.0772295090235, -1201.1603952837463, -4157.737393109488, -3712.2000708818523, -2690.747701018775, -3241.114704741801, -1943.8194565557787, -7979.773936244719, -14592.626940325135, 0.012, -0.11, 0.993, 192.0, 0.0, 0.0, 0.0, 0.0, 0.0, 0.0, 0.0, 0.0, 0.0, 1.645922830857497E9, 0.0, 2022-02-27 11:47:10.857
180.0, -491.11252917200676, -3006.399036216621, -2010.964096899521, -9273.135277406607, 345.08858264548576, 295.2218407656957, -4932.851187330626, -1534.8048847681148, -3005.884946094149, -4424.214890505658, -3452.517503800095, -2686.031482938705, -2934.761695237362, -1752.7120414629032, -8115.717246021896, -15051.776474926053, 0.012, -0.11, 0.993, 192.0, 0.0, 0.0, 0.0, 0.0, 0.0, 0.0, 0.0, 0.0, 0.0, 1.64592283086443E9, 0.0, 2022-02-27 11:47:10.864
182.0, -1063.339538972323, -3449.120038642888, -2397.671627720789, -9713.464643176156, -177.29403701949562, 24.11753226727632, -5079.366872235164, -1689.9930465213117, -2613.3436099700466, -4797.3325606981, -3845.1258951575633, -2837.665717323508, -3326.8783482168137, -2099.454653198082, -8256.06384945677, -15288.50380045221, 0.012, -0.11, 0.993, 192.0, 0.0, 0.0, 0.0, 0.0, 0.0, 0.0, 0.0, 0.0, 0.0, 1.645922830872467E9, 0.0, 2022-02-27 11:47:10.872
184.0, -447.6607379508898, -2961.092050205714, -1938.3656309086837, -9195.48531716887, 398.97863852723106, 378.8620685174547, -4802.182889244901, -1354.873341902893, -1559.1235827354888, -4004.225612190439, -3508.8886033163794, -2619.5350431841666, -3029.443684750043, -1769.20762887092, -7927.828482130585, -14508.427918961994, 0.012, -0.109, 0.9924999999999999, 192.0, 0.0, 48.0, 126.0, 80.0, 15.5, 0.0, 0.0, 0.0, 0.0, 1.645922830879601E9, 0.0, 2022-02-27 11:47:10.879
186.0, -938.728563633986, -3360.0930404774003, -2349.481266675147, -9647.884624944285, -80.33216957237359, 22.687020622136668, -5155.5863208277615, -1809.2843066792855, -3831.0889996396304, -4940.271966489789, -3645.0330787936546, -2824.969926472894, -3102.2209646965225, -1946.3675554236836, -8338.74295219695, -15577.064821370224, 0.012, -0.109, 0.9924999999999999, 192.0, 0.0, 0.0, 0.0, 0.0, 0.0, 0.0, 0.0, 0.0, 0.0, 1.645922830887068E9, 0.0, 2022-02-27 11:47:10.887
188.0, -774.7785180543087, -3215.678419551661, -2161.614854528291, -9454.899663317165, 106.70722802963591, 216.7672177275679, -4878.715262259872, -1453.9362733288137, -1221.3440205268885, -4183.620713188733, -3726.572242566615, -2697.4085208664565, -3257.6326438942724, -1956.3587851952059, -7990.301607883169, -14601.902914274087, 0.012, -0.109, 0.9924999999999999, 192.0, 0.0, 0.0, 0.0, 0.0, 0.0, 0.0, 0.0, 0.0, 0.0, 1.645922830901996E9, 0.0, 2022-02-27 11:47:10.901
190.0, -485.36813084699287, -3001.0346175473474, -2006.940782897566, -9268.039079670796, 342.20520761075113, 294.17130877629626, -4928.291431461744, -1548.5959110970393, -2989.7693383418728, -4421.867957337851, -3459.1336201588656, -2686.2773521277136, -2939.4108580840657, -1757.6741287319815, -8117.259516389313, -15045.182710311738, 0.012, -0.109, 0.9924999999999999, 192.0, 0.0, 0.0, 0.0, 0.0, 0.0, 0.0, 0.0, 0.0, 0.0, 1.645922830909249E9, 0.0, 2022-02-27 11:47:10.909
192.0, -1060.5679226598647, -3445.5661112744942, -2393.0671683629953, -9719.857242090375, -183.03843534450954, 26.285651479441107, -5080.998549580401, -1699.6713518704596, -2663.2774070832024, -4813.872851595027, -3842.5107410562923, -2841.9796040033825, -3323.0114964260456, -2091.296266471895, -8268.44671588501, -15308.441556506343, 0.012, -0.109, 0.9924999999999999, 192.0, 0.0, 0.0, 0.0, 0.0, 0.0, 0.0, 0.0, 0.0, 0.0, 1.645922830916779E9, 0.0, 2022-02-27 11:47:10.916
194.0, -442.56454021507983, -2956.9122739925715, -1929.0896569597314, -9202.570820161203, 397.57047862654673, 386.26049593216135, -4805.446243935376, -1343.8762836308817, -1512.25197461271, -4000.448167377492, -3511.771978351114, -2621.837272863063, -3032.371763273688, -1765.0949078911435, -7930.533043209678, -14498.995482801854, 0.013000000000000001, -0.1075, 0.99225, 192.0, 0.0, 56.0, 126.0, 88.0, 15.5, 0.0, 0.0, 0.0, 0.0, 1.64592283092473E9, 0.0, 2022-02-27 11:47:10.924
196.0, -919.3496011912348, -3344.0891914474005, -2332.5162926335684, -9645.358877820836, -73.71605321360269, 34.37698297226226, -5143.404620099619, -1797.4825856068833, -3820.6730867234573, -4934.862844331604, -3631.532625142649, -2819.359638614612, -3084.6301418101957, -1937.0245262413653, -8338.899414408137, -15572.974452134902, 0.013000000000000001, -0.1075, 0.99225, 192.0, 0.0, 0.0, 0.0, 0.0, 0.0, 0.0, 0.0, 0.0, 0.0, 1.64592283093274E9, 0.0, 2022-02-27 11:47:10.932
198.0, -772.4092331420462, -3208.30234388141, -2158.4856103045477, -9465.449686700069, 90.54691678844891, 219.44942706220473, -4895.546125834719, -1451.4328779498194, -1226.1272938403242, -4187.152288812672, -3726.1028559330534, -2697.609686566554, -3255.5762834043844, -1956.448192173027, -7994.302570140669, -14611.111832989674, 0.013000000000000001, -0.1075, 0.99225, 192.0, 0.0, 0.0, 0.0, 0.0, 0.0, 0.0, 0.0, 0.0, 0.0, 1.64592283093943E9, 0.0, 2022-02-27 11:47:10.939
200.0, -476.69565399833374, -2991.02103603137, -1997.0836635927753, -9270.74364074989, 346.69790824626784, 295.3335994879722, -4939.936690322958, -1542.8738645164806, -2951.927834979038, -4409.306276953969, -3452.517503800095, -2682.8351834815962, -2934.62758477063, -1757.2941490762412, -8114.733769265863, -15032.106939805382, 0.013000000000000001, -0.1075, 0.99225, 192.0, 0.0, 0.0, 0.0, 0.0, 0.0, 0.0, 0.0, 0.0, 0.0, 1.645922830947339E9, 0.0, 2022-02-27 11:47:10.947
202.0, -1063.697166883608, -3443.353288573419, -2395.3470462974365, -9726.83098636043, -185.4524237456827, 18.976631042555695, -5099.5281457338515, -1720.2349567693423, -2673.3580438325457, -4823.171177288435, -3847.204607391907, -2845.08649648267, -3329.8958337182803, -2104.7520166339896, -8273.453506642998, -15317.672826966385, 0.013000000000000001, -0.1075, 0.99225, 192.0, 0.0, 0.0, 0.0, 0.0, 0.0, 0.0, 0.0, 0.0, 0.0, 1.645922830954337E9, 0.0, 2022-02-27 11:47:10.954
204.0, -446.14081932792897, -2957.493419348409, -1933.872930273167, -9208.404625464038, 387.0875104770077, 378.8397167729994, -4813.6046306615635, -1355.2533215586332, -1530.2898323881427, -4005.4773098799365, -3512.6213446404154, -2621.725514140787, -3037.22209182049, -1773.0968324061434, -7929.974249598295, -14508.11499453962, 0.0125, -0.10475000000000001, 0.9901249999999999, 192.0, 0.0, 48.0, 126.0, 104.0, 15.0, 112.0, 0.0, 0.0, 0.0, 1.645922830963366E9, 0.0, 2022-02-27 11:47:10.963
206.0, -903.3904556501456, -3330.99106919659, -2323.0391529845183, -9630.785540435976, -63.456602508616754, 40.05432606391025, -5154.848713260736, -1804.009294987833, -3834.5535200302033, -4937.075667032679, -3630.236223964241, -2817.8173682471956, -3084.6971970435616, -1939.5055698759045, -8334.898452150637, -15574.002632379847, 0.0125, -0.10475000000000001, 0.9901249999999999, 192.0, 0.0, 0.0, 0.0, 0.0, 0.0, 0.0, 0.0, 0.0, 0.0, 1.645922830969077E9, 0.0, 2022-02-27 11:47:10.969
208.0, -784.3227129367249, -3221.132245198756, -2168.029805186964, -9469.562407679845, 74.16308810270884, 212.47568279214894, -4903.905678261003, -1467.1461543019002, -1257.5538465444859, -4204.050207620884, -3727.980402467299, -2697.2744103997243, -3256.045670037946, -1959.8903608191445, -8000.292837654691, -14629.350856465204, 0.0125, -0.10475000000000001, 0.9901249999999999, 192.0, 0.0, 0.0, 0.0, 0.0, 0.0, 0.0, 0.0, 0.0, 0.0, 1.64592283097707E9, 0.0, 2022-02-27 11:47:10.977
210.0, -468.53726727214666, -2985.3660446841773, -1991.3839687566722, -9257.556111521259, 342.0934488884746, 302.2849920135727, -4934.259347231311, -1527.7193817757825, -2923.049381142781, -4397.504555881566, -3450.930529943768, -2678.163668890437, -2936.862759216161, -1752.8685036740906, -8105.480147061366, -15008.30233196048, 0.0125, -0.10475000000000001, 0.9901249999999999, 192.0, 0.0, 0.0, 0.0, 0.0, 0.0, 0.0, 0.0, 0.0, 0.0, 1.645922830985071E9, 0.0, 2022-02-27 11:47:10.985
212.0, -1069.7991931199067, -3450.1035153989214, -2400.040912633051, -9726.74157938261, -196.69535120670216, 16.07090426336578, -5095.571886965262, -1701.593601893616, -2713.7029425743754, -4833.631793693518, -3844.209473634896, -2845.4888278828657, -3330.1193511628335, -2104.349685233794, -8275.822791555262, -15322.724321213285, 0.0125, -0.10475000000000001, 0.9901249999999999, 192.0, 0.0, 0.0, 0.0, 0.0, 0.0, 0.0, 0.0, 0.0, 0.0, 1.645922830991735E9, 0.0, 2022-02-27 11:47:10.991
214.0, -461.22824683526125, -2967.7752217978505, -1941.584282110248, -9211.802090621244, 381.9913127411977, 374.6822923043123, -4804.440415434887, -1351.74409767915, -1508.6533437554056, -4008.1148157256625, -3526.322963991519, -2628.811017133119, -3047.280376825378, -1785.2785331342857, -7927.359095497024, -14493.29578796575, 0.01225, -0.105375, 0.9880625, 192.0, 0.0, 48.0, 126.0, 88.0, 15.0, 104.0, 0.0, 0.0, 0.0, 1.645922830999776E9, 0.0, 2022-02-27 11:47:10.999
216.0, -894.6509235681204, -3322.095074903378, -2317.630030826334, -9628.863290412819, -59.098012339831875, 43.16121854319794, -5154.535788838361, -1801.7964722867575, -3836.9228049424655, -4929.029039028769, -3631.9796600317554, -2820.9466124709384, -3081.65735979764, -1945.8534653012116, -8330.74102768195, -15571.096905600656, 0.01225, -0.105375, 0.9880625, 192.0, 0.0, 0.0, 0.0, 0.0, 0.0, 0.0, 0.0, 0.0, 0.0, 1.645922831007643E9, 0.0, 2022-02-27 11:47:11.007
218.0, -813.6482016620877, -3243.1487134872336, -2179.898581492732, -9486.773250910432, 58.13688732825367, 202.35034255389485, -4913.136948721046, -1465.4250699788417, -1279.5256113440528, -4221.015181662462, -3744.7218590643242, -2709.5008146167775, -3266.1710102762, -1978.8893436061555, -8006.976009246828, -14642.13605429364, 0.01225, -0.105375, 0.9880625, 192.0, 0.0, 0.0, 0.0, 0.0, 0.0, 0.0, 0.0, 0.0, 0.0, 1.645922831021246E9, 0.0, 2022-02-27 11:47:11.021
220.0, -475.913342942398, -2992.987989543437, -1989.9534571115325, -9262.719364490435, 347.70373674675665, 300.4521489682375, -4944.138818280557, -1540.9516144933243, -2906.1961658234795, -4401.170241972237, -3461.5923120489497, -2690.032445196205, -2942.9871371969152, -1772.1804108834758, -8103.915524949494, -15003.273189458036, 0.01225, -0.105375, 0.9880625, 192.0, 0.0, 0.0, 0.0, 0.0, 0.0, 0.0, 0.0, 0.0, 0.0, 1.64592283102927E9, 0.0, 2022-02-27 11:47:11.029
222.0, -1068.3463297303117, -3451.154047388321, -2403.594840001445, -9732.97771608564, -198.32702855193958, 8.44895940410607, -5117.655410487105, -1730.337945263141, -2769.4928967348214, -4853.837770681116, -3844.432991079449, -2852.7531448308405, -3324.777284238015, -2116.9784208510423, -8286.931608549548, -15350.775760504695, 0.01225, -0.105375, 0.9880625, 192.0, 0.0, 0.0, 0.0, 0.0, 0.0, 0.0, 0.0, 0.0, 0.0, 1.645922831037419E9, 0.0, 2022-02-27 11:47:11.037
224.0, -466.23503759325, -2974.793669556817, -1945.875817045667, -9216.58536393468, 376.0010452271754, 373.4752981037257, -4808.866060837038, -1353.2416645576554, -1482.4570992537856, -4008.65125759259, -3532.804969883558, -2630.0850665670714, -3056.198722863045, -1797.4378821179728, -7927.515557708211, -14494.167505999507, 0.011125, -0.1046875, 0.9860312499999999, 192.0, 0.0, 40.0, 126.0, 96.0, 15.0, 96.0, 0.0, 0.0, 0.0, 1.645922831044368E9, 0.0, 2022-02-27 11:47:11.044
226.0, -906.4302928960673, -3333.270947131032, -2325.028458241041, -9634.026543381995, -68.19517233314185, 38.66851790768122, -5154.513437093907, -1809.4854723793833, -3842.108409656097, -4937.969736810892, -3634.773628088669, -2825.059333450715, -3078.5057638294415, -1954.2353694719518, -8328.751722425428, -15565.956004375936, 0.011125, -0.1046875, 0.9860312499999999, 192.0, 0.0, 0.0, 0.0, 0.0, 0.0, 0.0, 0.0, 0.0, 0.0, 1.645922831051984E9, 0.0, 2022-02-27 11:47:11.051
228.0, -798.963105554951, -3229.715315069594, -2178.4680698475922, -9479.933617107108, 67.14464034374241, 209.8381769464227, -4915.617992355585, -1468.5990176914952, -1269.0426431945139, -4215.606059504278, -3746.6888125763912, -2707.8914890159954, -3265.142830031256, -1981.3480354962392, -8001.879811511018, -14634.312943734283, 0.011125, -0.1046875, 0.9860312499999999, 192.0, 0.0, 0.0, 0.0, 0.0, 0.0, 0.0, 0.0, 0.0, 0.0, 1.645922831059967E9, 0.0, 2022-02-27 11:47:11.059
230.0, -468.44786029432544, -2983.153221983102, -1993.417977502105, -9255.052716142263, 351.86116121544376, 312.76796016311175, -4942.149513024034, -1529.5522248211175, -2902.664590199541, -4390.553163355967, -3464.0733556834884, -2683.595142793077, -2943.188302897013, -1771.1298788940762, -8105.770719739285, -15004.72605284763, 0.011125, -0.1046875, 0.9860312499999999, 192.0, 0.0, 0.0, 0.0, 0.0, 0.0, 0.0, 0.0, 0.0, 0.0, 1.645922831067881E9, 0.0, 2022-02-27 11:47:11.067
232.0, -1074.3589489887893, -3452.9868904336563, -2406.7464359696432, -9734.87761436434, -195.37659828383903, 11.399389672206603, -5103.842032413725, -1733.4224859979734, -2775.4608125043887, -4853.591901492107, -3851.5408458162365, -2854.4518774094436, -3328.711191262149, -2119.057133085386, -8288.630341128151, -15350.239318637769, 0.011125, -0.1046875, 0.9860312499999999, 192.0, 0.0, 0.0, 0.0, 0.0, 0.0, 0.0, 0.0, 0.0, 0.0, 1.645922831074006E9, 0.0, 2022-02-27 11:47:11.074
234.0, -473.27583709667175, -2978.7946318143167, -1949.1168199916865, -9226.174262306007, 375.9786934827201, 378.34797839498265, -4815.996267318281, -1348.8830743888707, -1481.67478819785, -4006.8631180361654, -3530.189815782287, -2630.3756392449905, -3046.8333419362716, -1793.7945477717576, -7928.297868764147, -14496.670901378502, 0.0125625, -0.10534375, 0.986015625, 192.0, 0.0, 56.0, 126.0, 88.0, 15.0, 104.0, 0.0, 0.0, 0.0, 1.645922831081452E9, 0.0, 2022-02-27 11:47:11.081
236.0, -902.764606805397, -3330.2087581406545, -2321.1616064502728, -9630.204395080138, -55.0523465934213, 54.091221581843094, -5158.000309228934, -1790.8441175036571, -3847.852807981111, -4933.141760008545, -3635.019497277677, -2827.2051009184243, -3076.024720194903, -1942.4336483995496, -8332.529167238376, -15564.905472386537, 0.0125625, -0.10534375, 0.986015625, 192.0, 0.0, 0.0, 0.0, 0.0, 0.0, 0.0, 0.0, 0.0, 0.0, 1.645922831089625E9, 0.0, 2022-02-27 11:47:11.089
238.0, -824.1088180671715, -3248.8037048344263, -2192.795538043444, -9497.435033015614, 63.63541646425921, 208.67588623474674, -4913.136948721046, -1470.0742328255456, -1301.2738586990665, -4239.79064700492, -3762.8938273064887, -2721.391942667001, -3274.7317284025826, -1995.0943583362532, -8016.542555873699, -14654.518920721881, 0.0125625, -0.10534375, 0.986015625, 192.0, 0.0, 0.0, 0.0, 0.0, 0.0, 0.0, 0.0, 0.0, 0.0, 1.645922831096739E9, 0.0, 2022-02-27 11:47:11.096
240.0, -474.1922586193393, -2983.756719083395, -1989.2382012889627, -9257.7349254769, 367.01564395614196, 314.8690241419106, -4923.195233725934, -1524.9030619744137, -2874.18846776348, -4385.0546342199605, -3471.1365069313656, -2689.9206864739285, -2942.0483639297922, -1779.3776725980847, -8102.440309815444, -14990.979730007617, 0.0125625, -0.10534375, 0.986015625, 192.0, 0.0, 0.0, 0.0, 0.0, 0.0, 0.0, 0.0, 0.0, 0.0, 1.645922831104181E9, 0.0, 2022-02-27 11:47:11.104
242.0, -1094.9896091210378, -3468.7895737635586, -2422.0573809215284, -9747.551053470499, -195.35424653938372, 8.895994293212212, -5109.34056154973, -1713.4176747104734, -2858.5645983892205, -4878.87172447106, -3852.747840016823, -2864.3313484586893, -3323.2126621261436, -2123.415723254171, -8298.129832521658, -15379.475400385309, 0.0125625, -0.10534375, 0.986015625, 192.0, 0.0, 0.0, 0.0, 0.0, 0.0, 0.0, 0.0, 0.0, 0.0, 1.645922831112122E9, 0.0, 2022-02-27 11:47:11.112
244.0, -487.33508435905986, -2986.438928418032, -1959.868009074689, -9231.561032719736, 378.2809231616167, 377.208039427762, -4809.961296315348, -1354.3145482915102, -1446.6272528919285, -4013.255716950383, -3557.995385884689, -2644.9936801187614, -3070.079156169791, -1808.8372717901793, -7930.577746698588, -14488.356052441128, 0.016, -0.108, 0.986, 192.0, 0.0, 64.0, 126.0, 80.0, 15.0, 104.0, 0.0, 0.0, 0.0, 1.645922831120286E9, 0.0, 2022-02-27 11:47:11.120
246.0, -908.3078394303132, -3333.8520924868694, -2326.9283565197416, -9633.892432915263, -47.497456967527505, 49.665576179692295, -5150.758344025415, -1796.655571062037, -3842.6448515230245, -4919.2613267018, -3637.724058356769, -2829.7531997863293, -3073.8566009827377, -1945.7864100678457, -8328.349391025233, -15560.3233647732, 0.016, -0.108, 0.986, 192.0, 0.0, 0.0, 0.0, 0.0, 0.0, 0.0, 0.0, 0.0, 0.0, 1.645922831126768E9, 0.0, 2022-02-27 11:47:11.126
