%OpenBCI Raw EEG Data
%Number of channels = 16
%Sample Rate = 125 Hz
%Board = OpenBCI_GUI$BoardCytonSerialDaisy
Sample Index, EXG Channel 0, EXG Channel 1, EXG Channel 2, EXG Channel 3, EXG Channel 4, EXG Channel 5, EXG Channel 6, EXG Channel 7, EXG Channel 8, EXG Channel 9, EXG Channel 10, EXG Channel 11, EXG Channel 12, EXG Channel 13, EXG Channel 14, EXG Channel 15, Accel Channel 0, Accel Channel 1, Accel Channel 2, Other, Other, Other, Other, Other, Other, Other, Analog Channel 0, Analog Channel 1, Analog Channel 2, Timestamp, Other, Timestamp (Formatted)
0.0, -464.31278757009363, -3142.208235527067, -1652.308005369664, -9033.591632079082, 268.57856137496964, 547.7071461328443, -4758.127600923491, -1353.3757750243874, 0.0, 0.0, 0.0, 0.0, 0.0, 0.0, 0.0, 0.0, 0.0, 0.0, 0.0, 192.0, 0.0, 0.0, 0.0, 0.0, 0.0, 0.0, 0.0, 0.0, 0.0, 1.645922669029556E9, 0.0, 2022-02-27 11:44:29.029
172.0, -882.6703885400759, -3474.8468965109464, -1945.6522996011138, -9388.783203218365, -122.55461484844862, 289.9244773297879, -4902.117538704579, -1554.2061989553213, -2793.8786499355615, -4673.950931304805, -3450.416439821296, -2643.160837073426, -2903.5586599777535, -1664.0426712087003, -8318.02288508688, -15166.23975828168, 0.0, 0.0, 0.0, 192.0, 0.0, 0.0, 0.0, 0.0, 0.0, 0.0, 0.0, 0.0, 0.0, 1.645922669029559E9, 0.0, 2022-02-27 11:44:29.029
0.0, -351.078850159508, -1755.0142711418, -839.1291903411377, -4567.869552119917, 33.684078894147746, 196.538888995515, -2364.5463424380237, -616.1705393994498, -1522.1090939175003, -2197.9140875237094, -1603.7823681571924, -1271.166058917768, -1308.6722861137732, -724.2635755853147, -4110.016418697407, -7494.29404667545, 0.001, -0.052000000000000005, 0.491, 192.0, 0.0, 8.0, 126.0, 96.0, 15.0, 88.0, 0.0, 0.0, 0.0, 1.645922669122915E9, 0.0, 2022-02-27 11:44:29.122
2.0, -360.3995275973711, -3247.350841444831, -1472.3094072710762, -8895.793127512114, 366.97094046723134, 515.9900207507635, -4720.107283605013, -1271.456631595687, -2285.957608933164, -4136.972622510508, -3194.2878001079325, -2492.107748044461, -2603.3300284540687, -1410.1045024519567, -7992.872058495529, -14654.13894106614, 0.001, -0.052000000000000005, 0.491, 192.0, 0.0, 0.0, 0.0, 0.0, 0.0, 0.0, 0.0, 0.0, 0.0, 1.645922669129544E9, 0.0, 2022-02-27 11:44:29.129
4.0, -1060.3667569597671, -3800.578868458136, -1981.4597942185158, -9470.21060826905, -281.18494524776287, 120.18532993618608, -5005.404949832553, -1615.5617374851392, -3190.4880035505303, -4896.104919446101, -3548.473542746728, -2711.3336576621127, -2944.9764424534374, -1752.7120414629032, -8306.64584715913, -15391.299473202167, 0.001, -0.052000000000000005, 0.491, 192.0, 0.0, 0.0, 0.0, 0.0, 0.0, 0.0, 0.0, 0.0, 0.0, 1.645922669136164E9, 0.0, 2022-02-27 11:44:29.136
6.0, -512.2572794267272, -3358.8860462768134, -1549.4899808752516, -8989.938675157866, 241.44354360622688, 486.64218028094535, -4690.804146624106, -1182.0273020300033, -1087.1664985616803, -3906.5484889207473, -3331.3710488523307, -2483.390567706891, -2765.8495623886065, -1507.2004803658106, -7877.492353617234, -14294.566428013615, 0.001, -0.052000000000000005, 0.491, 192.0, 0.0, 0.0, 0.0, 0.0, 0.0, 0.0, 0.0, 0.0, 0.0, 1.645922669144141E9, 0.0, 2022-02-27 11:44:29.144
8.0, -717.5133487598121, -3535.9342141073007, -1767.3524340811293, -9223.089721571174, 13.679267606647922, 266.7904218185451, -4955.359393997121, -1582.145879524455, -3619.9544215148, -4701.465928729288, -3286.2205250526104, -2609.1861855013594, -2669.3347298305907, -1519.4045328384082, -8237.891881214606, -15308.106280339514, 0.01, -0.10200000000000001, 0.99, 192.0, 0.0, 40.0, 126.0, 104.0, 15.0, 120.0, 0.0, 0.0, 0.0, 1.645922669152112E9, 0.0, 2022-02-27 11:44:29.152
10.0, -888.4147868650898, -3654.8678463539895, -1825.6234318761149, -9294.12356545014, -112.49632984356045, 272.7583375881121, -4827.127436057024, -1349.3077575335215, -1475.9080381283807, -4337.065438874417, -3565.058537132566, -2618.752732128231, -2997.950076812515, -1728.5498057067164, -8048.617309167065, -14690.90756069512, 0.01, -0.10200000000000001, 0.99, 192.0, 0.0, 0.0, 0.0, 0.0, 0.0, 0.0, 0.0, 0.0, 0.0, 1.64592266916064E9, 0.0, 2022-02-27 11:44:29.160
12.0, -362.90292297636546, -3251.6423763802504, -1478.3667300184645, -8896.62014205696, 366.8144782560442, 519.9239277748976, -4685.2385622547345, -1239.225416091134, -2266.1986668346726, -4126.936689250075, -3199.652218777206, -2498.030960325117, -2614.1259210259823, -1412.2279181752108, -7986.926494470417, -14630.982533810442, 0.01, -0.10200000000000001, 0.99, 192.0, 0.0, 0.0, 0.0, 0.0, 0.0, 0.0, 0.0, 0.0, 0.0, 1.645922669166846E9, 0.0, 2022-02-27 11:44:29.166
14.0, -1055.5387801574207, -3798.5448597127033, -1985.1701837980968, -9469.87533210222, -270.5902183759473, 116.87727175680062, -5010.8364237351925, -1612.3654380280302, -3228.9553557581135, -4901.156413693001, -3545.8807403899123, -2713.971163507839, -2943.1659511525577, -1747.3923262825401, -8301.370835467676, -15388.483153400799, 0.01, -0.10200000000000001, 0.99, 192.0, 0.0, 0.0, 0.0, 0.0, 0.0, 0.0, 0.0, 0.0, 0.0, 1.64592266917476E9, 0.0, 2022-02-27 11:44:29.174
16.0, -514.7383230612663, -3355.5779880974283, -1556.4637251453073, -8995.571314760604, 244.48338085214866, 480.89778195593146, -4667.223056223757, -1178.3839676837883, -1069.083937297337, -3878.3182356736943, -3338.545958822484, -2487.1233090309274, -2771.772774669263, -1513.5036723022072, -7876.486525116745, -14288.263236077219, 0.01, -0.101, 0.988, 192.0, 0.0, 40.0, 126.0, 112.0, 15.0, 104.0, 0.0, 0.0, 0.0, 1.645922669188912E9, 0.0, 2022-02-27 11:44:29.188
18.0, -708.3044300442255, -3533.4308187283063, -1764.3125968352076, -9217.412378479527, 25.302174723407596, 261.51541012709265, -4924.4916349043415, -1567.1031555060335, -3596.1051101809876, -4681.863448841983, -3280.6549406832387, -2607.643915133943, -2664.126773372504, -1517.1693583928775, -8226.380732820122, -15291.07425106457, 0.01, -0.101, 0.988, 192.0, 0.0, 0.0, 0.0, 0.0, 0.0, 0.0, 0.0, 0.0, 0.0, 1.645922669196374E9, 0.0, 2022-02-27 11:44:29.196
20.0, -878.6247227936653, -3647.759991617202, -1822.0695045077211, -9295.621132328646, -108.98710596407724, 270.2325904646624, -4814.699866139873, -1371.3018740775435, -1482.9488376318025, -4350.521189036512, -3560.5211330081383, -2616.0928745380493, -2994.619666888674, -1721.821930625669, -8048.013812066772, -14698.082470665273, 0.01, -0.101, 0.988, 192.0, 0.0, 0.0, 0.0, 0.0, 0.0, 0.0, 0.0, 0.0, 0.0, 1.645922669204322E9, 0.0, 2022-02-27 11:44:29.204
22.0, -341.86993144392153, -3231.4363993926527, -1470.8118403925707, -8888.752328008692, 367.1721061673291, 524.9083667884311, -4689.083062301047, -1237.2137590901566, -2231.642869906768, -4116.2078519115275, -3189.236305861033, -2490.2525532546706, -2608.046246534139, -1402.4602058482417, -7980.24332287828, -14620.477213916447, 0.01, -0.101, 0.988, 192.0, 0.0, 0.0, 0.0, 0.0, 0.0, 0.0, 0.0, 0.0, 0.0, 1.645922669211682E9, 0.0, 2022-02-27 11:44:29.211
24.0, -1032.8294077908288, -3772.7509466112792, -1978.5317156948706, -9464.957948322051, -281.07318652548634, 120.52060610301568, -4998.431205562497, -1617.8863189084911, -3227.167216201689, -4892.752157777805, -3531.530920449605, -2705.2316314258137, -2935.5216545488424, -1737.2446342998308, -8303.427195957565, -15394.13814474799, 0.01, -0.101, 0.988, 192.0, 0.0, 0.0, 0.0, 0.0, 0.0, 0.0, 0.0, 0.0, 0.0, 1.645922669219031E9, 0.0, 2022-02-27 11:44:29.219
26.0, -502.9813054777748, -3345.743220537093, -1554.8767512889806, -8991.056262380633, 229.86533997837782, 483.3788255904705, -4671.2687219701675, -1178.7192438506179, -1047.8944835537056, -3895.685541115468, -3321.804502225459, -2477.6461693818774, -2768.7552891677965, -1500.4726052847632, -7872.172638436871, -14288.866733177512, 0.01, -0.10250000000000001, 0.986, 192.0, 0.0, 40.0, 126.0, 96.0, 15.0, 96.0, 0.0, 0.0, 0.0, 1.645922669227013E9, 0.0, 2022-02-27 11:44:29.227
28.0, -684.7903948772425, -3503.546536391561, -1751.0133088843, -9195.10533751313, 32.67825039365893, 285.52118367209243, -4931.398323941031, -1549.4899808752516, -3584.5492582975935, -4673.794469093617, -3269.143792288756, -2599.3514179410245, -2666.9877966627832, -1507.7145704882826, -8227.632430509619, -15279.339585225534, 0.01, -0.10250000000000001, 0.986, 192.0, 0.0, 0.0, 0.0, 0.0, 0.0, 0.0, 0.0, 0.0, 0.0, 1.645922669234989E9, 0.0, 2022-02-27 11:44:29.234
30.0, -888.1242141871709, -3652.856189353012, -1837.8498360931678, -9303.801870799289, -128.14255096227538, 266.96923577418755, -4833.408276248965, -1374.1405456233676, -1543.8796930169694, -4364.088697920883, -3563.113935364954, -2623.8936333529514, -3005.4602629494984, -1727.6333841840487, -8064.26353028578, -14725.06102622283, 0.01, -0.10250000000000001, 0.986, 192.0, 0.0, 0.0, 0.0, 0.0, 0.0, 0.0, 0.0, 0.0, 0.0, 1.645922669241198E9, 0.0, 2022-02-27 11:44:29.241
32.0, -330.694059216268, -3215.387846873742, -1469.1354595584226, -8883.65613027288, 367.820306756533, 533.8043610816433, -4742.906062949427, -1265.7345850151282, -2177.797517513933, -4088.6928544870443, -3187.7610907269827, -2488.330303231514, -2617.389275716457, -1400.89558373637, -7979.796287989175, -14602.349949163194, 0.01, -0.10250000000000001, 0.986, 192.0, 0.0, 0.0, 0.0, 0.0, 0.0, 0.0, 0.0, 0.0, 0.0, 1.645922669248614E9, 0.0, 2022-02-27 11:44:29.248
34.0, -1043.0888584958147, -3780.9316850819214, -1988.5900006997588, -9471.43995421409, -291.04206455255326, 119.82770202490116, -5013.295115625277, -1609.7279321823041, -3231.1458267147336, -4885.3984338520095, -3528.8263593705133, -2708.942021005395, -2941.3554598516776, -1735.5906052101382, -8316.748835652928, -15395.814525582138, 0.01, -0.10250000000000001, 0.986, 192.0, 0.0, 0.0, 0.0, 0.0, 0.0, 0.0, 0.0, 0.0, 0.0, 1.645922669256676E9, 0.0, 2022-02-27 11:44:29.256
36.0, -529.3340121905818, -3369.458421404174, -1573.540457909162, -9004.891992198467, 217.03543866103158, 473.54405803013543, -4642.367916389456, -1174.2265432151012, -1063.7642221169738, -3903.910983075021, -3345.385592625808, -2504.535317961612, -2797.2090598594023, -1516.1411781479333, -7870.920940747374, -14283.34585229705, 0.014000000000000002, -0.10425000000000001, 0.985, 192.0, 0.0, 72.0, 126.0, 88.0, 15.0, 96.0, 0.0, 0.0, 0.0, 1.64592266926464E9, 0.0, 2022-02-27 11:44:29.264
38.0, -693.1722990479826, -3510.5873358949825, -1759.9316549219675, -9205.789471362767, 29.414895703184094, 280.73791035865673, -4949.7267543943835, -1559.3023966911312, -3594.8087090025797, -4676.320216217067, -3284.9241238742025, -2618.7303803837754, -2679.705939257853, -1510.7097042452938, -8224.48083454142, -15278.959605569793, 0.014000000000000002, -0.10425000000000001, 0.985, 192.0, 0.0, 0.0, 0.0, 0.0, 0.0, 0.0, 0.0, 0.0, 0.0, 1.645922669271662E9, 0.0, 2022-02-27 11:44:29.271
40.0, -891.4993275999221, -3652.699727141825, -1845.4941326968828, -9304.360664410671, -130.55653936344856, 259.74962231512336, -4846.506398499775, -1389.2056213862445, -1547.9030070189247, -4364.312215365436, -3574.267455848152, -2632.2755375236916, -3014.020981075881, -1724.8617678715907, -8069.292672788224, -14729.352561158248, 0.014000000000000002, -0.10425000000000001, 0.985, 192.0, 0.0, 0.0, 0.0, 0.0, 0.0, 0.0, 0.0, 0.0, 0.0, 1.645922669279247E9, 0.0, 2022-02-27 11:44:29.279
42.0, -343.27809134460585, -3226.6084225903064, -1478.8361166520258, -8884.103165161987, 361.338300864494, 521.6897155868669, -4693.799280381118, -1236.3643928008548, -2183.8548402613214, -4102.327418604782, -3199.6298670327506, -2488.173841020327, -2623.9606885863172, -1412.4290838753086, -7978.455183321856, -14610.754205078389, 0.014000000000000002, -0.10425000000000001, 0.985, 192.0, 0.0, 0.0, 0.0, 0.0, 0.0, 0.0, 0.0, 0.0, 0.0, 1.645922669287309E9, 0.0, 2022-02-27 11:44:29.287
44.0, -1033.2540909354796, -3779.8588013480667, -1983.8737826196889, -9464.488561688491, -279.30739871351705, 111.66931529871408, -5000.196993374467, -1619.1827200868988, -3296.144699590767, -4911.169995208978, -3535.7554001516583, -2714.2393844413027, -2941.1095906626692, -1745.8724076595793, -8308.948076838025, -15413.76297637975, 0.014000000000000002, -0.10425000000000001, 0.985, 192.0, 0.0, 0.0, 0.0, 0.0, 0.0, 0.0, 0.0, 0.0, 0.0, 1.645922669294497E9, 0.0, 2022-02-27 11:44:29.294
46.0, -524.3495731770483, -3367.3126539364644, -1567.0137485282123, -9003.081500897588, 222.86924396386672, 466.816182949088, -4683.137498275936, -1220.1593780707572, -1037.9926607600046, -3919.333686749183, -3349.0512787164785, -2500.3778934929246, -2792.1352138680477, -1530.4239428548747, -7882.052109486117, -14304.870582207512, 0.013000000000000001, -0.101125, 0.9835, 192.0, 0.0, 48.0, 126.0, 120.0, 15.0, 88.0, 0.0, 0.0, 0.0, 1.645922669308955E9, 0.0, 2022-02-27 11:44:29.308
48.0, -685.7291681443654, -3515.8399958419795, -1751.0580123732107, -9191.506706655826, 40.90369235321192, 279.97795104717625, -4934.326402464677, -1517.7058002598048, -3560.9905196417, -4664.563198633576, -3279.6938156716606, -2614.1259210259823, -2673.939189188384, -1515.895308958925, -8219.809319950262, -15267.135532752936, 0.013000000000000001, -0.101125, 0.9835, 192.0, 0.0, 0.0, 0.0, 0.0, 0.0, 0.0, 0.0, 0.0, 0.0, 1.645922669316952E9, 0.0, 2022-02-27 11:44:29.316
50.0, -909.760702819908, -3669.955273861322, -1850.7020891549694, -9313.971914526453, -134.4680946431273, 255.90512226881057, -4848.741572945306, -1367.837353686971, -1590.7513011397484, -4383.825288274919, -3583.319912352552, -2644.5019417407443, -3019.9665451009923, -1751.0803641176658, -8077.2498938143135, -14741.02017176392, 0.013000000000000001, -0.101125, 0.9835, 192.0, 0.0, 0.0, 0.0, 0.0, 0.0, 0.0, 0.0, 0.0, 0.0, 1.645922669323711E9, 0.0, 2022-02-27 11:44:29.323
52.0, -346.31792859052763, -3230.6093848478063, -1476.667997439861, -8892.596828055004, 370.9719027247313, 522.136750475973, -4673.63800688243, -1241.2817765810223, -2148.606139255302, -4082.6802352285667, -3203.362608356787, -2500.1543760483714, -2626.061752565116, -1409.9256884963143, -7966.765220971731, -14589.475344356937, 0.013000000000000001, -0.101125, 0.9835, 192.0, 0.0, 0.0, 0.0, 0.0, 0.0, 0.0, 0.0, 0.0, 0.0, 1.645922669331523E9, 0.0, 2022-02-27 11:44:29.331
54.0, -1056.0081667909822, -3798.7013219238906, -1993.261515290918, -9473.630425170712, -288.71748312920136, 107.33307687438452, -4984.126089111101, -1611.5384234831838, -3282.845411639859, -4916.35559992261, -3542.930310121812, -2735.1829689959254, -2951.6149105566637, -1746.1182768485878, -8307.919896593083, -15405.604589653563, 0.013000000000000001, -0.101125, 0.9835, 192.0, 0.0, 0.0, 0.0, 0.0, 0.0, 0.0, 0.0, 0.0, 0.0, 1.645922669339577E9, 0.0, 2022-02-27 11:44:29.339
56.0, -530.2504337132494, -3373.280569706031, -1570.9700072968017, -9005.204916620842, 217.86245320587793, 466.70442422681145, -4682.757518620196, -1199.5287179385089, -1050.5543411438873, -3915.7350558918783, -3353.096944462889, -2507.083416829517, -2803.467548306888, -1522.1761491508662, -7875.011309982695, -14290.856038434034, 0.013500000000000002, -0.1025625, 0.98475, 192.0, 0.0, 56.0, 126.0, 96.0, 15.0, 104.0, 0.0, 0.0, 0.0, 1.645922669346667E9, 0.0, 2022-02-27 11:44:29.346
58.0, -669.1888772474382, -3500.730216590192, -1745.0230413702777, -9187.550447887237, 42.78123888745772, 276.0887475119528, -4925.363352938099, -1568.2877979621646, -3560.9905196417, -4669.994672536215, -3271.401318478742, -2617.0092960607167, -2672.9557124323505, -1511.7602362346931, -8224.72670373043, -15275.964471812782, 0.013500000000000002, -0.1025625, 0.98475, 192.0, 0.0, 0.0, 0.0, 0.0, 0.0, 0.0, 0.0, 0.0, 0.0, 1.645922669354469E9, 0.0, 2022-02-27 11:44:29.354
60.0, -905.2232986954807, -3669.977625605777, -1851.3726414886287, -9314.284838948828, -139.251367956563, 249.49017161013742, -4832.871834382037, -1362.808211184527, -1586.6162284155166, -4393.280076179513, -3576.3461680824958, -2640.3445172720576, -3025.822702148283, -1741.8714454020794, -8072.667786200976, -14748.48565441199, 0.013500000000000002, -0.1025625, 0.98475, 192.0, 0.0, 0.0, 0.0, 0.0, 0.0, 0.0, 0.0, 0.0, 0.0, 1.645922669361282E9, 0.0, 2022-02-27 11:44:29.361
62.0, -346.02735591260864, -3232.330469170865, -1474.8798578834364, -8881.33154884953, 367.4179753563375, 524.5730906216014, -4709.914888133394, -1232.4304857767208, -2136.4244385271595, -4090.033959154363, -3199.160480399189, -2500.556707448567, -2629.5039212112333, -1407.7575692841494, -7969.939168684384, -14584.781478021323, 0.013500000000000002, -0.1025625, 0.98475, 192.0, 0.0, 0.0, 0.0, 0.0, 0.0, 0.0, 0.0, 0.0, 0.0, 1.645922669369257E9, 0.0, 2022-02-27 11:44:29.369
64.0, -1044.854646307784, -3783.9938740722987, -1988.3441315107505, -9465.382631466702, -286.0129220501092, 100.71696051561362, -5024.180415175011, -1654.9008077264796, -3315.5460137779733, -4909.158338208001, -3531.7097344052477, -2724.3647246795567, -2949.4914948334094, -1732.2601952862974, -8318.805196142817, -15417.272200259235, 0.013500000000000002, -0.1025625, 0.98475, 192.0, 0.0, 0.0, 0.0, 0.0, 0.0, 0.0, 0.0, 0.0, 0.0, 1.64592266937634E9, 0.0, 2022-02-27 11:44:29.376
66.0, -536.330108205093, -3372.0512237609896, -1576.602646899539, -9007.842422466567, 197.1870895847189, 457.74137470023334, -4725.2705365741895, -1192.1302905238022, -1042.373602673245, -3916.9196983480097, -3352.135819451311, -2509.095073830494, -2814.6657722789973, -1522.7796462511596, -7882.879124030963, -14301.339006583574, 0.013750000000000002, -0.10128125, 0.987375, 192.0, 0.0, 56.0, 126.0, 112.0, 15.0, 120.0, 0.0, 0.0, 0.0, 1.645922669383963E9, 0.0, 2022-02-27 11:44:29.383
68.0, -679.51538318579, -3507.0110567821334, -1746.2970908042303, -9187.170468231496, 33.438209705139364, 274.3676631888942, -4905.380893395054, -1525.8641869859919, -3551.312214292552, -4657.164771218869, -3269.523771944496, -2612.628354147477, -2679.348311346568, -1505.121768131467, -8226.58189852022, -15255.646736102908, 0.013750000000000002, -0.10128125, 0.987375, 192.0, 0.0, 0.0, 0.0, 0.0, 0.0, 0.0, 0.0, 0.0, 0.0, 1.645922669391845E9, 0.0, 2022-02-27 11:44:29.391
70.0, -907.2796591853689, -3664.702613914325, -1851.2161792774416, -9311.490870891914, -140.68187960170266, 249.87015126587767, -4800.171232243923, -1365.2445513301554, -1591.6677226624158, -4394.420015146735, -3585.4209763313506, -2647.6311859644875, -3041.781847689372, -1739.591567467638, -8068.555065221199, -14745.334058443792, 0.013750000000000002, -0.10128125, 0.987375, 192.0, 0.0, 0.0, 0.0, 0.0, 0.0, 0.0, 0.0, 0.0, 0.0, 1.645922669399858E9, 0.0, 2022-02-27 11:44:29.399
72.0, -336.3937540523713, -3215.521957340474, -1468.2413897802103, -8880.236313371219, 370.5248678356252, 511.4749683707915, -4691.497050702221, -1249.551922029486, -2137.542025749925, -4079.975674149475, -3201.1497856557116, -2498.366236491947, -2639.025764349194, -1404.382455871398, -7971.682604751898, -14591.531704846824, 0.013750000000000002, -0.10128125, 0.987375, 192.0, 0.0, 0.0, 0.0, 0.0, 0.0, 0.0, 0.0, 0.0, 0.0, 1.645922669406454E9, 0.0, 2022-02-27 11:44:29.406
74.0, -1036.6515560926862, -3776.483687935315, -1984.387872742161, -9460.375840708713, -279.083881268964, 106.41665535171693, -4996.911286939537, -1603.5141472237287, -3315.6354207557943, -4910.074759730668, -3526.3006122470633, -2721.3025356891794, -2939.790837739806, -1734.6741836874705, -8312.479652461965, -15422.502508461776, 0.013750000000000002, -0.10128125, 0.987375, 192.0, 0.0, 0.0, 0.0, 0.0, 0.0, 0.0, 0.0, 0.0, 0.0, 1.645922669414517E9, 0.0, 2022-02-27 11:44:29.414
76.0, -532.038573269674, -3363.3787469123304, -1578.6143039005167, -9001.136899129975, 206.10543562238644, 464.6257119924679, -4670.888742314428, -1173.9359705371821, -1023.9334134976166, -3911.3988174675487, -3347.9783949826237, -2498.8132713810533, -2805.8591849636064, -1515.0459426696234, -7877.537057106145, -14289.559637255627, 0.012875000000000001, -0.10064062500000001, 0.9876875, 192.0, 0.0, 48.0, 126.0, 112.0, 15.0, 112.0, 0.0, 0.0, 0.0, 1.645922669422452E9, 0.0, 2022-02-27 11:44:29.422
78.0, -660.22582772086, -3481.6641785698152, -1743.4137157694956, -9168.797334289233, 52.14661981423138, 292.5843349199695, -4931.666544874495, -1530.6474602994276, -3534.5931094399825, -4641.004459977682, -3266.238065509566, -2599.262010963203, -2677.426061323412, -1494.2811720706432, -8218.95995366096, -15246.63898308742, 0.012875000000000001, -0.10064062500000001, 0.9876875, 192.0, 0.0, 0.0, 0.0, 0.0, 0.0, 0.0, 0.0, 0.0, 0.0, 1.645922669436249E9, 0.0, 2022-02-27 11:44:29.436
80.0, -898.9424585035395, -3657.2594830107073, -1852.3561182446622, -9314.061321504274, -136.3456411773731, 248.28317740955086, -4834.123532071535, -1384.6235137729066, -1602.6424291899716, -4394.330608168913, -3576.189705871309, -2632.0073165902277, -3025.241556792445, -1736.4846749883504, -8081.899056661017, -14757.761628360944, 0.012875000000000001, -0.10064062500000001, 0.9876875, 192.0, 0.0, 0.0, 0.0, 0.0, 0.0, 0.0, 0.0, 0.0, 0.0, 1.645922669444233E9, 0.0, 2022-02-27 11:44:29.444
82.0, -334.4715040292149, -3219.6346783202507, -1471.7953171486042, -8882.225618627741, 369.9437224797872, 529.0210877682075, -4693.016969325182, -1236.5655585009526, -2107.858909113277, -4078.701624715522, -3194.265448363477, -2493.404149222869, -2629.61567993351, -1406.5952785724735, -7969.603892517554, -14585.049698954786, 0.012875000000000001, -0.10064062500000001, 0.9876875, 192.0, 0.0, 0.0, 0.0, 0.0, 0.0, 0.0, 0.0, 0.0, 0.0, 1.645922669452146E9, 0.0, 2022-02-27 11:44:29.452
84.0, -1044.8322945633286, -3785.826717117634, -1996.8824978926777, -9462.96864306553, -287.4434336952488, 119.73829504707993, -5011.730493513405, -1608.6103449595387, -3336.5343018215067, -4916.288544689244, -3528.379324481407, -2725.035277013216, -2942.473047074443, -1725.0852853161439, -8318.782844398362, -15424.782386396217, 0.012875000000000001, -0.10064062500000001, 0.9876875, 192.0, 0.0, 0.0, 0.0, 0.0, 0.0, 0.0, 0.0, 0.0, 0.0, 1.645922669458718E9, 0.0, 2022-02-27 11:44:29.458
86.0, -549.7858583671879, -3381.863639576869, -1593.5229174522065, -9009.965838189823, 197.8799936628334, 471.6665114958896, -4674.956759805294, -1168.6386071012744, -1032.8517595352841, -3918.2831547597834, -3367.0444330030004, -2512.3137250320588, -2820.611336304109, -1518.1304834044556, -7883.124993219972, -14288.151477354942, 0.0124375, -0.10132031250000001, 0.98884375, 192.0, 0.0, 48.0, 126.0, 104.0, 15.0, 120.0, 0.0, 0.0, 0.0, 1.645922669466816E9, 0.0, 2022-02-27 11:44:29.466
88.0, -650.7933915607205, -3476.4338703672734, -1740.1056575901102, -9165.444572620938, 61.62375946328157, 302.8214338805001, -4919.104864490612, -1514.8447769695256, -3524.959507579745, -4647.821742036551, -3267.9815015770796, -2605.4981476662338, -2668.038328652183, -1489.8108231795816, -8210.153366345568, -15240.045218473104, 0.0124375, -0.10132031250000001, 0.98884375, 192.0, 0.0, 0.0, 0.0, 0.0, 0.0, 0.0, 0.0, 0.0, 0.0, 1.645922669474852E9, 0.0, 2022-02-27 11:44:29.474
90.0, -901.6246678381763, -3657.8406283665454, -1857.0499845802767, -9312.541402881314, -138.53611213399319, 259.43669789274907, -4841.298442041689, -1374.3417113234655, -1615.7181996963263, -4407.1828612307145, -3573.8427727035014, -2631.359116001024, -3018.8266061337717, -1725.7111341608925, -8080.625007227065, -14764.44479995308, 0.0124375, -0.10132031250000001, 0.98884375, 192.0, 0.0, 0.0, 0.0, 0.0, 0.0, 0.0, 0.0, 0.0, 0.0, 1.645922669481957E9, 0.0, 2022-02-27 11:44:29.481
92.0, -333.08569587298587, -3220.908727754203, -1474.2093055497774, -8880.504534304682, 370.2566469021615, 533.491436659269, -4695.989751337737, -1222.1933868161902, -2079.963932033054, -4075.2818078138603, -3193.237268118533, -2490.4090154658575, -2621.747865885242, -1399.4874238356858, -7962.652499991954, -14571.303376114773, 0.0124375, -0.10132031250000001, 0.98884375, 192.0, 0.0, 0.0, 0.0, 0.0, 0.0, 0.0, 0.0, 0.0, 0.0, 1.645922669488401E9, 0.0, 2022-02-27 11:44:29.488
94.0, -1036.0033555034825, -3782.65276940498, -1995.675503692091, -9466.388459967191, -281.9896080481539, 105.67904778469179, -5017.720761027427, -1631.2973655816754, -3355.779153797526, -4923.999896526325, -3524.6465831573705, -2724.5211868907436, -2928.883186445616, -1730.6061661966046, -8318.201699042524, -15432.024351599735, 0.0124375, -0.10132031250000001, 0.98884375, 192.0, 0.0, 0.0, 0.0, 0.0, 0.0, 0.0, 0.0, 0.0, 0.0, 1.64592266949655E9, 0.0, 2022-02-27 11:44:29.496
96.0, -552.2892537461822, -3385.9540088121903, -1606.598687958561, -9019.219460394319, 191.1968220706966, 449.3147670405826, -4678.3542249625, -1188.7104736221402, -1018.434884361611, -3937.013916613331, -3366.575046369439, -2512.8278151545305, -2811.0447896772375, -1536.4589138578074, -7881.359205408002, -14301.696634494858, 0.01, -0.1, 0.992, 192.0, 0.0, 40.0, 126.0, 112.0, 15.5, 0.0, 0.0, 0.0, 0.0, 1.645922669504475E9, 0.0, 2022-02-27 11:44:29.504
98.0, -648.4241066484578, -3480.6136465804157, -1741.4244105129733, -9158.828456262167, 63.07662285287653, 293.09842504244153, -4926.480940160864, -1520.4327130833524, -3509.089769016477, -4647.508817614176, -3264.7404986310603, -2605.3416854550464, -2665.937264673384, -1491.3530935469978, -8212.120319857637, -15233.809081770074, 0.01, -0.1, 0.992, 192.0, 0.0, 0.0, 0.0, 0.0, 0.0, 0.0, 0.0, 0.0, 0.0, 1.645922669511656E9, 0.0, 2022-02-27 11:44:29.511
100.0, -928.4020576956342, -3682.2934368006513, -1887.358950061673, -9326.868871077166, -157.53509492100417, 225.99848818760972, -4864.9689394198585, -1403.644848304373, -1690.1718604769542, -4444.5102744710775, -3591.56770605656, -2651.676851710898, -3030.2259958059785, -1747.6158437270933, -8097.098242890626, -14800.341701548303, 0.01, -0.1, 0.992, 192.0, 0.0, 0.0, 0.0, 0.0, 0.0, 0.0, 0.0, 0.0, 0.0, 1.64592266951912E9, 0.0, 2022-02-27 11:44:29.519
102.0, -347.9719576802203, -3229.715315069594, -1490.8390034245258, -8883.298502361597, 365.1157456774409, 520.2368521972719, -4691.251181513212, -1217.0077821025588, -2050.0349462073978, -4062.362499518693, -3205.910707224692, -2497.919201602841, -2635.069505580605, -1413.6360780758953, -7963.032479647694, -14560.798056220778, 0.01, -0.1, 0.992, 192.0, 0.0, 0.0, 0.0, 0.0, 0.0, 0.0, 0.0, 0.0, 0.0, 1.645922669527164E9, 0.0, 2022-02-27 11:44:29.527
104.0, -1037.009184003971, -3787.167821784952, -2011.3440765552614, -9462.856884343253, -281.6543318813243, 108.71888503061355, -5029.8577582666585, -1616.2099380743432, -3362.5964358563947, -4923.776379081772, -3522.8137401120357, -2729.8856055600177, -2933.5547010367754, -1727.0969423171214, -8321.21918454399, -15428.716293420352, 0.01, -0.1, 0.992, 192.0, 0.0, 0.0, 0.0, 0.0, 0.0, 0.0, 0.0, 0.0, 0.0, 1.645922669535005E9, 0.0, 2022-02-27 11:44:29.535
106.0, -554.8820561029978, -3399.700331652204, -1607.7162751813264, -9018.861832483033, 189.67690344773573, 451.7287554417557, -4684.970341321271, -1178.786299083984, -1007.7060470230637, -3926.285079274783, -3357.969624754146, -2502.7471784051872, -2811.245955377335, -1530.9380329773467, -7883.70613857581, -14294.275855335696, 0.01, -0.10200000000000001, 0.994, 192.0, 0.0, 40.0, 126.0, 104.0, 15.5, 8.0, 0.0, 0.0, 0.0, 1.645922669541628E9, 0.0, 2022-02-27 11:44:29.541
108.0, -650.8157433051757, -3487.252114683642, -1746.8782361600681, -9156.347412627627, 68.6869107111586, 302.888489113866, -4931.800655341227, -1516.4317508258523, -3502.0266177686, -4642.904358256383, -3262.4829724410743, -2607.398045944935, -2662.76331696073, -1492.8730121699587, -8206.487680254899, -15226.67887528883, 0.01, -0.10200000000000001, 0.994, 192.0, 0.0, 0.0, 0.0, 0.0, 0.0, 0.0, 0.0, 0.0, 0.0, 1.64592266955676E9, 0.0, 2022-02-27 11:44:29.556
110.0, -928.2008919955364, -3687.9707798922996, -1887.7612814618685, -9323.896089064609, -159.99378681108794, 235.54268307002582, -4855.760020704272, -1388.9597521972362, -1666.0096247207673, -4430.652192908788, -3584.0351681751217, -2647.139447586471, -3028.7731324163833, -1747.4146780269955, -8093.141984122037, -14790.797506665887, 0.01, -0.10200000000000001, 0.994, 192.0, 0.0, 0.0, 0.0, 0.0, 0.0, 0.0, 0.0, 0.0, 0.0, 1.645922669563882E9, 0.0, 2022-02-27 11:44:29.563
112.0, -340.2829575875947, -3228.2177481910885, -1487.4415382673192, -8879.319891848552, 366.27803638911683, 517.5099393737245, -4729.3162023206005, -1237.973718401637, -2041.742449014479, -4056.260473282394, -3203.0496839344128, -2493.49355620069, -2636.745886414753, -1414.7536652986605, -7965.133543626493, -14559.635765509101, 0.01, -0.10200000000000001, 0.994, 192.0, 0.0, 0.0, 0.0, 0.0, 0.0, 0.0, 0.0, 0.0, 0.0, 1.645922669571419E9, 0.0, 2022-02-27 11:44:29.571
114.0, -1039.3784689162337, -3786.0055310732764, -2005.644381719158, -9459.548826163867, -290.8632505969108, 105.50023382904934, -5061.217255737455, -1641.3556505865636, -3383.4953169221067, -4918.255498201311, -3508.508623660639, -2716.7204280758415, -2924.0775613877254, -1728.2145295398868, -8332.529167238376, -15445.81537792866, 0.01, -0.10200000000000001, 0.994, 192.0, 0.0, 0.0, 0.0, 0.0, 0.0, 0.0, 0.0, 0.0, 0.0, 1.64592266957934E9, 0.0, 2022-02-27 11:44:29.579
116.0, -567.1531638089614, -3398.091006051422, -1618.4004090309631, -9028.048399454165, 172.19783928368562, 444.0174036046748, -4686.69142564433, -1202.0768168064137, -1008.1307301677144, -3930.911890377032, -3364.3175201794534, -2515.197100066793, -2826.668659051497, -1539.9010825039247, -7892.2892084466475, -14306.904590952945, 0.01, -0.106, 0.994, 192.0, 0.0, 40.0, 126.0, 88.0, 15.5, 8.0, 0.0, 0.0, 0.0, 1.645922669587368E9, 0.0, 2022-02-27 11:44:29.587
118.0, -645.7195455693658, -3475.4280418667845, -1743.301957047219, -9154.425162604472, 67.70343395512509, 298.21697452270683, -4918.724884834872, -1510.9332216898467, -3485.6874925717707, -4621.3125731125565, -3257.386774705264, -2606.459272677812, -2672.1510496319593, -1496.8739744274587, -8208.164061089046, -15223.996665954193, 0.01, -0.106, 0.994, 192.0, 0.0, 0.0, 0.0, 0.0, 0.0, 0.0, 0.0, 0.0, 0.0, 1.645922669594075E9, 0.0, 2022-02-27 11:44:29.594
120.0, -934.1688077651033, -3685.9367711468662, -1895.1597088765752, -9333.283821735839, -166.4087374697611, 236.14618017031913, -4865.77360222025, -1389.7420632531719, -1706.7345031183368, -4439.25761452408, -3585.5550867980824, -2656.90715991344, -3038.7420104434505, -1753.6284629855709, -8102.194440626436, -14821.084120402827, 0.01, -0.106, 0.994, 192.0, 0.0, 0.0, 0.0, 0.0, 0.0, 0.0, 0.0, 0.0, 0.0, 1.645922669602078E9, 0.0, 2022-02-27 11:44:29.602
122.0, -338.83009419799976, -3218.226518419566, -1491.286038313632, -8868.680461487826, 371.08366144700784, 538.2076547393388, -4708.3055625326115, -1216.6948576801847, -1996.9048496371329, -4026.9573363014865, -3199.5404600549296, -2484.39639620738, -2638.4893224822667, -1399.1074441799456, -7956.14814235546, -14545.420056035526, 0.01, -0.106, 0.994, 192.0, 0.0, 0.0, 0.0, 0.0, 0.0, 0.0, 0.0, 0.0, 0.0, 1.645922669608959E9, 0.0, 2022-02-27 11:44:29.608
124.0, -1034.8187130473511, -3772.952112311377, -2014.1156928677194, -9461.292262231382, -288.0469307955421, 109.68001004219175, -5054.176456234033, -1631.498531281773, -3394.827651360947, -4902.251649171311, -3509.112120760932, -2717.2792216872244, -2928.3020410897784, -1728.6168609400822, -8327.142396824645, -15446.128302351035, 0.01, -0.106, 0.994, 192.0, 0.0, 0.0, 0.0, 0.0, 0.0, 0.0, 0.0, 0.0, 0.0, 1.645922669617187E9, 0.0, 2022-02-27 11:44:29.617
126.0, -557.296044504171, -3389.3067704804866, -1621.663763721438, -9030.171815177418, 174.18714454020795, 444.5761972160575, -4728.735056964762, -1200.3557324833553, -995.7702154839296, -3920.2277565273953, -3361.6576625892717, -2514.1242163329384, -2828.121522441092, -1537.2412249137433, -7892.579781124567, -14311.352588099551, 0.014, -0.11, 0.992, 192.0, 0.0, 56.0, 126.0, 72.0, 15.5, 0.0, 0.0, 0.0, 0.0, 1.645922669623682E9, 0.0, 2022-02-27 11:44:29.623
128.0, -624.9100714814748, -3455.020899179089, -1738.0716488446772, -9153.195816659429, 74.31955031389599, 299.8263001234889, -4946.105771792623, -1519.4492363273189, -3460.9441114597457, -4600.212526346747, -3247.4849519115633, -2594.5234411386778, -2662.38333730499, -1486.2121923222771, -8207.851136666672, -15224.264886887657, 0.014, -0.11, 0.992, 192.0, 0.0, 0.0, 0.0, 0.0, 0.0, 0.0, 0.0, 0.0, 0.0, 1.645922669631681E9, 0.0, 2022-02-27 11:44:29.631
130.0, -918.0084965239164, -3668.703576171825, -1887.2695430838519, -9335.116664781173, -168.71096714865772, 232.39108710182754, -4895.032035712246, -1411.2444414191773, -1692.0941105001107, -4433.177940032237, -3575.7426709822025, -2642.4232295064007, -3030.3601062727103, -1746.1182768485878, -8105.726016250374, -14824.45923381558, 0.014, -0.11, 0.992, 192.0, 0.0, 0.0, 0.0, 0.0, 0.0, 0.0, 0.0, 0.0, 0.0, 1.645922669639599E9, 0.0, 2022-02-27 11:44:29.639
132.0, -338.09248663097463, -3212.8620997502926, -1488.7826429346376, -8881.175086638343, 362.6570537873571, 526.9200237894087, -4719.526138249175, -1224.8979478952824, -1990.8698786342002, -4037.3732492176596, -3196.813547231382, -2484.2846374851033, -2635.382430002979, -1414.8877757653925, -7961.423154046912, -14554.204291606462, 0.014, -0.11, 0.992, 192.0, 0.0, 0.0, 0.0, 0.0, 0.0, 0.0, 0.0, 0.0, 0.0, 1.645922669646678E9, 0.0, 2022-02-27 11:44:29.646
134.0, -1023.3299163973232, -3762.2679784617403, -2004.0127043739205, -9455.167884250628, -287.59989590643596, 112.29516414346269, -5055.316395201254, -1636.6841359954044, -3419.1463493283213, -4905.582059095152, -3504.887641058879, -2712.4065413959675, -2920.9706689084373, -1722.62659342606, -8337.401847529633, -15459.181721112935, 0.014, -0.11, 0.992, 192.0, 0.0, 0.0, 0.0, 0.0, 0.0, 0.0, 0.0, 0.0, 0.0, 1.645922669654845E9, 0.0, 2022-02-27 11:44:29.654
136.0, -561.229951528305, -3384.121165766855, -1621.149673598966, -9031.311754144639, 166.8110688699566, 452.04167986413006, -4716.374542280977, -1181.8484880743608, -991.9257154376169, -3920.071294316208, -3371.425374916241, -2504.915297617352, -2833.3071271547233, -1539.8563790150142, -7897.854792816019, -14314.571239301114, 0.016, -0.108, 0.988, 192.0, 0.0, 64.0, 126.0, 80.0, 15.0, 112.0, 0.0, 0.0, 0.0, 1.645922669662214E9, 0.0, 2022-02-27 11:44:29.662
138.0, -603.9441351823968, -3440.8722449388797, -1717.8656718570796, -9137.817816474178, 94.83845172386786, 315.80779740903347, -4936.315707721199, -1512.0955124015227, -3434.4572942802065, -4583.962808127739, -3245.227425721577, -2590.2095544588037, -2654.4931715122666, -1481.6524364533946, -8205.05716860976, -15208.81983146904, 0.016, -0.108, 0.988, 192.0, 0.0, 0.0, 0.0, 0.0, 0.0, 0.0, 0.0, 0.0, 0.0, 1.64592266966935E9, 0.0, 2022-02-27 11:44:29.669
140.0, -930.3019559743352, -3681.10879434452, -1891.806947208279, -9351.411086489092, -169.47092646013814, 225.46204632068233, -4889.354692620599, -1430.802217817571, -1751.169771095487, -4456.893140899318, -3582.0011594296884, -2650.782781932686, -3027.3873242601544, -1756.3777275535738, -8116.566612311199, -14859.104437721306, 0.016, -0.108, 0.988, 192.0, 0.0, 0.0, 0.0, 0.0, 0.0, 0.0, 0.0, 0.0, 0.0, 1.645922669683966E9, 0.0, 2022-02-27 11:44:29.683
142.0, -333.1080476174412, -3218.0924079528345, -1481.8983056424029, -8883.745537250703, 370.5695713245358, 527.7246865897997, -4726.723399963785, -1218.9970873590812, -1943.0147937553877, -4016.9437547855086, -3200.948619955614, -2487.6373991533997, -2633.817807891108, -1408.249307662166, -7954.71763071032, -14542.871957167621, 0.016, -0.108, 0.988, 192.0, 0.0, 0.0, 0.0, 0.0, 0.0, 0.0, 0.0, 0.0, 0.0, 1.645922669691885E9, 0.0, 2022-02-27 11:44:29.691
144.0, -1017.7866837724071, -3761.2174464723407, -1997.77656767089, -9457.403058696158, -282.07901502597514, 110.32821063139566, -5061.910159815569, -1623.2283858333094, -3409.2892300235308, -4903.503346860808, -3502.9430392912677, -2715.424026897434, -2915.7180089614403, -1721.7772271367583, -8333.199719572034, -15456.410104800476, 0.016, -0.108, 0.988, 192.0, 0.0, 0.0, 0.0, 0.0, 0.0, 0.0, 0.0, 0.0, 0.0, 1.645922669699086E9, 0.0, 2022-02-27 11:44:29.699
146.0, -566.6390736864894, -3398.1133577958776, -1618.9144991534351, -9033.323411145617, 161.7148711341466, 443.8385896490324, -4707.053864843115, -1186.4976509210649, -976.6818257190974, -3922.7982071397555, -3369.458421404174, -2505.451739484279, -2830.6919730534523, -1544.3043761616202, -7893.809127069609, -14311.799622988658, 0.012, -0.1, 0.988, 192.0, 0.0, 48.0, 126.0, 112.0, 15.0, 112.0, 0.0, 0.0, 0.0, 1.645922669706496E9, 0.0, 2022-02-27 11:44:29.706
148.0, -617.0199056887515, -3456.741983502148, -1721.687820158937, -9142.24346187633, 95.84428022435668, 316.36659102041614, -4931.5324344077635, -1498.05861688359, -3431.708029712204, -4587.71790119623, -3251.6647281247056, -2585.8956677789292, -2660.3716803040124, -1492.5600877475845, -8200.922095885528, -15205.377662822923, 0.012, -0.1, 0.988, 192.0, 0.0, 0.0, 0.0, 0.0, 0.0, 0.0, 0.0, 0.0, 0.0, 1.645922669714475E9, 0.0, 2022-02-27 11:44:29.714
150.0, -931.5760054082878, -3684.0592246126207, -1888.074205884243, -9347.119551553673, -172.53311545051523, 228.63599403333595, -4892.841564755627, -1418.3969996448757, -1736.462323243895, -4456.982547877139, -3593.0429211906103, -2651.296872055158, -3034.2046063190232, -1762.7479747233363, -8115.985466955361, -14846.162777681682, 0.012, -0.1, 0.988, 192.0, 0.0, 0.0, 0.0, 0.0, 0.0, 0.0, 0.0, 0.0, 0.0, 1.645922669722514E9, 0.0, 2022-02-27 11:44:29.722
152.0, -339.6347569983908, -3227.167216201689, -1485.7204539442605, -8885.913656462868, 368.6473213013794, 524.0590004991294, -4719.347324293533, -1211.553956455464, -1945.6075961122033, -4021.905842054587, -3210.269297393477, -2490.20784976576, -2639.9868893607727, -1433.6855928523057, -7960.819656946619, -14550.02451539332, 0.012, -0.1, 0.988, 192.0, 0.0, 0.0, 0.0, 0.0, 0.0, 0.0, 0.0, 0.0, 0.0, 1.645922669729208E9, 0.0, 2022-02-27 11:44:29.729
154.0, -1024.2239861755356, -3769.107612265064, -2000.5705357278034, -9459.63823314169, -278.63684637985784, 109.99293446456606, -5064.033575538823, -1620.8367491765916, -3456.8760939688796, -4924.178710481967, -3510.6320393838932, -2721.8836810450175, -2919.7413229633958, -1728.7286196623588, -8340.93342315357, -15466.356631083088, 0.012, -0.1, 0.988, 192.0, 0.0, 0.0, 0.0, 0.0, 0.0, 0.0, 0.0, 0.0, 0.0, 1.645922669736134E9, 0.0, 2022-02-27 11:44:29.736
156.0, -574.7304051793105, -3405.4000264883075, -1625.0165253897342, -9041.861777527545, 159.01031005505445, 444.8891216384318, -4722.901251661927, -1196.9359155816933, -978.4476135310666, -3936.4327712574927, -3385.350511711897, -2511.5984692094885, -2833.642403321553, -1551.2334169427654, -7894.122051491982, -14317.544021313672, 0.014, -0.10400000000000001, 0.99, 192.0, 0.0, 56.0, 126.0, 96.0, 15.0, 120.0, 0.0, 0.0, 0.0, 1.645922669744214E9, 0.0, 2022-02-27 11:44:29.744
158.0, -602.3124578371594, -3445.0743728964776, -1718.4244654684624, -9128.18421461394, 94.70434125713602, 317.7747509211005, -4937.477998432875, -1501.5678407630733, -3415.346552770919, -4576.273808035113, -3250.3906786907532, -2582.945237510829, -2656.8624564245292, -1486.9050964003918, -8203.760767431351, -15194.5370667621, 0.014, -0.10400000000000001, 0.99, 192.0, 0.0, 0.0, 0.0, 0.0, 0.0, 0.0, 0.0, 0.0, 0.0, 1.645922669752169E9, 0.0, 2022-02-27 11:44:29.752
160.0, -953.6595289301312, -3704.175794622397, -1902.714598502469, -9356.775505158366, -192.58263022692566, 209.2346798461294, -4901.737559048839, -1422.1744444578226, -1803.9422397544672, -4483.335254589946, -3604.0176277181663, -2656.0130901352277, -3043.502932012431, -1771.8004312277355, -8129.329458395178, -14873.945996039629, 0.014, -0.10400000000000001, 0.99, 192.0, 0.0, 0.0, 0.0, 0.0, 0.0, 0.0, 0.0, 0.0, 0.0, 1.645922669758764E9, 0.0, 2022-02-27 11:44:29.758
162.0, -347.36846057992705, -3236.1079139838116, -1487.6427039674168, -8891.345130365507, 363.7299375212118, 502.84719501104297, -4705.913925875893, -1221.299317037978, -1917.489101587427, -4016.5637751297686, -3219.8358440203483, -2493.337093989503, -2653.3755842895016, -1433.4620754077525, -7952.616566731521, -14535.048846608264, 0.014, -0.10400000000000001, 0.99, 192.0, 0.0, 0.0, 0.0, 0.0, 0.0, 0.0, 0.0, 0.0, 0.0, 1.645922669766828E9, 0.0, 2022-02-27 11:44:29.766
164.0, -1028.5155211109545, -3784.820888617145, -2002.1351578396748, -9466.500218689469, -270.70197709822384, 101.23105063808569, -5040.81011304976, -1629.2186533473318, -3464.810963250514, -4933.812312342205, -3513.5824696519935, -2726.6222508695428, -2919.6519159855743, -1743.0560878582107, -8335.07726610628, -15472.369250341566, 0.014, -0.10800000000000001, 0.991, 192.0, 0.0, 56.0, 126.0, 64.0, 15.5, 0.0, 0.0, 0.0, 0.0, 1.645922669774735E9, 0.0, 2022-02-27 11:44:29.774
166.0, -585.9509808958746, -3420.800378418014, -1626.536444012695, -9047.628527597015, 170.81203112745658, 443.7268309267558, -4720.710780705307, -1199.1487382827686, -976.3241978078125, -3947.519236507325, -3392.7489391266035, -2522.841396670508, -2834.380010888578, -1551.9486727653352, -7893.451499158324, -14317.029931191199, 0.014, -0.10800000000000001, 0.991, 192.0, 0.0, 0.0, 0.0, 0.0, 0.0, 0.0, 0.0, 0.0, 0.0, 1.645922669781391E9, 0.0, 2022-02-27 11:44:29.781
168.0, -607.2074898728716, -3452.2045793777206, -1709.5061194307948, -9128.407732058493, 107.51189083002697, 328.16831209281827, -4914.4557016439085, -1492.3589220474867, -3406.9870003446345, -4584.968636628227, -3258.5043619280295, -2599.1502522409264, -2649.732249943286, -1484.3346457880314, -8199.156308073558, -15189.57497949302, 0.014, -0.10800000000000001, 0.991, 192.0, 0.0, 0.0, 0.0, 0.0, 0.0, 0.0, 0.0, 0.0, 0.0, 1.645922669790206E9, 0.0, 2022-02-27 11:44:29.790
170.0, -967.5623139813322, -3725.007620454743, -1911.1859096510304, -9368.644281464134, -190.30275229248434, 205.16666235526353, -4867.829962710138, -1426.130703226412, -1840.3532314721624, -4510.93965899225, -3614.545299356616, -2674.9226659444175, -3047.302728569833, -1778.1259749085875, -8131.855205518628, -14889.592217158344, 0.014, -0.10800000000000001, 0.991, 192.0, 0.0, 0.0, 0.0, 0.0, 0.0, 0.0, 0.0, 0.0, 0.0, 1.645922669803806E9, 0.0, 2022-02-27 11:44:29.803
172.0, -351.7494024931672, -3239.751248330027, -1484.6922736993163, -8883.611426783971, 372.11184169195195, 521.3544394200372, -4695.430957726355, -1203.686142407196, -1883.6709122265474, -4024.923327556053, -3224.9320417561585, -2495.30404750157, -2652.7273837002977, -1429.6622788503503, -7946.872168406507, -14517.994465588865, 0.014, -0.10800000000000001, 0.991, 192.0, 0.0, 0.0, 0.0, 0.0, 0.0, 0.0, 0.0, 0.0, 0.0, 1.645922669811864E9, 0.0, 2022-02-27 11:44:29.811
174.0, -1028.9625560000607, -3779.657635647969, -2003.319800295806, -9454.340869705782, -267.32686368547246, 103.8238529949013, -5036.965613003446, -1623.7648277002368, -3475.0033587221337, -4927.956155294914, -3513.291896974075, -2724.1412072350035, -2912.4323025265103, -1725.1523405495097, -8334.116141094702, -15471.698698007905, 0.013000000000000001, -0.10600000000000001, 0.9895, 192.0, 0.0, 48.0, 126.0, 96.0, 15.0, 112.0, 0.0, 0.0, 0.0, 1.645922669819788E9, 0.0, 2022-02-27 11:44:29.819
176.0, -594.9810856558187, -3420.6662679512824, -1636.4829702953066, -9046.689754329891, 162.74305137909073, 440.8881593809318, -4702.449405485321, -1178.2945607059671, -986.4271863016113, -3941.908948649043, -3405.221212532665, -2521.5449954921005, -2848.416906406511, -1554.7202890777933, -7896.200763726326, -14316.73935851328, 0.013000000000000001, -0.10600000000000001, 0.9895, 192.0, 0.0, 0.0, 0.0, 0.0, 0.0, 0.0, 0.0, 0.0, 0.0, 1.645922669826551E9, 0.0, 2022-02-27 11:44:29.826
178.0, -603.2065276153717, -3446.6613467528045, -1707.2709449852641, -9124.09384537862, 116.96667873462187, 336.2372918411841, -4905.783224795249, -1475.1704305613555, -3392.1007385374, -4567.757793397641, -3258.057327038923, -2591.8859352929517, -2653.576749989599, -1475.48335498373, -8190.752052158363, -15174.755772919152, 0.013000000000000001, -0.10600000000000001, 0.9895, 192.0, 0.0, 0.0, 0.0, 0.0, 0.0, 0.0, 0.0, 0.0, 0.0, 1.645922669834335E9, 0.0, 2022-02-27 11:44:29.834
180.0, -966.1541540806478, -3718.3244488626065, -1910.6941712730136, -9362.542255227836, -189.05105460298714, 217.50482529459302, -4878.983483193336, -1412.607897830951, -1838.9227198270225, -4506.402254867823, -3612.66775282237, -2670.1170408865264, -3040.0384116218584, -1761.9433119229452, -8136.571423598698, -14884.361908955803, 0.013000000000000001, -0.10600000000000001, 0.9895, 192.0, 0.0, 0.0, 0.0, 0.0, 0.0, 0.0, 0.0, 0.0, 0.0, 1.645922669842511E9, 0.0, 2022-02-27 11:44:29.842
182.0, -362.52294332062525, -3245.2050739771216, -1494.348227304009, -8886.830077985534, 363.7075857767565, 521.9579365203306, -4697.666132171886, -1204.423749974221, -1896.5455170328044, -4028.1419787576174, -3236.264376194999, -2501.0484458265837, -2660.0587558816383, -1428.9470230277805, -7960.417325546423, -14513.792337631266, 0.013000000000000001, -0.10600000000000001, 0.9895, 192.0, 0.0, 0.0, 0.0, 0.0, 0.0, 0.0, 0.0, 0.0, 0.0, 1.645922669849028E9, 0.0, 2022-02-27 11:44:29.849
184.0, -1046.4416201641106, -3792.822813132145, -2010.6064689882362, -9460.487599430991, -272.6242271213802, 99.86759422631195, -5033.814017035248, -1639.7463249857815, -3504.59706838096, -4941.814236857204, -3521.5620424225385, -2732.9254428059394, -2915.539195005798, -1728.952137106912, -8346.476655778486, -15473.375078842055, 0.0125, -0.10700000000000001, 0.98675, 192.0, 0.0, 48.0, 126.0, 80.0, 15.0, 96.0, 0.0, 0.0, 0.0, 1.645922669855942E9, 0.0, 2022-02-27 11:44:29.855
186.0, -609.6661817629555, -3430.992773889634, -1642.696755253882, -9054.468161400338, 155.83636234240083, 428.0582580635856, -4695.430957726355, -1188.039921288481, -1000.0617504193486, -3953.4648005324366, -3415.5030149821064, -2526.350620549991, -2856.5529413882427, -1568.1983909843434, -7905.2085167418145, -14324.294248139173, 0.0125, -0.10700000000000001, 0.98675, 192.0, 0.0, 0.0, 0.0, 0.0, 0.0, 0.0, 0.0, 0.0, 0.0, 1.645922669864064E9, 0.0, 2022-02-27 11:44:29.864
188.0, -600.099635136084, -3436.424247792274, -1702.2865059717305, -9119.243516831817, 130.3777254078061, 327.49775975915907, -4900.239992170334, -1486.413358022375, -3390.513764681073, -4567.087241063981, -3260.270149739999, -2592.444728904334, -2649.8663604100184, -1487.374483033953, -8191.109680069648, -15175.135752574892, 0.0125, -0.10700000000000001, 0.98675, 192.0, 0.0, 0.0, 0.0, 0.0, 0.0, 0.0, 0.0, 0.0, 0.0, 1.645922669872119E9, 0.0, 2022-02-27 11:44:29.872
190.0, -974.5360582513879, -3723.711219276335, -1908.8613282276785, -9365.917368640587, -182.5914004554034, 217.92950843924385, -4886.314855374677, -1406.7293890392052, -1864.4037085060727, -4515.432359627767, -3611.930145255345, -2673.425099065912, -3036.909167398115, -1771.6439690165485, -8141.287641678768, -14896.320092239392, 0.0125, -0.10700000000000001, 0.98675, 192.0, 0.0, 0.0, 0.0, 0.0, 0.0, 0.0, 0.0, 0.0, 0.0, 1.645922669878681E9, 0.0, 2022-02-27 11:44:29.878
192.0, -362.0312049426085, -3242.4781611535745, -1488.0003318787017, -8882.51619130566, 371.9106759918542, 538.8111518396321, -4692.2793617581565, -1197.5394126819865, -1865.1860195620084, -4022.419932177059, -3228.5977278468285, -2503.462434227757, -2650.067526110116, -1425.7954270595822, -7955.522293510711, -14502.325892725694, 0.0125, -0.10700000000000001, 0.98675, 192.0, 0.0, 0.0, 0.0, 0.0, 0.0, 0.0, 0.0, 0.0, 0.0, 1.645922669886654E9, 0.0, 2022-02-27 11:44:29.886
194.0, -1030.4601228785662, -3778.6741588919353, -2001.2857915503732, -9451.30103245986, -260.2637124375954, 119.00068748005481, -5031.176511189522, -1648.6199675345383, -3521.6961528892703, -4929.319611706688, -3507.346332948963, -2727.8515968145844, -2899.9153256315385, -1704.0969972726105, -8347.616594745707, -15472.033974174736, 0.01125, -0.10650000000000001, 0.984375, 192.0, 0.0, 40.0, 126.0, 88.0, 15.0, 88.0, 0.0, 0.0, 0.0, 1.645922669894753E9, 0.0, 2022-02-27 11:44:29.894
196.0, -625.4018098594917, -3443.666212995793, -1656.1972089048875, -9064.772315594235, 142.31355694694008, 443.0562785930966, -4741.743772237751, -1178.1828019836905, -1006.8343289893066, -3959.8573994466547, -3423.9296226417573, -2528.965774651262, -2862.3643949466223, -1563.3927659264525, -7921.547641938644, -14327.02116096272, 0.01125, -0.10650000000000001, 0.984375, 192.0, 0.0, 0.0, 0.0, 0.0, 0.0, 0.0, 0.0, 0.0, 0.0, 1.645922669901844E9, 0.0, 2022-02-27 11:44:29.901
198.0, -598.0432746461958, -3438.704125726715, -1703.761721105781, -9113.454415017894, 134.53514987649322, 344.37332682291594, -4907.146681207023, -1470.409508992375, -3371.5594853829725, -4548.021203043604, -3264.785202119971, -2592.5341358821556, -2649.329918543091, -1472.0411863376125, -8196.965837116937, -15149.297135984558, 0.01125, -0.10650000000000001, 0.984375, 192.0, 0.0, 0.0, 0.0, 0.0, 0.0, 0.0, 0.0, 0.0, 0.0, 1.645922669909324E9, 0.0, 2022-02-27 11:44:29.909
200.0, -984.8178607008292, -3734.149483936964, -1922.942927234522, -9370.544179742836, -189.47573774763796, 212.3415723254171, -4847.199302577889, -1392.3572173544428, -1904.458034569983, -4530.162159223814, -3628.559843130093, -2680.0859189135936, -3044.240539579456, -1770.2134573714088, -8145.601528358642, -14901.371586486292, 0.01125, -0.10650000000000001, 0.984375, 192.0, 0.0, 0.0, 0.0, 0.0, 0.0, 0.0, 0.0, 0.0, 0.0, 1.645922669917336E9, 0.0, 2022-02-27 11:44:29.917
202.0, -360.93596946429847, -3238.812475062904, -1490.414320279875, -8878.001138925689, 374.59288532649106, 534.8548930710427, -4663.646777110908, -1177.3781391832995, -1869.65636845307, -4019.2683362088605, -3245.719164099594, -2506.524623218134, -2661.0198808932164, -1430.4222381618308, -7946.022802117205, -14490.144191997551, 0.01125, -0.10650000000000001, 0.984375, 192.0, 0.0, 0.0, 0.0, 0.0, 0.0, 0.0, 0.0, 0.0, 0.0, 1.645922669931413E9, 0.0, 2022-02-27 11:44:29.931
204.0, -1029.9236810116388, -3773.466202433849, -2002.358675284228, -9451.546901648868, -263.48236363915964, 117.25725141254085, -5030.215386177943, -1634.2254441053205, -3531.3744582384184, -4933.5887948976515, -3506.7428358486695, -2725.638774113509, -2900.3623605206444, -1707.4274071964512, -8342.676859221085, -15473.620948031063, 0.011625, -0.10325000000000001, 0.9841875, 192.0, 0.0, 48.0, 126.0, 112.0, 15.0, 96.0, 0.0, 0.0, 0.0, 1.645922669938991E9, 0.0, 2022-02-27 11:44:29.938
206.0, -632.0402779627178, -3445.63316650786, -1653.5149995702507, -9066.918083061944, 134.2669289430295, 427.7229818967559, -4718.02857137067, -1178.7639473395286, -1005.1579481551586, -3966.674681505523, -3421.2921167960308, -2535.805408454586, -2863.6831478694858, -1571.7076148638266, -7915.602077913532, -14330.30686739765, 0.011625, -0.10325000000000001, 0.9841875, 192.0, 0.0, 0.0, 0.0, 0.0, 0.0, 0.0, 0.0, 0.0, 0.0, 1.645922669946902E9, 0.0, 2022-02-27 11:44:29.946
208.0, -610.2920306077041, -3444.359117073908, -1708.6791048859484, -9117.365970297573, 122.28639391498494, 336.371402307916, -4894.227372911856, -1463.5028199556853, -3379.807279086981, -4561.275787505601, -3271.8930568567584, -2604.939354054851, -2655.7001657128535, -1486.1004336000008, -8195.982360360904, -15156.829673865996, 0.011625, -0.10325000000000001, 0.9841875, 192.0, 0.0, 0.0, 0.0, 0.0, 0.0, 0.0, 0.0, 0.0, 0.0, 1.64592266995439E9, 0.0, 2022-02-27 11:44:29.954
210.0, -980.3698635542231, -3729.723838534813, -1926.653316814103, -9372.354671043715, -192.18029882673014, 217.16954912776342, -4887.29833213071, -1409.545708840574, -1910.2471363839074, -4524.484816132166, -3632.9407850433336, -2692.669951041931, -3047.749763458939, -1781.366977854607, -8156.285662208279, -14912.659217436221, 0.011625, -0.10325000000000001, 0.9841875, 192.0, 0.0, 0.0, 0.0, 0.0, 0.0, 0.0, 0.0, 0.0, 0.0, 1.645922669961528E9, 0.0, 2022-02-27 11:44:29.961
212.0, -362.6794055318124, -3244.2439489655435, -1494.1694133483666, -8880.102202904487, 377.00687372766424, 546.2542827432493, -4680.410585452389, -1176.1264414938023, -1858.815772392246, -4013.903917539587, -3244.69098385465, -2509.4750534862346, -2649.9781191322945, -1427.449456149275, -7954.8070376881415, -14496.648549634047, 0.011625, -0.10325000000000001, 0.9841875, 192.0, 0.0, 0.0, 0.0, 0.0, 0.0, 0.0, 0.0, 0.0, 0.0, 1.645922669969536E9, 0.0, 2022-02-27 11:44:29.969
214.0, -1022.4581983635662, -3775.3884524570053, -1997.0836635927753, -9447.948270791563, -241.5105988395928, 127.38259165079495, -5027.086141954201, -1621.1273218545107, -3556.967205639745, -4932.851187330626, -3511.727274862203, -2733.9312713064282, -2886.4595754694433, -1710.6460583980154, -8338.854710919228, -15478.605387044596, 0.012812500000000001, -0.10262500000000001, 0.98609375, 192.0, 0.0, 56.0, 126.0, 104.0, 15.0, 112.0, 0.0, 0.0, 0.0, 1.645922669977703E9, 0.0, 2022-02-27 11:44:29.977
216.0, -625.0888854371174, -3444.8061519630137, -1648.9999471902786, -9067.275710973228, 154.24938848607405, 439.12237156896254, -4700.92948686236, -1182.9213718082158, -997.5136515514436, -3977.2694083773386, -3424.3319540419525, -2544.4108300698795, -2847.053449994737, -1580.0448155456563, -7906.035531286661, -14338.956992501855, 0.012812500000000001, -0.10262500000000001, 0.98609375, 192.0, 0.0, 0.0, 0.0, 0.0, 0.0, 0.0, 0.0, 0.0, 0.0, 1.645922669983745E9, 0.0, 2022-02-27 11:44:29.983
218.0, -588.5661349971456, -3431.7974366900253, -1691.8705930555575, -9098.746967166302, 148.84026632788974, 354.4539635722594, -4880.861029727582, -1448.8400755930038, -3339.104752433867, -4544.221406486203, -3259.197266006144, -2595.7304353392647, -2629.861549122518, -1470.923599114847, -8172.535380427287, -15137.09308351196, 0.012812500000000001, -0.10262500000000001, 0.98609375, 192.0, 0.0, 0.0, 0.0, 0.0, 0.0, 0.0, 0.0, 0.0, 0.0, 1.64592266999121E9, 0.0, 2022-02-27 11:44:29.991
220.0, -976.212439085536, -3725.4099518549388, -1915.9244794755555, -9367.571397730278, -192.22500231564075, 211.4027990582942, -4881.732747761339, -1417.771150800127, -1907.296706115807, -4512.526632848577, -3621.1614157153867, -2679.2365526242916, -3029.108408583213, -1774.2144196289087, -8147.65788884853, -14910.424042990691, 0.012812500000000001, -0.10262500000000001, 0.98609375, 192.0, 0.0, 0.0, 0.0, 0.0, 0.0, 0.0, 0.0, 0.0, 0.0, 1.645922669999224E9, 0.0, 2022-02-27 11:44:29.999
222.0, -363.23819914319506, -3247.7308211005716, -1488.2685528121654, -8882.806763983579, 365.5851323110023, 537.8947303169645, -4678.868315084972, -1175.5676478824196, -1847.5504931867713, -4012.0710744942517, -3240.5782628748734, -2507.105768573972, -2648.391145275968, -1434.4008486748755, -7950.850778919552, -14491.999386787342, 0.012812500000000001, -0.10262500000000001, 0.98609375, 192.0, 0.0, 0.0, 0.0, 0.0, 0.0, 0.0, 0.0, 0.0, 0.0, 1.64592267000722E9, 0.0, 2022-02-27 11:44:30.007
224.0, -1026.5485675988875, -3785.044406061698, -1999.229431060485, -9455.994898795474, -259.39199440383845, 108.78594026397947, -5050.555473632273, -1631.140903370488, -3561.0799266195213, -4952.923053851492, -3505.804062581547, -2743.743687122308, -2887.532459203298, -1716.0104770672892, -8348.778885457383, -15485.199151658911, 0.01240625, -0.1043125, 0.987046875, 192.0, 0.0, 48.0, 126.0, 88.0, 15.0, 112.0, 0.0, 0.0, 0.0, 1.645922670013815E9, 0.0, 2022-02-27 11:44:30.013
226.0, -642.3667839010697, -3466.1967714067428, -1662.7462700302924, -9078.831562856623, 140.4360104126943, 422.62678416094593, -4716.821577170083, -1196.555935925953, -1005.4932243219882, -3993.36266438516, -3431.864491923391, -2560.3029203776027, -2860.2633309678235, -1586.0127313152232, -7921.145310538449, -14341.348629158572, 0.01240625, -0.1043125, 0.987046875, 192.0, 0.0, 0.0, 0.0, 0.0, 0.0, 0.0, 0.0, 0.0, 0.0, 1.645922670021888E9, 0.0, 2022-02-27 11:44:30.021
228.0, -603.1171206375504, -3451.377564832874, -1700.3195524596636, -9112.336827795129, 148.66145237224728, 345.75913497914496, -4892.126308933057, -1456.9537588302803, -3354.125124707833, -4564.069755562515, -3273.4800307130854, -2623.737171141764, -2642.914967884418, -1489.2296778237437, -8188.986264346393, -15150.325316229502, 0.01240625, -0.1043125, 0.987046875, 192.0, 0.0, 0.0, 0.0, 0.0, 0.0, 0.0, 0.0, 0.0, 0.0, 1.645922670029935E9, 0.0, 2022-02-27 11:44:30.029
230.0, -997.2677823624352, -3742.4866846187933, -1930.6095755826923, -9378.791973446843, -184.8489266453894, 213.99560141510983, -4876.211866880878, -1409.4115983738423, -1958.10222126272, -4557.878322348395, -3642.7979043481237, -2703.510547102755, -3043.3464698012435, -1785.7479197678472, -8157.179731986491, -14931.591144989867, 0.01240625, -0.1043125, 0.987046875, 192.0, 0.0, 0.0, 0.0, 0.0, 0.0, 0.0, 0.0, 0.0, 0.0, 1.645922670037127E9, 0.0, 2022-02-27 11:44:30.037
232.0, -370.2789986466168, -3256.202132249133, -1492.9177156588694, -8880.772755238148, 382.9524377527759, 544.3767362090035, -4671.291073714623, -1164.168258210213, -1830.719629611925, -4017.8825280526316, -3251.6870798691607, -2509.8997366308854, -2654.8955029124622, -1427.3376974269984, -7942.491226493267, -14484.556255883725, 0.01240625, -0.1043125, 0.987046875, 192.0, 0.0, 0.0, 0.0, 0.0, 0.0, 0.0, 0.0, 0.0, 0.0, 1.64592267005156E9, 0.0, 2022-02-27 11:44:30.051
234.0, -1028.3590588997674, -3788.4195194744493, -1996.5919252147587, -9444.528453889901, -247.29970065351733, 118.12896944629783, -5035.646860080584, -1623.474255022318, -3585.018644931155, -4940.5178356787965, -3505.4017311813514, -2735.652355629487, -2882.4586132119434, -1701.370084449063, -8342.654507476629, -15484.640358047529, 0.01, -0.108, 0.986, 192.0, 0.0, 40.0, 126.0, 80.0, 15.0, 104.0, 0.0, 0.0, 0.0, 1.645922670059474E9, 0.0, 2022-02-27 11:44:30.059
236.0, -662.6398161220332, -3480.3677773914073, -1668.9377032444124, -9082.98898732531, 124.34275440487319, 414.915432323865, -4721.470740016787, -1200.780415628006, -1015.2162331600468, -3999.509394110369, -3439.866416438391, -2574.6080368289995, -2866.700633370952, -1590.3936732284635, -7920.944144838351, -14351.205748463362, 0.01, -0.108, 0.986, 192.0, 0.0, 0.0, 0.0, 0.0, 0.0, 0.0, 0.0, 0.0, 0.0, 1.645922670066721E9, 0.0, 2022-02-27 11:44:30.066
238.0, -613.0859986646175, -3460.228855637176, -1696.9891425358228, -9097.18234505443, 135.40686791025018, 344.73095473420085, -4917.182614467456, -1466.833229879526, -3336.9142814772467, -4557.900674092851, -3271.1107458008228, -2620.9655548293063, -2649.195808076359, -1487.352131289498, -8188.561581201742, -15136.623696878398, 0.01, -0.108, 0.986, 192.0, 0.0, 0.0, 0.0, 0.0, 0.0, 0.0, 0.0, 0.0, 0.0, 1.645922670074094E9, 0.0, 2022-02-27 11:44:30.074
240.0, -1038.0820677378258, -3785.7373101398125, -1934.2529099289072, -9376.690909468045, -203.93731641022163, 203.8479094324004, -4898.071872958169, -1424.7672468146382, -1976.520058693893, -4568.5401044535765, -3634.1030757550093, -2704.829300025618, -3048.2862053258664, -1785.9714372124001, -8170.5237234263095, -14940.800063705454, 0.01, -0.108, 0.986, 192.0, 0.0, 0.0, 0.0, 0.0, 0.0, 0.0, 0.0, 0.0, 0.0, 1.645922670082278E9, 0.0, 2022-02-27 11:44:30.082
242.0, -445.1796943163508, -3320.172824880222, -1496.96338140528, -8882.47148781675, 377.9009435058765, 537.5147506612243, -4679.583570907542, -1184.3518834533554, -1843.8401036071903, -4031.5394439148245, -3259.2196177505994, -2519.3321727910247, -2658.6952994698645, -1429.2599474501549, -7948.369735285013, -14483.8186483167, 0.01, -0.108, 0.986, 192.0, 0.0, 0.0, 0.0, 0.0, 0.0, 0.0, 0.0, 0.0, 0.0, 1.645922670089394E9, 0.0, 2022-02-27 11:44:30.089
244.0, -1134.7086590181184, -3881.62629385308, -2004.3032770518396, -9446.33894519078, -238.76133427159004, 129.4389521406832, -5041.100685727678, -1615.405275273952, -3621.42963664885, -4966.356452269131, -3527.6864204032927, -2753.3325854936347, -2884.7384911463846, -1696.720921602359, -8343.883853421672, -15477.308985866188, 0.014, -0.108, 0.984, 192.0, 0.0, 56.0, 126.0, 80.0, 15.0, 96.0, 0.0, 0.0, 0.0, 1.6459226700968E9, 0.0, 2022-02-27 11:44:30.096
246.0, -800.0806927777163, -3607.9068312533896, -1671.66461606796, -9082.56430418066, 144.0346412699987, 436.14958955640674, -4713.602925968519, -1182.586095641386, -1044.6758323521415, -4022.352876943693, -3475.249227911142, -2585.962723012295, -2864.4207554365107, -1569.3830334404747, -7912.919868578896, -14334.196070932874, 0.014, -0.108, 0.984, 192.0, 0.0, 0.0, 0.0, 0.0, 0.0, 0.0, 0.0, 0.0, 0.0, 1.645922670103806E9, 0.0, 2022-02-27 11:44:30.103
248.0, -786.2673147043365, -3610.2314126767415, -1700.3642559485743, -9098.545801466204, 163.3018449904734, 363.19349565428445, -4883.856163484593, -1434.736124841705, -3380.2319622316318, -4585.773299428618, -3317.200042867666, -2656.9518634023507, -2647.0053371197387, -1468.3531485024869, -8175.016424061826, -15119.211687947714, 0.014, -0.108, 0.984, 192.0, 0.0, 0.0, 0.0, 0.0, 0.0, 0.0, 0.0, 0.0, 0.0, 1.645922670111885E9, 0.0, 2022-02-27 11:44:30.111
250.0, -1244.7015934826843, -3969.938036195998, -1955.1741427390748, -9397.85801146722, -200.69631346420212, 193.90138314978876, -4875.697776758406, -1419.2463659341772, -2085.5295164024255, -4632.019058706648, -3702.879393443989, -2767.1459635670144, -3062.054879910336, -1788.787757013769, -8163.974662300905, -14949.561947531933, 0.014, -0.108, 0.984, 192.0, 0.0, 0.0, 0.0, 0.0, 0.0, 0.0, 0.0, 0.0, 0.0, 1.645922670119039E9, 0.0, 2022-02-27 11:44:30.119
252.0, -634.7001355528994, -3497.064530499522, -1519.9186229608802, -8899.369406624963, 364.7804695106113, 529.0434395126629, -4683.852754098506, -1164.0788512323918, -1895.1150053876647, -4087.2399910974495, -3331.1475314077775, -2583.4816793777563, -2685.6291515385096, -1449.6670901378502, -7948.593252729565, -14475.548502868236, 0.014, -0.108, 0.984, 192.0, 0.0, 0.0, 0.0, 0.0, 0.0, 0.0, 0.0, 0.0, 0.0, 1.645922670126446E9, 0.0, 2022-02-27 11:44:30.126
254.0, -1273.3341781299328, -4004.516184868358, -2016.4402742910713, -9448.931747547596, -244.46102910769335, 126.98026025059943, -5034.976307746924, -1608.5209379817175, -3706.120396390009, -5010.970534201924, -3577.597865771993, -2796.091472636637, -2900.3623605206444, -1705.2592879842864, -8354.992670415959, -15483.031032446746, 0.014, -0.106, 0.98, 192.0, 0.0, 56.0, 126.0, 88.0, 15.0, 80.0, 0.0, 0.0, 0.0, 1.645922670134492E9, 0.0, 2022-02-27 11:44:30.134
0.0, -890.4264438660674, -3682.5169542452045, -1685.8132703081692, -9092.46612697436, 132.99287950907703, 430.0252115756526, -4689.2842280011455, -1175.880572304794, -1102.4997952580209, -4057.6462814386227, -3519.50568193265, -2612.4495401918343, -2887.3983487365663, -1575.3733009544972, -7925.034514073672, -14341.818015792134, 0.014, -0.106, 0.98, 192.0, 0.0, 0.0, 0.0, 0.0, 0.0, 0.0, 0.0, 0.0, 0.0, 1.645922670142469E9, 0.0, 2022-02-27 11:44:30.142
2.0, -776.3654919106356, -3610.074950465554, -1680.5382586167168, -9084.911237348466, 183.9548568671771, 382.2371819302061, -4855.178875348434, -1427.6282701049174, -3350.124162450333, -4565.589674185476, -3313.422598054719, -2648.3464417870573, -2634.197787546848, -1450.8070291050708, -8164.33229021219, -15095.161210913804, 0.014, -0.106, 0.98, 192.0, 0.0, 0.0, 0.0, 0.0, 0.0, 0.0, 0.0, 0.0, 0.0, 1.64592267014904E9, 0.0, 2022-02-27 11:44:30.149
4.0, -1184.3518834533554, -3918.6631344155235, -1935.5046076184044, -9383.485839782457, -184.55835396747042, 217.9965636726098, -4874.781355235738, -1397.3863598568869, -2066.3964231486825, -4618.3397911, -3680.1700210773975, -2748.2587395022797, -3038.0938098542465, -1768.0900416481545, -8160.733659354885, -14942.319982328414, 0.014, -0.106, 0.98, 192.0, 0.0, 0.0, 0.0, 0.0, 0.0, 0.0, 0.0, 0.0, 0.0, 1.645922670157128E9, 0.0, 2022-02-27 11:44:30.157
6.0, -541.2698437297158, -3407.0540555780003, -1495.219945337766, -8880.37042383795, 379.1302894509184, 547.327166477104, -4677.124879017458, -1164.4141273992213, -1832.6642313795367, -4034.9145573275755, -3293.1272140893, -2548.5682545385666, -2660.170514603915, -1415.1559966988561, -7940.5242729812, -14458.985860226854, 0.014, -0.106, 0.98, 192.0, 0.0, 0.0, 0.0, 0.0, 0.0, 0.0, 0.0, 0.0, 0.0, 1.645922670165041E9, 0.0, 2022-02-27 11:44:30.165
8.0, -1161.687214575674, -3893.070387014197, -1992.1215763236974, -9436.660639841633, -241.33178488395035, 125.68385907219161, -5038.887863026603, -1615.7405514407817, -3656.499523699227, -4958.131010309578, -3532.804969883558, -2761.446268730911, -2878.3011887432563, -1679.3536161605855, -8345.873158678194, -15482.360480113088, 0.012, -0.108, 0.982, 192.0, 0.0, 48.0, 126.0, 80.0, 15.0, 88.0, 0.0, 0.0, 0.0, 1.645922670178656E9, 0.0, 2022-02-27 11:44:30.178
10.0, -774.6220558431215, -3573.6863104923145, -1666.0096247207673, -9082.094917547098, 130.31067017444016, 417.4188277028594, -4706.517422976187, -1199.1487382827686, -1042.0606782508705, -4008.4500918924923, -3474.1986959217425, -2572.8646007614852, -2873.026177051804, -1575.7756323546926, -7920.474758204789, -14345.282536182707, 0.012, -0.108, 0.982, 192.0, 0.0, 0.0, 0.0, 0.0, 0.0, 0.0, 0.0, 0.0, 0.0, 1.645922670187232E9, 0.0, 2022-02-27 11:44:30.187
12.0, -681.7952611202313, -3514.7447603636697, -1674.3244736581414, -9080.843219857601, 162.87716184582257, 365.4957253331811, -4873.4849540573305, -1419.5369386120963, -3311.2321270980988, -4528.932813278772, -3281.7948796504593, -2614.997639059739, -2636.969403859306, -1466.8108781350707, -8170.099040281659, -15101.531458083566, 0.012, -0.108, 0.982, 192.0, 0.0, 0.0, 0.0, 0.0, 0.0, 0.0, 0.0, 0.0, 0.0, 1.645922670194679E9, 0.0, 2022-02-27 11:44:30.194
14.0, -1096.621286466275, -3821.94713615741, -1933.515302361882, -9385.47514503898, -210.82165370245622, 208.09474087890877, -4909.270096930278, -1420.5204153681298, -2057.411021877649, -4597.977351901216, -3653.5043899422158, -2718.2850501877133, -3043.4805802679757, -1777.656588275026, -8177.162191529535, -14962.39184884928, 0.012, -0.108, 0.982, 192.0, 0.0, 0.0, 0.0, 0.0, 0.0, 0.0, 0.0, 0.0, 0.0, 1.645922670201419E9, 0.0, 2022-02-27 11:44:30.201
16.0, -457.83078167805456, -3321.066894658434, -1488.0003318787017, -8881.957397694277, 373.3411876369939, 540.845160585065, -4683.785698865139, -1166.8951710337606, -1783.40098660004, -4000.6716848220453, -3267.489763199063, -2522.5284722481338, -2662.2492268382584, -1422.6438310913838, -7945.709877694831, -14460.505778849814, 0.012, -0.108, 0.982, 192.0, 0.0, 0.0, 0.0, 0.0, 0.0, 0.0, 0.0, 0.0, 0.0, 1.645922670210046E9, 0.0, 2022-02-27 11:44:30.210
18.0, -1084.3054752714008, -3825.8363396926334, -1982.5103262079153, -9436.191253208071, -245.6233198193693, 118.26307991302967, -5071.7672791203595, -1629.8668539365358, -3645.8377415940454, -4945.5022746923305, -3508.1733474938096, -2741.843788843607, -2871.126278773103, -1690.0601017546776, -8346.566062756308, -15488.909541238492, 0.014, -0.108, 0.99, 192.0, 0.0, 56.0, 126.0, 80.0, 15.0, 120.0, 0.0, 0.0, 0.0, 1.645922670217331E9, 0.0, 2022-02-27 11:44:30.217
20.0, -724.2635755853147, -3526.7923506250804, -1672.9386655019125, -9096.578847954137, 97.40890233622818, 395.17884196982885, -4752.249092131745, -1224.585023472908, -1029.4542943780773, -4008.383036659126, -3462.598140549438, -2569.6012460710103, -2880.4693079554213, -1597.121548309511, -7929.884842620474, -14369.422420194438, 0.014, -0.108, 0.99, 192.0, 0.0, 0.0, 0.0, 0.0, 0.0, 0.0, 0.0, 0.0, 0.0, 1.645922670224549E9, 0.0, 2022-02-27 11:44:30.224
22.0, -610.649658518989, -3454.797381734536, -1666.0319764652224, -9072.260149986763, 159.99378681108794, 358.9466642077761, -4892.550992077708, -1443.9450435572915, -3274.284693513476, -4507.944525235239, -3263.198228263644, -2604.067636021094, -2643.2725957957027, -1473.963436360769, -8177.385708974089, -15107.119394197392, 0.014, -0.108, 0.99, 192.0, 0.0, 0.0, 0.0, 0.0, 0.0, 0.0, 0.0, 0.0, 0.0, 1.645922670230979E9, 0.0, 2022-02-27 11:44:30.230
24.0, -1045.1675707301583, -3779.054138547676, -1931.0789622162538, -9382.345900815237, -216.1413688828193, 191.64385695980275, -4885.711358274384, -1437.7983138320822, -2081.483850656015, -4592.009436131649, -3637.3217269565735, -2707.2656401712466, -3041.5136267559087, -1789.4136058585175, -8179.464421208432, -14987.49285787259, 0.014, -0.108, 0.99, 192.0, 0.0, 0.0, 0.0, 0.0, 0.0, 0.0, 0.0, 0.0, 0.0, 1.645922670238934E9, 0.0, 2022-02-27 11:44:30.238
26.0, -403.2254699737394, -3268.9873300775685, -1489.989637135224, -8870.826228955535, 361.047728186575, 526.6741546004004, -4677.214285995279, -1176.4393659161767, -1734.0036313538112, -3979.92926596752, -3252.268225224999, -2501.4060737378686, -2659.768183203719, -1428.1870637163001, -7936.344496768057, -14454.090828191142, 0.014, -0.108, 0.99, 192.0, 0.0, 0.0, 0.0, 0.0, 0.0, 0.0, 0.0, 0.0, 0.0, 1.645922670246954E9, 0.0, 2022-02-27 11:44:30.246
28.0, -1030.6165850897532, -3765.17370524093, -1980.6104279292142, -9425.238898424972, -242.78464827354532, 130.6459463412698, -5031.0871042117005, -1617.1263595970106, -3637.3887821899393, -4919.350733679621, -3488.995550751156, -2723.0459717566937, -2872.6461973960636, -1687.0873197421217, -8349.628251746684, -15480.594692301118, 0.014, -0.11, 0.988, 192.0, 0.0, 56.0, 126.0, 72.0, 15.0, 112.0, 0.0, 0.0, 0.0, 1.645922670254135E9, 0.0, 2022-02-27 11:44:30.254
30.0, -679.9847698193514, -3476.500925600639, -1667.5071915992728, -9090.588580440115, 116.74316129006878, 419.6987056373007, -4722.834196428561, -1188.6881218776848, -986.9412764240833, -3985.204277658973, -3445.901387441324, -2545.237844614726, -2869.4946014278653, -1569.1595159959218, -7918.32899073708, -14352.166873474942, 0.014, -0.11, 0.988, 192.0, 0.0, 0.0, 0.0, 0.0, 0.0, 0.0, 0.0, 0.0, 0.0, 1.645922670261562E9, 0.0, 2022-02-27 11:44:30.261
32.0, -562.1463730509727, -3402.740168898126, -1653.917330970446, -9065.308757461162, 179.99859809858776, 369.6755015463235, -4882.604465795096, -1438.1112382544563, -3237.650184351228, -4487.336216847446, -3240.332393685865, -2588.0190835021835, -2630.196825289348, -1455.7244128852383, -8170.635482148587, -15091.473173078677, 0.014, -0.11, 0.988, 192.0, 0.0, 0.0, 0.0, 0.0, 0.0, 0.0, 0.0, 0.0, 0.0, 1.645922670269679E9, 0.0, 2022-02-27 11:44:30.269
34.0, -1020.9159279961501, -3745.459466631349, -1930.9672034939772, -9386.279807839372, -214.46498804867127, 201.12099660885295, -4906.252611428811, -1441.0169650336463, -2075.582990119814, -4589.2601715636465, -3620.6473255929145, -2696.1791749214144, -3037.6691267095957, -1769.9675881824003, -8181.632540420597, -14994.421898653734, 0.014, -0.11, 0.988, 192.0, 0.0, 0.0, 0.0, 0.0, 0.0, 0.0, 0.0, 0.0, 0.0, 1.645922670277677E9, 0.0, 2022-02-27 11:44:30.277
36.0, -378.7950132840888, -3242.6346233647614, -1482.412395764875, -8873.016699912156, 370.0331294576084, 534.9219483044086, -4674.6661871273745, -1166.9845780115818, -1703.7170176168702, -3973.2460943753836, -3244.1098384988118, -2497.427463224824, -2662.76331696073, -1418.508758367152, -7936.858586890529, -14453.889662491043, 0.014, -0.11, 0.988, 192.0, 0.0, 0.0, 0.0, 0.0, 0.0, 0.0, 0.0, 0.0, 0.0, 1.645922670284263E9, 0.0, 2022-02-27 11:44:30.284
38.0, -982.3591688107454, -3723.398294853961, -1956.7834683398569, -9408.944476717053, -224.6573835202913, 132.97052776462172, -5047.895616042092, -1620.2556038207538, -3637.6122996344925, -4914.075721988168, -3466.35323361793, -2705.3433901480903, -2857.3576041886336, -1673.0727759686442, -8350.567025013808, -15491.412936617488, 0.014, -0.11, 0.996, 192.0, 0.0, 56.0, 126.0, 72.0, 15.5, 16.0, 0.0, 0.0, 0.0, 1.645922670299273E9, 0.0, 2022-02-27 11:44:30.299
40.0, -651.4862956388349, -3442.72743972867, -1658.9911769618009, -9084.911237348466, 105.18730940667504, 408.96986829875334, -4734.79237971215, -1203.7308458961065, -977.2182675860248, -3980.5104113233583, -3429.897538411324, -2528.585794995522, -2866.1194880151143, -1570.3218067075977, -7931.181243798882, -14373.021051051743, 0.014, -0.11, 0.996, 192.0, 0.0, 0.0, 0.0, 0.0, 0.0, 0.0, 0.0, 0.0, 0.0, 1.645922670306529E9, 0.0, 2022-02-27 11:44:30.306
42.0, -527.6352796119785, -3362.7528980675816, -1634.8959964389799, -9041.45944612735, 183.79839465598997, 376.5821905830134, -4867.941721432415, -1427.2259387047218, -3184.140108125223, -4448.69005068422, -3220.841672520837, -2559.900588977407, -2621.412589718412, -1436.3678021869425, -8162.3653367001225, -15071.624824002365, 0.014, -0.11, 0.996, 192.0, 0.0, 0.0, 0.0, 0.0, 0.0, 0.0, 0.0, 0.0, 0.0, 1.64592267031388E9, 0.0, 2022-02-27 11:44:30.313
44.0, -1001.8945934646838, -3726.2593181442403, -1925.0216394688655, -9381.407127548115, -229.57476730045883, 186.45825224617153, -4920.267155202288, -1451.254063994177, -2101.7792346214337, -4581.973502871216, -3606.1633951858757, -2679.8624014690404, -3039.07728661028, -1771.5992655276377, -8190.729700413907, -15010.202230239182, 0.014, -0.11, 0.996, 192.0, 0.0, 0.0, 0.0, 0.0, 0.0, 0.0, 0.0, 0.0, 0.0, 1.645922670321811E9, 0.0, 2022-02-27 11:44:30.321
46.0, -378.01270222815305, -3237.6054808623176, -1483.1723550763554, -8876.972958680744, 348.6872135027902, 530.943337791364, -4689.775966379162, -1175.880572304794, -1677.9454562599012, -3965.3782803271156, -3237.4490186511302, -2491.191326521793, -2675.6155700225318, -1421.5932991019845, -7938.9596508693285, -14445.843034487134, 0.013000000000000001, -0.109, 0.994, 192.0, 0.0, 48.0, 126.0, 80.0, 15.5, 0.0, 0.0, 0.0, 0.0, 1.645922670329925E9, 0.0, 2022-02-27 11:44:30.329
48.0, -990.7857764703962, -3736.0270304712094, -1970.8427156022449, -9415.6723517981, -234.00041270260965, 128.4554753846497, -5041.480665383418, -1626.4246852904184, -3655.1360672874534, -4921.7870738252495, -3467.6049313074273, -2714.999343752783, -2864.8230868367064, -1665.987272976312, -8348.287147079367, -15494.050442463213, 0.013000000000000001, -0.109, 0.994, 192.0, 0.0, 0.0, 0.0, 0.0, 0.0, 0.0, 0.0, 0.0, 0.0, 1.645922670336462E9, 0.0, 2022-02-27 11:44:30.336
50.0, -676.3414354731364, -3470.0412714530557, -1687.5567063756832, -9105.631304458537, 86.97063767559978, 401.45968216177016, -4751.779705498184, -1214.2361657901008, -1018.0549047058707, -4018.776597830844, -3455.7585067461146, -2553.5079900631895, -2900.2729535428234, -1592.8970686074579, -7945.441656761367, -14388.399051236995, 0.013000000000000001, -0.109, 0.994, 192.0, 0.0, 0.0, 0.0, 0.0, 0.0, 0.0, 0.0, 0.0, 0.0, 1.645922670344512E9, 0.0, 2022-02-27 11:44:30.344
52.0, -534.2737477152048, -3373.682901106227, -1645.4236680774295, -9053.104704988564, 189.43103425872735, 383.77945229762224, -4873.4849540573305, -1427.9188427828365, -3175.6687969766617, -4457.586044977432, -3236.5996523618287, -2568.4613071037897, -2625.011220575717, -1438.2006452322776, -8162.141819255569, -15061.767704697575, 0.013000000000000001, -0.109, 0.994, 192.0, 0.0, 0.0, 0.0, 0.0, 0.0, 0.0, 0.0, 0.0, 0.0, 1.64592267035154E9, 0.0, 2022-02-27 11:44:30.351
54.0, -1005.0685411773374, -3730.1261699350084, -1935.5716628517705, -9387.598560762235, -222.1092846523863, 187.3746737688391, -4915.6850475889505, -1465.5815321900288, -2109.8482143697997, -4593.819927432529, -3621.9437267713224, -2690.5018318297666, -3034.003440618925, -1768.7829457262692, -8190.193258546979, -15008.369387193847, 0.013000000000000001, -0.109, 0.994, 192.0, 0.0, 0.0, 0.0, 0.0, 0.0, 0.0, 0.0, 0.0, 0.0, 1.645922670359776E9, 0.0, 2022-02-27 11:44:30.359
56.0, -365.562780566547, -3224.8873382672477, -1481.2277533087438, -8875.22952261323, 359.5501613080694, 529.1104947460287, -4683.092794787025, -1178.13809849478, -1672.4469271238956, -3956.459934289448, -3237.7395913290493, -2485.1563555188604, -2663.2774070832024, -1412.4290838753086, -7940.47956949229, -14441.372685596072, 0.013500000000000002, -0.1085, 0.991, 192.0, 0.0, 56.0, 126.0, 80.0, 15.0, 112.0, 0.0, 0.0, 0.0, 1.645922670366119E9, 0.0, 2022-02-27 11:44:30.366
58.0, -987.1871456130917, -3734.685925803891, -1961.7679073533902, -9416.544069831858, -229.37360160036107, 121.77230379251287, -5043.313508428754, -1627.7434382132815, -3649.9504625738223, -4917.607297612107, -3460.027689937078, -2707.0197709822382, -2850.4285634074886, -1665.6072933205717, -8344.800274944339, -15492.06113720669, 0.013500000000000002, -0.1085, 0.991, 192.0, 0.0, 0.0, 0.0, 0.0, 0.0, 0.0, 0.0, 0.0, 0.0, 1.645922670374173E9, 0.0, 2022-02-27 11:44:30.374
60.0, -687.7855286342536, -3485.285161171575, -1679.823002794147, -9113.543821995714, 80.3768730612842, 384.58411509801334, -4715.748693436229, -1218.9970873590812, -1013.0257622034267, -4023.671629866556, -3453.0092421781114, -2554.290301119125, -2894.059168584248, -1597.79210064317, -7932.388237999468, -14381.648824411492, 0.013500000000000002, -0.1085, 0.991, 192.0, 0.0, 0.0, 0.0, 0.0, 0.0, 0.0, 0.0, 0.0, 0.0, 1.645922670382256E9, 0.0, 2022-02-27 11:44:30.382
62.0, -549.6964513893666, -3388.8597355913803, -1650.2963483686863, -9061.106629503563, 166.4534409586717, 365.71924277773417, -4885.085509429635, -1444.5932441464954, -3188.431643060642, -4478.12729813186, -3249.9883472905576, -2591.193031214837, -2642.356174273035, -1458.4736774532412, -8151.61414761712, -15061.477132019656, 0.013500000000000002, -0.1085, 0.991, 192.0, 0.0, 0.0, 0.0, 0.0, 0.0, 0.0, 0.0, 0.0, 0.0, 1.645922670389328E9, 0.0, 2022-02-27 11:44:30.389
64.0, -1022.4805501080216, -3748.0969724770753, -1952.1343054931529, -9405.457604582025, -258.98966300364293, 165.64877815828063, -4954.7782486412825, -1478.0985090850008, -2150.059002644897, -4625.91703247035, -3635.3324217000513, -2707.9808959938164, -3061.786658976872, -1792.5204983378053, -8207.806433177762, -15030.475262460144, 0.013500000000000002, -0.1085, 0.991, 192.0, 0.0, 0.0, 0.0, 0.0, 0.0, 0.0, 0.0, 0.0, 0.0, 1.645922670396807E9, 0.0, 2022-02-27 11:44:30.396
66.0, -384.22648718672843, -3241.159408230711, -1498.2150790947771, -8890.451060587295, 333.4880272731814, 519.4098376524255, -4713.6476294574295, -1205.1613575412462, -1681.8346597951247, -3975.6600827765565, -3258.9513968171354, -2501.920163860341, -2696.6932650438866, -1432.3891916738978, -7950.426095774901, -14445.038371686742, 0.014750000000000001, -0.10825, 0.9895, 192.0, 0.0, 64.0, 126.0, 80.0, 15.0, 112.0, 0.0, 0.0, 0.0, 1.645922670404835E9, 0.0, 2022-02-27 11:44:30.404
68.0, -997.5807067848095, -3743.112533463542, -1980.4092622291164, -9430.20098569405, -248.90902625429945, 119.11244620233134, -5026.035609964802, -1604.8105484021364, -3666.624863937481, -4925.542166893741, -3470.8682859979017, -2720.2296519553247, -2867.214723493424, -1672.2234096793427, -8357.518417539408, -15498.096108209624, 0.014750000000000001, -0.10825, 0.9895, 192.0, 0.0, 0.0, 0.0, 0.0, 0.0, 0.0, 0.0, 0.0, 0.0, 1.645922670412744E9, 0.0, 2022-02-27 11:44:30.412
70.0, -661.678691110455, -3457.0772596689776, -1682.6169708510604, -9106.234801558829, 88.06587315390982, 394.7094553362674, -4710.943068378338, -1194.2760579915116, -1000.1735091416251, -4011.93696402752, -3450.8858264548576, -2554.938501708329, -2892.3604360056447, -1598.3285425100973, -7935.405723500935, -14374.920949330444, 0.014750000000000001, -0.10825, 0.9895, 192.0, 0.0, 0.0, 0.0, 0.0, 0.0, 0.0, 0.0, 0.0, 0.0, 1.645922670426312E9, 0.0, 2022-02-27 11:44:30.426
72.0, -519.4545411413361, -3365.9939010136013, -1639.120476141033, -9043.426399639417, 200.2939820640066, 383.3547691529714, -4853.904825914482, -1401.7225982812165, -3150.143104808701, -4446.991318105616, -3230.430570892164, -2570.5400193381333, -2621.032610062672, -1440.4581714222636, -8151.27887145029, -15053.564614482477, 0.014750000000000001, -0.10825, 0.9895, 192.0, 0.0, 0.0, 0.0, 0.0, 0.0, 0.0, 0.0, 0.0, 0.0, 1.645922670434549E9, 0.0, 2022-02-27 11:44:30.434
74.0, -1016.982020972016, -3745.1241904645194, -1952.1343054931529, -9400.7190347575, -232.83812199093367, 175.48354571861574, -4921.07181800268, -1461.3794042324312, -2183.117232694296, -4631.840244751006, -3631.9349565428447, -2701.767111035241, -3038.8090656768163, -1782.6410272885594, -8200.899744141072, -15036.532585207533, 0.014750000000000001, -0.10825, 0.9895, 192.0, 0.0, 0.0, 0.0, 0.0, 0.0, 0.0, 0.0, 0.0, 0.0, 1.645922670442356E9, 0.0, 2022-02-27 11:44:30.442
76.0, -373.85527775946593, -3241.002946019524, -1494.7505587042044, -8885.779545996136, 355.4597920727482, 523.3437446765596, -4671.44753592581, -1162.0224907425036, -1641.5791680311165, -3967.009957672353, -3258.660824139217, -2501.0484458265837, -2679.2142008798364, -1436.770133587138, -7931.538871710167, -14431.806138969201, 0.017375, -0.108125, 0.98875, 192.0, 0.0, 80.0, 126.0, 80.0, 15.0, 112.0, 0.0, 0.0, 0.0, 1.645922670448936E9, 0.0, 2022-02-27 11:44:30.448
78.0, -969.0151773709271, -3726.572242566615, -1961.2761689753736, -9412.140776174161, -220.43290381823826, 126.42146663921675, -5025.94620298698, -1631.498531281773, -3672.8386488960564, -4919.64130635754, -3456.1161346573995, -2715.5581373641658, -2849.8474180516505, -1669.0941654555995, -8342.565100498809, -15496.77735528676, 0.017375, -0.108125, 0.98875, 192.0, 0.0, 0.0, 0.0, 0.0, 0.0, 0.0, 0.0, 0.0, 0.0, 1.645922670457179E9, 0.0, 2022-02-27 11:44:30.457
80.0, -694.3792932485692, -3492.191850208265, -1689.8142325656693, -9123.42329304496, 62.69664319713631, 376.9398184942983, -4740.804998970628, -1233.6374799773073, -1024.0228204754378, -4039.586071918735, -3454.8867887123574, -2562.068708189572, -2905.3244477897224, -1622.6025369885608, -7938.579671213588, -14407.353330535094, 0.017375, -0.108125, 0.98875, 192.0, 0.0, 0.0, 0.0, 0.0, 0.0, 0.0, 0.0, 0.0, 0.0, 1.645922670465206E9, 0.0, 2022-02-27 11:44:30.465
82.0, -524.8636632995205, -3370.128973737833, -1631.5879382595942, -9047.829693297112, 182.72551092213524, 378.01270222815305, -4860.163314361967, -1419.0899037229901, -3136.463837202053, -4450.657004196287, -3228.195396446633, -2581.4476706323235, -2640.2774620386913, -1462.4969914551964, -8148.462551648921, -15049.541300480521, 0.017375, -0.108125, 0.98875, 192.0, 0.0, 0.0, 0.0, 0.0, 0.0, 0.0, 0.0, 0.0, 0.0, 1.645922670471633E9, 0.0, 2022-02-27 11:44:30.471
84.0, -1021.050038462882, -3749.8627602890447, -1954.4365351720496, -9416.05233145384, -257.04506123603124, 165.46996420263818, -4937.410943199509, -1486.1674888333666, -2241.075306066907, -4658.975262519749, -3629.2303954637523, -2720.3414106776013, -3061.406679321132, -1800.2542019193415, -8212.299133813278, -15068.629690245354, 0.017375, -0.108125, 0.98875, 192.0, 0.0, 0.0, 0.0, 0.0, 0.0, 0.0, 0.0, 0.0, 0.0, 1.645922670478693E9, 0.0, 2022-02-27 11:44:30.478
86.0, -382.55010635258037, -3244.266300709999, -1498.2597825836876, -8890.160487909376, 335.94671916326513, 535.5030936602466, -4680.410585452389, -1172.4160519142213, -1608.7221036818153, -3962.1149256366407, -3265.0310713089793, -2508.715094174754, -2692.4687853418336, -1437.8430173209927, -7932.924679866395, -14428.632191256547, 0.0166875, -0.1060625, 0.988375, 192.0, 0.0, 64.0, 126.0, 96.0, 15.0, 112.0, 0.0, 0.0, 0.0, 1.645922670487578E9, 0.0, 2022-02-27 11:44:30.487
88.0, -976.5924187412762, -3725.678172788402, -1973.8602011037115, -9418.466319855013, -234.73802026963477, 134.04341149847644, -5032.115284456645, -1607.2915920366756, -3684.1486315904417, -4923.8434343151375, -3474.0198819661, -2728.231576470325, -2858.0728600112034, -1668.6471305664934, -8345.94021391156, -15486.070869692669, 0.0166875, -0.1060625, 0.988375, 192.0, 0.0, 0.0, 0.0, 0.0, 0.0, 0.0, 0.0, 0.0, 0.0, 1.645922670494649E9, 0.0, 2022-02-27 11:44:30.494
90.0, -674.5756476611672, -3472.5893703209604, -1686.9755610198451, -9117.27656331975, 81.963846917611, 394.754158825178, -4739.441542558854, -1206.2342412751009, -1008.4213028456335, -4031.807664848288, -3462.0840504269663, -2566.8966849919184, -2895.1767558070133, -1610.1749670714103, -7940.233700303281, -14383.772240134746, 0.0166875, -0.1060625, 0.988375, 192.0, 0.0, 0.0, 0.0, 0.0, 0.0, 0.0, 0.0, 0.0, 0.0, 1.645922670501396E9, 0.0, 2022-02-27 11:44:30.501
92.0, -501.48373859926926, -3351.3088049064645, -1615.472330507318, -9037.011448980744, 214.97907817114333, 398.28573444911655, -4838.772694918239, -1390.8149469870266, -3112.2345462125, -4445.761972160575, -3224.8649865227926, -2582.4087956439016, -2612.069560536094, -1448.5942064039955, -8141.935842267972, -15029.335323492924, 0.0166875, -0.1060625, 0.988375, 192.0, 0.0, 0.0, 0.0, 0.0, 0.0, 0.0, 0.0, 0.0, 0.0, 1.645922670509289E9, 0.0, 2022-02-27 11:44:30.509
94.0, -1012.3999133586781, -3743.626623586014, -1939.5279216203598, -9408.318627872304, -232.48049407964876, 170.9014381052778, -4928.336134950654, -1461.6476251658949, -2227.6195559048124, -4651.867407782961, -3614.947630756811, -2717.3686286650454, -3026.8732341376826, -1791.2464489038528, -8204.163098831546, -15057.654983717799, 0.0166875, -0.1060625, 0.988375, 192.0, 0.0, 0.0, 0.0, 0.0, 0.0, 0.0, 0.0, 0.0, 0.0, 1.645922670517393E9, 0.0, 2022-02-27 11:44:30.517
96.0, -381.0525394740748, -3244.400411176731, -1489.1402708459225, -8886.13717390742, 353.5598937940471, 522.427323153892, -4669.346471947011, -1168.392737912266, -1597.8368041320807, -3968.328710595216, -3257.2526642385324, -2511.062027342561, -2676.0849566560933, -1454.6962326402943, -7922.598173928043, -14417.165746350975, 0.01634375, -0.10703125, 0.9881875, 192.0, 0.0, 64.0, 126.0, 80.0, 15.0, 112.0, 0.0, 0.0, 0.0, 1.645922670524417E9, 0.0, 2022-02-27 11:44:30.524
98.0, -955.0453370863602, -3707.953239435344, -1956.2470264729295, -9404.205906892528, -220.63406951833602, 125.37093464981731, -5047.225063708433, -1634.6724789944267, -3687.4566897698273, -4921.474149402875, -3455.6020445349272, -2715.6922478308975, -2840.213816191413, -1669.6306073225269, -8340.687553964563, -15493.424593618465, 0.01634375, -0.10703125, 0.9881875, 192.0, 0.0, 0.0, 0.0, 0.0, 0.0, 0.0, 0.0, 0.0, 0.0, 1.645922670531915E9, 0.0, 2022-02-27 11:44:30.531
100.0, -684.0751390546726, -3473.997530221645, -1696.4974041578062, -9125.680819234947, 54.091221581843094, 384.89703952038764, -4733.7194959782955, -1213.230337289612, -1028.7837420444182, -4047.7891621338326, -3469.348367374941, -2565.6673390468764, -2909.8395001696945, -1613.5500804841615, -7947.341555040069, -14404.067624100164, 0.01634375, -0.10703125, 0.9881875, 192.0, 0.0, 0.0, 0.0, 0.0, 0.0, 0.0, 0.0, 0.0, 0.0, 1.645922670547046E9, 0.0, 2022-02-27 11:44:30.547
102.0, -489.5702588045906, -3334.544996564984, -1615.4276270184073, -9026.416722108928, 205.56899375545905, 398.68806584931207, -4841.745476930795, -1395.6652755338282, -3093.2802669144, -4427.455893451678, -3229.357687158309, -2574.898609506918, -2626.1735112873926, -1443.5874156460065, -8140.0582957337265, -15025.826099613441, 0.01634375, -0.10703125, 0.9881875, 192.0, 0.0, 0.0, 0.0, 0.0, 0.0, 0.0, 0.0, 0.0, 0.0, 1.645922670553556E9, 0.0, 2022-02-27 11:44:30.553
104.0, -989.1764508696141, -3719.0397046851763, -1932.7553430504017, -9396.896886455643, -238.247244149118, 180.28917077650678, -4918.92605053497, -1464.57570368954, -2219.572927900902, -4640.982108233226, -3615.148796456909, -2698.928439489417, -3035.7915801753497, -1777.3436638526516, -8208.298171555778, -15059.465475018678, 0.01634375, -0.10703125, 0.9881875, 192.0, 0.0, 0.0, 0.0, 0.0, 0.0, 0.0, 0.0, 0.0, 0.0, 1.645922670563064E9, 0.0, 2022-02-27 11:44:30.563
106.0, -345.2003413677623, -3211.4762915940632, -1473.1364218159226, -8872.703775489781, 353.0905071604857, 544.0191082977186, -4673.861524326983, -1137.9273102196826, -1578.1002137780445, -3934.9575561234424, -3231.6375650927503, -2484.01641655164, -2663.2550553387473, -1416.2959356660767, -7924.565127440111, -14415.176441094452, 0.015171875000000001, -0.105515625, 0.98809375, 192.0, 0.0, 56.0, 126.0, 96.0, 15.0, 112.0, 0.0, 0.0, 0.0, 1.645922670569636E9, 0.0, 2022-02-27 11:44:30.569
108.0, -934.3699734652012, -3685.8697159135004, -1943.2830146888514, -9390.996025919441, -213.6603252482802, 141.75476333555739, -5025.767389031338, -1616.791083430181, -3666.043718581643, -4892.774509522261, -3428.2435093216313, -2694.5922010650875, -2825.260499150813, -1642.987327931801, -8340.151112097636, -15483.746288269316, 0.015171875000000001, -0.105515625, 0.98809375, 192.0, 0.0, 0.0, 0.0, 0.0, 0.0, 0.0, 0.0, 0.0, 0.0, 1.64592267057673E9, 0.0, 2022-02-27 11:44:30.576
110.0, -655.1519817295053, -3447.7118787422037, -1676.984331248323, -9101.272714289751, 80.22041085009705, 401.81731007305507, -4743.666022260907, -1203.3508662403663, -992.7750817269185, -4007.332504669727, -3436.893634425835, -2534.486655531723, -2886.146651047069, -1587.0409115601674, -7936.076275834594, -14385.403917479984, 0.015171875000000001, -0.105515625, 0.98809375, 192.0, 0.0, 0.0, 0.0, 0.0, 0.0, 0.0, 0.0, 0.0, 0.0, 1.645922670584179E9, 0.0, 2022-02-27 11:44:30.584
112.0, -474.5275347861689, -3327.191272639188, -1606.4869292362846, -9014.235021380786, 219.11415089537513, 408.1652054983623, -4831.664840181451, -1386.0763771625016, -3069.2968451138554, -4409.418035676245, -3203.004980445502, -2548.45649581629, -2610.70610412432, -1424.1861014588, -8133.620993330597, -15007.028282526528, 0.015171875000000001, -0.105515625, 0.98809375, 192.0, 0.0, 0.0, 0.0, 0.0, 0.0, 0.0, 0.0, 0.0, 0.0, 1.645922670592349E9, 0.0, 2022-02-27 11:44:30.592
114.0, -1006.566108055843, -3737.8375217720895, -1949.966186280988, -9408.743311016955, -249.0878402099419, 171.1696590387415, -4929.878405318071, -1464.732165900727, -2259.671957453723, -4660.115201486969, -3613.8076917895905, -2706.77390179323, -3044.9110919131153, -1781.4787365768834, -8209.616924478642, -15070.328422823957, 0.015171875000000001, -0.105515625, 0.98809375, 192.0, 0.0, 0.0, 0.0, 0.0, 0.0, 0.0, 0.0, 0.0, 0.0, 1.645922670599376E9, 0.0, 2022-02-27 11:44:30.599
116.0, -368.3120451345498, -3232.196358704133, -1490.8613551689812, -8885.645435529404, 341.467600043726, 534.0949337595623, -4679.561219163086, -1156.7251273065958, -1566.6114171280167, -3948.8603411746435, -3253.4752194255852, -2497.338056247003, -2691.842936497085, -1429.4387614057973, -7929.23664203127, -14406.99570262381, 0.0135859375, -0.1027578125, 0.988046875, 192.0, 0.0, 48.0, 126.0, 112.0, 15.0, 112.0, 0.0, 0.0, 0.0, 1.645922670606379E9, 0.0, 2022-02-27 11:44:30.606
118.0, -940.7178688905084, -3690.496527015749, -1948.133343235653, -9392.314778842305, -205.81486294446742, 141.35243193536186, -5029.477778610919, -1615.338220040586, -3700.7112742318245, -4904.68798931694, -3444.8508554519244, -2710.193718694892, -2842.3372319146674, -1645.311909355153, -8343.123894110191, -15481.108782423591, 0.0135859375, -0.1027578125, 0.988046875, 192.0, 0.0, 0.0, 0.0, 0.0, 0.0, 0.0, 0.0, 0.0, 0.0, 1.64592267061391E9, 0.0, 2022-02-27 11:44:30.613
120.0, -693.194650792438, -3476.3891668783626, -1700.788939093225, -9123.42329304496, 55.90171288272296, 386.1934406987954, -4738.994507669748, -1216.650154191274, -1038.0373642489153, -4040.904824841598, -3470.7565272756256, -2558.6935947768206, -2919.8530816856724, -1602.150690811955, -7952.974194642806, -14402.950036877399, 0.0135859375, -0.1027578125, 0.988046875, 192.0, 0.0, 0.0, 0.0, 0.0, 0.0, 0.0, 0.0, 0.0, 0.0, 1.645922670621883E9, 0.0, 2022-02-27 11:44:30.621
122.0, -479.6907877553449, -3324.4420080711852, -1604.0952925795666, -9011.64221902397, 225.61850853186948, 409.1710339988511, -4841.454904252876, -1388.7138830082279, -3049.940234415559, -4401.840794305896, -3222.1827771881553, -2558.0230424431616, -2627.8275403770854, -1424.7895985590933, -8135.386781142567, -14991.672634085731, 0.0135859375, -0.1027578125, 0.988046875, 192.0, 0.0, 0.0, 0.0, 0.0, 0.0, 0.0, 0.0, 0.0, 0.0, 1.645922670629897E9, 0.0, 2022-02-27 11:44:30.629
124.0, -1015.9091372381613, -3737.2787281607066, -1955.2188462279853, -9414.465357597514, -256.9780060026653, 163.346548479384, -4950.017327072302, -1493.7894336926263, -2325.475493130147, -4677.1919342508245, -3615.9981627462107, -2706.416273881945, -3043.7711529458948, -1775.555524296227, -8225.732532230919, -15100.659740049809, 0.0135859375, -0.1027578125, 0.988046875, 192.0, 0.0, 0.0, 0.0, 0.0, 0.0, 0.0, 0.0, 0.0, 0.0, 1.645922670636455E9, 0.0, 2022-02-27 11:44:30.636
126.0, -374.25760915966146, -3226.7648848014933, -1488.0450353676124, -8887.522982063649, 338.42776279780423, 528.9763842792969, -4682.265780242179, -1150.913673748216, -1528.8369689985477, -3939.919643392521, -3259.1749142616886, -2494.4770329567236, -2697.900259244473, -1433.1491509853784, -7924.833348373574, -14397.362100763572, 0.01, -0.10200000000000001, 0.99, 192.0, 0.0, 40.0, 126.0, 104.0, 15.0, 120.0, 0.0, 0.0, 0.0, 1.645922670644518E9, 0.0, 2022-02-27 11:44:30.644
128.0, -953.2571975299356, -3703.0358556551764, -1945.6522996011138, -9400.361406846216, -213.72738048164612, 131.87529228631166, -5044.364040418153, -1627.6540312354603, -3683.1204513454977, -4902.698684060417, -3441.5204455280837, -2707.779730293719, -2839.766781302307, -1651.4586390803622, -8337.178330085078, -15479.186532400434, 0.01, -0.10200000000000001, 0.99, 192.0, 0.0, 0.0, 0.0, 0.0, 0.0, 0.0, 0.0, 0.0, 0.0, 1.645922670652555E9, 0.0, 2022-02-27 11:44:30.652
130.0, -701.420092751991, -3493.130623475388, -1692.6529041114932, -9126.574889013158, 64.84241066484579, 381.20900168526197, -4738.435714058365, -1221.5451862269863, -1013.1151691812479, -4051.1642755465837, -3470.510658086617, -2568.595417570522, -2915.829767683717, -1613.6618392064381, -7942.223005559803, -14401.22895255434, 0.01, -0.10200000000000001, 0.99, 192.0, 0.0, 0.0, 0.0, 0.0, 0.0, 0.0, 0.0, 0.0, 0.0, 1.645922670659742E9, 0.0, 2022-02-27 11:44:30.659
132.0, -499.9414682318531, -3345.251482159076, -1601.278972778198, -9010.681094012392, 232.5922528019253, 409.1039787654852, -4843.801837420683, -1395.0170749446245, -3059.3279670867882, -4418.671657880743, -3234.4315331496637, -2572.574028083566, -2632.5214067127, -1440.0558400220682, -8131.072894462693, -15000.255703956569, 0.01, -0.10200000000000001, 0.99, 192.0, 0.0, 0.0, 0.0, 0.0, 0.0, 0.0, 0.0, 0.0, 0.0, 1.645922670674222E9, 0.0, 2022-02-27 11:44:30.674
134.0, -1054.175323745647, -3778.9423798253993, -1955.1517909946194, -9417.348732632248, -244.37162212987212, 167.34751073688398, -4934.393457698043, -1480.8477736530035, -2353.1916562547276, -4696.012103082193, -3629.1186367414757, -2716.608669353565, -3041.6030337337297, -1781.2775708767858, -8219.742264716895, -15105.84534476344, 0.01, -0.10200000000000001, 0.99, 192.0, 0.0, 0.0, 0.0, 0.0, 0.0, 0.0, 0.0, 0.0, 0.0, 1.645922670682237E9, 0.0, 2022-02-27 11:44:30.682
136.0, -438.6976884243117, -3297.3516937913532, -1490.481375513241, -8891.166316409865, 351.10120190396333, 535.1231140045064, -4658.885855541927, -1150.8019150259395, -1513.5930792800284, -3943.9206056500207, -3279.291484271465, -2500.7802248931202, -2700.7836342792075, -1431.316307940043, -7912.294019734147, -14383.548722690193, 0.012, -0.11, 0.992, 192.0, 0.0, 48.0, 126.0, 72.0, 15.5, 0.0, 0.0, 0.0, 0.0, 1.645922670688685E9, 0.0, 2022-02-27 11:44:30.688
138.0, -1034.528140369432, -3785.603199673081, -1947.6639566020915, -9391.465412553003, -201.2551070755848, 141.1512662352641, -5033.4340373795085, -1624.0330486337004, -3720.0231814412095, -4917.920222034481, -3459.4465445812402, -2720.5872798666096, -2836.2352056783684, -1648.4188018344405, -8333.914975394604, -15475.185570142934, 0.012, -0.11, 0.992, 192.0, 0.0, 0.0, 0.0, 0.0, 0.0, 0.0, 0.0, 0.0, 0.0, 1.645922670696823E9, 0.0, 2022-02-27 11:44:30.696
140.0, -841.3643647866685, -3627.933994285345, -1713.3506194771076, -9137.974278685366, 52.19132330314199, 378.95147549527593, -4741.184978626368, -1232.6763549657292, -1075.2977222559123, -4089.363406820704, -3512.9789725517003, -2592.645894604432, -2932.638279514108, -1627.117589368533, -7951.722496953309, -14410.102595103097, 0.012, -0.11, 0.992, 192.0, 0.0, 0.0, 0.0, 0.0, 0.0, 0.0, 0.0, 0.0, 0.0, 1.645922670704766E9, 0.0, 2022-02-27 11:44:30.704
142.0, -664.6514731230108, -3514.342428963474, -1612.410141516941, -9015.419663836916, 223.4280375752494, 416.7929788581108, -4837.4986454842865, -1379.0355776590798, -3075.46592658352, -4445.516102971566, -3273.681196413183, -2608.7615023567087, -2640.1880550608703, -1442.1345522564118, -8127.764836283307, -14977.501628101067, 0.012, -0.11, 0.992, 192.0, 0.0, 0.0, 0.0, 0.0, 0.0, 0.0, 0.0, 0.0, 0.0, 1.645922670711971E9, 0.0, 2022-02-27 11:44:30.711
144.0, -1240.879445180827, -3959.54447502428, -1961.678500375569, -9422.221412923505, -247.67968030925755, 172.51076370605992, -4923.754027337316, -1478.3890817629197, -2403.3266190679815, -4737.228719857779, -3688.4848700147713, -2768.867047890073, -3061.697251999051, -1789.3912541140621, -8223.67617174103, -15092.747222512631, 0.012, -0.11, 0.992, 192.0, 0.0, 0.0, 0.0, 0.0, 0.0, 0.0, 0.0, 0.0, 0.0, 1.645922670719448E9, 0.0, 2022-02-27 11:44:30.719
146.0, -616.2152428883604, -3463.872189983391, -1495.5775732490508, -8896.083700190033, 358.41022234084875, 546.6566141434448, -4642.122047200447, -1126.4385135696548, -1601.5248419672064, -3996.067225464252, -3327.5712522949284, -2549.708193505787, -2702.5270703467218, -1434.1773312303224, -7911.7799296116755, -14385.090993057609, 0.008, -0.10400000000000001, 0.988, 192.0, 0.0, 32.0, 126.0, 96.0, 15.0, 112.0, 0.0, 0.0, 0.0, 1.645922670726514E9, 0.0, 2022-02-27 11:44:30.726
148.0, -1179.0768717619028, -3920.071294316208, -1946.524017634871, -9394.505249798924, -179.1045283203755, 162.43012695671644, -5004.577935287707, -1593.992304085768, -3783.2562665052733, -4953.794771885249, -3500.014960767622, -2754.0478413162045, -2831.407228876022, -1631.4538277928625, -8324.013152600903, -15467.876549706049, 0.008, -0.10400000000000001, 0.988, 192.0, 0.0, 0.0, 0.0, 0.0, 0.0, 0.0, 0.0, 0.0, 0.0, 1.645922670734512E9, 0.0, 2022-02-27 11:44:30.734
150.0, -945.8364183707737, -3711.9318499483884, -1711.71894213187, -9136.700229251413, 69.2904078114519, 391.8484320459881, -4722.074237117081, -1210.7716453995283, -1105.1149493592918, -4109.211755897017, -3540.2033972982645, -2618.842139106052, -2924.3234305767337, -1608.1633100704325, -7941.284232292681, -14399.463164742372, 0.008, -0.10400000000000001, 0.988, 192.0, 0.0, 0.0, 0.0, 0.0, 0.0, 0.0, 0.0, 0.0, 0.0, 1.64592267074154E9, 0.0, 2022-02-27 11:44:30.741
152.0, -706.6056974656221, -3537.5658914525384, -1607.1127780810332, -9005.003750920743, 245.53391284154807, 427.6782784078453, -4833.5647384601525, -1372.1959438557558, -3096.6106768382406, -4450.455838496189, -3295.9658856351243, -2622.194900774348, -2637.4611422373227, -1426.644793348884, -8121.551051324732, -14968.650337296765, 0.008, -0.10400000000000001, 0.988, 192.0, 0.0, 0.0, 0.0, 0.0, 0.0, 0.0, 0.0, 0.0, 0.0, 1.645922670749085E9, 0.0, 2022-02-27 11:44:30.749
154.0, -1237.5713870014415, -3949.68735571949, -1965.5453521663371, -9422.511985601424, -242.24820640661795, 167.52632469252643, -4932.091228019146, -1487.5309452451404, -2436.6754217952994, -4743.442504816354, -3688.9989601372436, -2762.0050623422935, -3053.6953274840507, -1778.30478886423, -8224.145558374592, -15104.660702307308, 0.008, -0.10400000000000001, 0.988, 192.0, 0.0, 0.0, 0.0, 0.0, 0.0, 0.0, 0.0, 0.0, 0.0, 1.645922670757127E9, 0.0, 2022-02-27 11:44:30.757
156.0, -579.4466232593803, -3418.922831883768, -1498.4833000282408, -8891.47924083224, 350.52005654812535, 538.2076547393388, -4662.998576521704, -1150.8913220037607, -1567.7737078396926, -3985.293684636794, -3322.9220894482246, -2543.136780635927, -2704.136395947504, -1439.8546743219704, -7911.712874378309, -14379.570112177147, 0.012, -0.10400000000000001, 0.99, 192.0, 0.0, 48.0, 126.0, 96.0, 15.0, 120.0, 0.0, 0.0, 0.0, 1.645922670765058E9, 0.0, 2022-02-27 11:44:30.765
158.0, -1110.2111470951018, -3846.757572502801, -1942.5230553773708, -9382.457659537515, -182.52434522203748, 160.50787693356003, -5060.658462126072, -1600.116682066522, -3769.5769988986253, -4930.683068118461, -3481.9100477588236, -2738.625137642043, -2829.9990689753377, -1631.2079586038542, -8331.121007337691, -15469.39646832901, 0.012, -0.10400000000000001, 0.99, 192.0, 0.0, 0.0, 0.0, 0.0, 0.0, 0.0, 0.0, 0.0, 0.0, 1.64592267077167E9, 0.0, 2022-02-27 11:44:30.771
160.0, -865.1242691426598, -3636.829988578557, -1712.9929915658226, -9137.460188562893, 63.32249204188491, 378.70560630626755, -4702.985847352248, -1223.2439188055896, -1084.238420038035, -4089.8551451987205, -3522.456112200751, -2593.8528888050187, -2927.5867852672086, -1613.3936182729744, -7949.241453318769, -14409.879077658545, 0.012, -0.10400000000000001, 0.99, 192.0, 0.0, 0.0, 0.0, 0.0, 0.0, 0.0, 0.0, 0.0, 0.0, 1.645922670779714E9, 0.0, 2022-02-27 11:44:30.779
162.0, -611.45432131938, -3450.4611433102064, -1602.7541879122482, -8998.454689795339, 252.8429332784335, 425.21958651776157, -4830.591956447596, -1351.1406005788567, -3034.718696441495, -4421.331515470924, -3270.194324278155, -2596.713912095298, -2635.2483195362474, -1433.484427152208, -8109.279943618768, -14958.592052291877, 0.012, -0.10400000000000001, 0.99, 192.0, 0.0, 0.0, 0.0, 0.0, 0.0, 0.0, 0.0, 0.0, 0.0, 1.645922670793771E9, 0.0, 2022-02-27 11:44:30.793
164.0, -1151.3830603817773, -3863.677843055468, -1962.840791087245, -9414.420654108602, -238.00137496010962, 163.07832754592033, -4899.860012514593, -1468.442555480308, -2406.3441045694476, -4718.386199281955, -3661.9980528352326, -2742.6708033884534, -3046.8556936807267, -1780.2493906318416, -8225.307849086268, -15105.688882552253, 0.012, -0.10400000000000001, 0.99, 192.0, 0.0, 0.0, 0.0, 0.0, 0.0, 0.0, 0.0, 0.0, 0.0, 1.645922670801371E9, 0.0, 2022-02-27 11:44:30.801
166.0, -498.4439013533475, -3341.1834646682105, -1496.538698260629, -8885.220752384754, 351.3247193485164, 531.3233174471042, -4629.24744239419, -1141.391830610255, -1538.023535969679, -3957.3987075565706, -3305.353618306353, -2520.78503618062, -2703.063512213649, -1440.1675987443446, -7901.90045856243, -14374.809190608168, 0.012, -0.106, 0.992, 192.0, 0.0, 48.0, 126.0, 88.0, 15.5, 0.0, 0.0, 0.0, 0.0, 1.645922670809404E9, 0.0, 2022-02-27 11:44:30.809
168.0, -1024.6039658312757, -3768.3476529535837, -1936.0410494853318, -9369.180723331061, -185.29596153449555, 152.05891752945394, -5008.869470223126, -1611.247850805265, -3753.2825771907064, -4911.684085331451, -3463.7157277722035, -2718.866195543551, -2829.1049991971254, -1635.0748103946223, -8327.902356136126, -15470.06702066267, 0.012, -0.106, 0.992, 192.0, 0.0, 0.0, 0.0, 0.0, 0.0, 0.0, 0.0, 0.0, 0.0, 1.64592267081734E9, 0.0, 2022-02-27 11:44:30.817
170.0, -806.0486085472833, -3578.2684181056525, -1720.3467154916186, -9137.437836818437, 42.24479702053035, 368.3567486234604, -4738.011030913714, -1235.2244538336342, -1082.8973153707166, -4090.101014387729, -3514.6553533858482, -2587.907324779907, -2940.81901798475, -1628.5704527581279, -7956.706935966842, -14426.9558104224, 0.012, -0.106, 0.992, 192.0, 0.0, 0.0, 0.0, 0.0, 0.0, 0.0, 0.0, 0.0, 0.0, 1.645922670823901E9, 0.0, 2022-02-27 11:44:30.823
172.0, -539.8169803401208, -3378.3991191862965, -1589.7454726392596, -8990.072785624598, 257.40268914731615, 424.9960690732085, -4808.933116070404, -1364.9539786522364, -2983.756719083395, -4384.786413286497, -3246.903806555725, -2578.452536875312, -2632.6108136905214, -1433.9538137857694, -8110.352827352623, -14950.05368590995, 0.012, -0.106, 0.992, 192.0, 0.0, 0.0, 0.0, 0.0, 0.0, 0.0, 0.0, 0.0, 0.0, 1.645922670831967E9, 0.0, 2022-02-27 11:44:30.831
174.0, -1092.3744550197669, -3808.5807929731363, -1958.5716078962814, -9417.371084376704, -246.5397413420369, 164.9111705912555, -4952.476018962386, -1484.8710876549587, -2434.7755235165982, -4715.12284459148, -3645.3683549604843, -2737.3063847191793, -3047.7944669478497, -1783.982131955878, -8229.62173576614, -15128.241792707659, 0.012, -0.106, 0.992, 192.0, 0.0, 0.0, 0.0, 0.0, 0.0, 0.0, 0.0, 0.0, 0.0, 1.645922670839907E9, 0.0, 2022-02-27 11:44:30.839
176.0, -437.6695081793676, -3289.1709553207106, -1488.313256301076, -8879.47635405974, 349.91655944783207, 541.6274716410007, -4676.364919705978, -1137.3908683527552, -1478.5008404851962, -3930.867186888121, -3283.2477430400545, -2509.005666852673, -2701.476538357322, -1436.479560909219, -7909.075368532583, -14370.450600439382, 0.01, -0.106, 0.986, 192.0, 0.0, 40.0, 126.0, 88.0, 15.0, 104.0, 0.0, 0.0, 0.0, 1.64592267084708E9, 0.0, 2022-02-27 11:44:30.847
178.0, -956.6993661760529, -3709.853137714045, -1921.2218429114632, -9356.41787724708, -168.0851183039091, 162.51953393453766, -5007.304848111254, -1606.4869292362846, -3726.4604838443383, -4885.465489085375, -3434.3231838134748, -2707.779730293719, -2811.0671414216927, -1623.8765864225134, -8323.78963515635, -15464.814360715673, 0.01, -0.106, 0.986, 192.0, 0.0, 0.0, 0.0, 0.0, 0.0, 0.0, 0.0, 0.0, 0.0, 1.645922670853561E9, 0.0, 2022-02-27 11:44:30.853
180.0, -765.1225644496161, -3542.5056269771612, -1721.7101719033924, -9139.069514163675, 32.34297422682932, 363.3276061210163, -4749.522179308197, -1240.2535963360783, -1070.983835576038, -4083.8201741957873, -3502.898335802357, -2585.202763700815, -2935.72282024894, -1626.0670573791335, -7957.0422121336715, -14436.075322160164, 0.01, -0.106, 0.986, 192.0, 0.0, 0.0, 0.0, 0.0, 0.0, 0.0, 0.0, 0.0, 0.0, 1.645922670861571E9, 0.0, 2022-02-27 11:44:30.861
182.0, -491.91719197239786, -3339.037697200501, -1582.7717283692036, -8975.58885521756, 256.64272983583567, 429.108790052985, -4826.009848834258, -1350.7606209231164, -2936.303965604778, -4360.937101952684, -3234.7444575720383, -2563.678033790354, -2628.7216101552976, -1423.224976447222, -8107.22358312888, -14931.367627545313, 0.01, -0.106, 0.986, 192.0, 0.0, 0.0, 0.0, 0.0, 0.0, 0.0, 0.0, 0.0, 0.0, 1.645922670869578E9, 0.0, 2022-02-27 11:44:30.869
184.0, -1049.9955475325046, -3767.69945236438, -1950.6590903591027, -9410.374988362193, -248.7525640431123, 169.22505727112977, -4955.739373652861, -1477.4726602402523, -2424.627831533889, -4707.053864843115, -3629.632726863948, -2718.9332507769172, -3039.6807837105735, -1773.141535895054, -8234.427360824033, -15125.738397328663, 0.01, -0.106, 0.986, 192.0, 0.0, 0.0, 0.0, 0.0, 0.0, 0.0, 0.0, 0.0, 0.0, 1.645922670876672E9, 0.0, 2022-02-27 11:44:30.876
186.0, -400.3197431945495, -3252.782315347471, -1475.8186311505594, -8883.9467029508, 350.0059664256533, 540.5992913960566, -4642.524378600643, -1140.9000922322384, -1445.0402790356015, -3914.259840757828, -3264.7404986310603, -2492.755948633665, -2692.8264132531185, -1428.768209072138, -7902.101624262527, -14362.247510224284, 0.014, -0.10400000000000001, 0.992, 192.0, 0.0, 56.0, 126.0, 96.0, 15.5, 0.0, 0.0, 0.0, 0.0, 1.645922670884149E9, 0.0, 2022-02-27 11:44:30.884
188.0, -931.3748397081899, -3684.3945007794505, -1908.7272177609466, -9365.783258173855, -171.10260380537557, 162.76540312354604, -5019.218327905933, -1601.0331035891895, -3708.4896813022715, -4869.193419121912, -3415.7265324266596, -2694.413387109445, -2802.0817401506592, -1624.9718219008234, -8317.553498453319, -15461.394543814009, 0.014, -0.10400000000000001, 0.992, 192.0, 0.0, 0.0, 0.0, 0.0, 0.0, 0.0, 0.0, 0.0, 0.0, 1.645922670892273E9, 0.0, 2022-02-27 11:44:30.892
190.0, -732.220796611404, -3511.5931643954714, -1703.5829071501385, -9137.370781585072, 40.613119675292936, 375.464603360248, -4755.199522399846, -1232.229320076623, -1042.9770997735382, -4071.861990912198, -3491.2307251966868, -2570.1823914268484, -2925.373962566133, -1620.345010798575, -7951.722496953309, -14426.151147622008, 0.014, -0.10400000000000001, 0.992, 192.0, 0.0, 0.0, 0.0, 0.0, 0.0, 0.0, 0.0, 0.0, 0.0, 1.645922670899315E9, 0.0, 2022-02-27 11:44:30.899
192.0, -463.99986314771934, -3311.835624198392, -1575.149783509944, -8974.9183028839, 256.1509914578189, 435.1437610559179, -4828.937927357903, -1366.6527112308397, -2939.7461342508955, -4359.171314140715, -3231.235233692555, -2558.0900976765274, -2627.559319443622, -1421.9509270132694, -8110.397530841534, -14940.598898005355, 0.014, -0.10400000000000001, 0.992, 192.0, 0.0, 0.0, 0.0, 0.0, 0.0, 0.0, 0.0, 0.0, 0.0, 1.645922670906823E9, 0.0, 2022-02-27 11:44:30.906
194.0, -1033.8799397802281, -3754.8248475581227, -1958.6610148741026, -9412.811328507822, -261.53776187154796, 155.34462396438408, -4945.904606092526, -1505.7476169762156, -2475.522753658623, -4707.433844498854, -3624.5588808725934, -2709.7913872946965, -3040.9324814000706, -1773.7450329953472, -8247.279613885834, -15155.555624432043, 0.011, -0.10600000000000001, 0.991, 192.0, 0.0, 32.0, 126.0, 80.0, 15.0, 120.0, 0.0, 0.0, 0.0, 1.645922670921822E9, 0.0, 2022-02-27 11:44:30.921
196.0, -388.69683607778984, -3235.7726378169823, -1481.965360875769, -8879.431650570828, 336.43845754128193, 534.3855064374812, -4668.362995190978, -1154.7358220500735, -1399.80034825806, -3902.9275063189875, -3275.4022807362417, -2476.39447169238, -2708.2491169272803, -1433.3950201743867, -7909.544755166145, -14358.98415553381, 0.011, -0.10600000000000001, 0.991, 192.0, 0.0, 0.0, 0.0, 0.0, 0.0, 0.0, 0.0, 0.0, 0.0, 1.645922670928944E9, 0.0, 2022-02-27 11:44:30.928
198.0, -907.3467144187349, -3662.2215702797857, -1908.0790171717426, -9355.99319410243, -171.66139741675823, 164.08415604640913, -5031.80236003427, -1594.439338974874, -3707.4838528017826, -4857.503456771786, -3412.999619603112, -2679.2365526242916, -2804.31691459619, -1607.3362955255861, -8327.120045080192, -15455.828959444638, 0.011, -0.10600000000000001, 0.991, 192.0, 0.0, 0.0, 0.0, 0.0, 0.0, 0.0, 0.0, 0.0, 0.0, 1.645922670936597E9, 0.0, 2022-02-27 11:44:30.936
200.0, -735.5959100241554, -3513.984801052189, -1716.949250334412, -9147.71963926788, 26.308003223896414, 362.0982601759744, -4750.818580486605, -1238.9348434132153, -1060.0985360263035, -4076.578208992268, -3494.7846525650803, -2569.489487348734, -2938.24856737239, -1622.7366474552928, -7960.886712179985, -14436.075322160164, 0.011, -0.10600000000000001, 0.991, 192.0, 0.0, 0.0, 0.0, 0.0, 0.0, 0.0, 0.0, 0.0, 0.0, 1.645922670944454E9, 0.0, 2022-02-27 11:44:30.944
202.0, -457.5625607445909, -3306.650019484761, -1576.2003154993433, -8977.041718607154, 254.20638969020723, 430.7628191426777, -4822.321810999133, -1356.7955919260494, -2907.403160024066, -4341.111104620827, -3228.0165824909905, -2555.0949639195164, -2632.834331135074, -1425.2366334481997, -8106.910658706505, -14921.242287307059, 0.011, -0.10600000000000001, 0.991, 192.0, 0.0, 0.0, 0.0, 0.0, 0.0, 0.0, 0.0, 0.0, 0.0, 1.645922670952461E9, 0.0, 2022-02-27 11:44:30.952
204.0, -1037.210349704069, -3760.6139493720475, -1958.5269044073707, -9421.841433267766, -260.6213403488803, 152.93063556321093, -4971.877333149592, -1513.4366170688413, -2472.3935094348803, -4718.252088815223, -3633.2313577212526, -2725.2364427133134, -3049.7837722043723, -1783.266876133308, -8242.25047138339, -15151.487606941177, 0.0085, -0.10400000000000001, 0.9884999999999999, 192.0, 0.0, 24.0, 126.0, 104.0, 15.0, 104.0, 0.0, 0.0, 0.0, 1.645922670959091E9, 0.0, 2022-02-27 11:44:30.959
206.0, -394.53064138062496, -3246.747344344538, -1483.0829480985342, -8885.466621573762, 341.4452482992707, 542.7674106082214, -4677.6613208843855, -1138.2849381309675, -1423.9178805253364, -3908.940125577465, -3278.3750627487975, -2493.2923905005923, -2703.577602336121, -1432.3668399294424, -7903.4427289298455, -14358.917100300445, 0.0085, -0.10400000000000001, 0.9884999999999999, 192.0, 0.0, 0.0, 0.0, 0.0, 0.0, 0.0, 0.0, 0.0, 0.0, 1.64592267096716E9, 0.0, 2022-02-27 11:44:30.967
208.0, -903.2116416945031, -3668.9047418719224, -1906.8943747156115, -9354.56268245729, -151.6342343848031, 169.42622297122753, -5048.7002788424825, -1609.9961531157678, -3714.636411027481, -4849.993270634803, -3416.8441196494246, -2688.1772504064147, -2794.012760402293, -1607.8503856480581, -8316.011228085903, -15455.717200722362, 0.0085, -0.10400000000000001, 0.9884999999999999, 192.0, 0.0, 0.0, 0.0, 0.0, 0.0, 0.0, 0.0, 0.0, 0.0, 1.645922670974086E9, 0.0, 2022-02-27 11:44:30.974
210.0, -727.1469506200493, -3511.771978351114, -1711.048389798211, -9142.466979320881, 47.38569824525097, 372.1788969253179, -4740.335612337067, -1240.1418376138017, -1047.0898207533146, -4067.838676910243, -3492.9518095197454, -2565.0861936910387, -2926.0445148997924, -1619.2944788091754, -7952.549511498155, -14435.941211693433, 0.0085, -0.10400000000000001, 0.9884999999999999, 192.0, 0.0, 0.0, 0.0, 0.0, 0.0, 0.0, 0.0, 0.0, 0.0, 1.645922670982192E9, 0.0, 2022-02-27 11:44:30.982
212.0, -463.686938725345, -3324.03967667099, -1569.4947921627513, -8972.928997627378, 270.5455148870367, 435.36727850047095, -4790.738796083784, -1356.8626471594152, -2898.283648286301, -4345.916729678718, -3221.914556254692, -2549.9540626947955, -2622.351362985535, -1423.0014590026688, -8092.27026608828, -14923.164537330216, 0.0085, -0.10400000000000001, 0.9884999999999999, 192.0, 0.0, 0.0, 0.0, 0.0, 0.0, 0.0, 0.0, 0.0, 0.0, 1.645922670988873E9, 0.0, 2022-02-27 11:44:30.988
214.0, -1080.3492165028115, -3806.367970272061, -1967.8922853341444, -9424.903622258142, -260.64369209333563, 162.54188567899297, -4957.795734142749, -1498.7738727061599, -2495.4828614572125, -4735.753504723729, -3635.667697866881, -2727.0916375031043, -3044.754629701928, -1780.2940941207523, -8242.406933594577, -15157.075543055003, 0.00725, -0.10600000000000001, 0.98425, 192.0, 0.0, 24.0, 126.0, 80.0, 15.0, 80.0, 0.0, 0.0, 0.0, 1.645922670996784E9, 0.0, 2022-02-27 11:44:30.996
216.0, -485.3904825914482, -3338.814179755948, -1500.4726052847632, -8899.436461858328, 336.34905056346065, 535.0337070266852, -4657.231826452235, -1155.1605051947242, -1437.7536103431714, -3938.06444860273, -3298.8939641587694, -2512.492538987701, -2718.866195543551, -1441.3522412004759, -7910.282362733169, -14360.213501478853, 0.00725, -0.10600000000000001, 0.98425, 192.0, 0.0, 0.0, 0.0, 0.0, 0.0, 0.0, 0.0, 0.0, 0.0, 1.645922671005341E9, 0.0, 2022-02-27 11:44:31.005
218.0, -1025.788608287407, -3789.0900718081084, -1917.1314736761421, -9361.245854049428, -149.7566878505573, 172.30959800596216, -5027.957859987958, -1607.403350758952, -3767.2300657308183, -4910.119463219579, -3449.097686898433, -2724.7894078242075, -2812.542356555743, -1619.2050718313542, -8318.894603120638, -15456.812436200671, 0.00725, -0.10600000000000001, 0.98425, 192.0, 0.0, 0.0, 0.0, 0.0, 0.0, 0.0, 0.0, 0.0, 0.0, 1.645922671011997E9, 0.0, 2022-02-27 11:44:31.011
220.0, -902.7199033164864, -3681.399367022439, -1730.6955731744258, -9159.387249873549, 42.78123888745772, 373.1623736813514, -4750.863283975516, -1246.9367679282152, -1118.8612721993056, -4131.563500352323, -3545.254891545164, -2608.739150612253, -2948.955052966482, -1632.213787104343, -7959.523255768211, -14447.877043232565, 0.00725, -0.10600000000000001, 0.98425, 192.0, 0.0, 0.0, 0.0, 0.0, 0.0, 0.0, 0.0, 0.0, 0.0, 1.645922671019379E9, 0.0, 2022-02-27 11:44:31.019
222.0, -659.8011445762091, -3506.608725381938, -1578.1449172669552, -8974.62773020598, 284.6047621494248, 449.4488775073144, -4803.255772978756, -1320.45165544172, -2927.899709689583, -4381.970093485128, -3277.324530759398, -2594.70225509432, -2628.1181130550044, -1419.9839735012024, -8088.31400731969, -14902.064490564406, 0.00725, -0.10600000000000001, 0.98425, 192.0, 0.0, 0.0, 0.0, 0.0, 0.0, 0.0, 0.0, 0.0, 0.0, 1.645922671027397E9, 0.0, 2022-02-27 11:44:31.027
224.0, -1284.130070701846, -3995.351969641682, -1976.29654124934, -9435.96773576352, -250.987738488643, 166.09581304738677, -4929.185501239956, -1485.6757504553498, -2599.03849351865, -4797.511374653742, -3696.2856288296734, -2779.282960806246, -3050.1861036045675, -1781.724605765892, -8242.384581850121, -15161.411781479334, 0.007625, -0.10400000000000001, 0.9841249999999999, 192.0, 0.0, 32.0, 126.0, 104.0, 15.0, 96.0, 0.0, 0.0, 0.0, 1.645922671041062E9, 0.0, 2022-02-27 11:44:31.041
226.0, -661.7680980882762, -3509.1344725053877, -1508.5862885220395, -8909.986485241234, 342.22755935520644, 543.3709077085147, -4656.807143307584, -1116.3131733314005, -1485.4745847552522, -3985.517202081347, -3355.2203601861434, -2562.2922256341253, -2720.2296519553247, -1444.7720581021379, -7896.513688148701, -14345.886033283, 0.007625, -0.10400000000000001, 0.9841249999999999, 192.0, 0.0, 0.0, 0.0, 0.0, 0.0, 0.0, 0.0, 0.0, 0.0, 1.645922671048998E9, 0.0, 2022-02-27 11:44:31.048
228.0, -1158.0885837183696, -3905.4085499535267, -1926.4297993695498, -9367.996080874931, -146.04629827097634, 182.47964173312687, -5021.028819206813, -1597.278010520698, -3818.750836700301, -4942.305975235221, -3490.0460827405554, -2760.6192541860646, -2807.5355657977543, -1616.1652345854325, -8315.675951919075, -15447.312944807167, 0.007625, -0.10400000000000001, 0.9841249999999999, 192.0, 0.0, 0.0, 0.0, 0.0, 0.0, 0.0, 0.0, 0.0, 0.0, 1.645922671057062E9, 0.0, 2022-02-27 11:44:31.057
230.0, -976.1677355966253, -3737.345783394073, -1737.91518663349, -9164.639909820546, 49.71027966860291, 382.12542320792954, -4748.002260685237, -1229.323593297433, -1157.2392174290678, -4161.224265244516, -3576.8155547160572, -2637.1705695594037, -2949.312680877767, -1629.2410050917872, -7960.4396772908785, -14443.630211786058, 0.007625, -0.10400000000000001, 0.9841249999999999, 192.0, 0.0, 0.0, 0.0, 0.0, 0.0, 0.0, 0.0, 0.0, 0.0, 1.645922671064355E9, 0.0, 2022-02-27 11:44:31.064
232.0, -656.3142724411813, -3497.8468415554576, -1572.4228706863967, -8974.292454039152, 308.0293903385866, 467.30792132710474, -4788.123641982513, -1316.4953966731307, -2934.7840469818175, -4382.238314418592, -3285.9523041191464, -2599.7313975967645, -2618.417455961401, -1410.1492059408672, -8088.31400731969, -14894.151973027227, 0.007625, -0.10400000000000001, 0.9841249999999999, 192.0, 0.0, 0.0, 0.0, 0.0, 0.0, 0.0, 0.0, 0.0, 0.0, 1.645922671071622E9, 0.0, 2022-02-27 11:44:31.071
234.0, -1238.91249166876, -3950.134390608596, -1981.2362767739628, -9439.700477087556, -242.89640699582185, 168.1074700483644, -4939.221434500389, -1483.0829480985342, -2620.719685640298, -4798.204278731857, -3678.9406751323554, -2770.3422630241234, -3029.756609172417, -1775.7343382518695, -8241.937546961015, -15170.039554839082, 0.0098125, -0.10500000000000001, 0.9850625, 192.0, 0.0, 48.0, 126.0, 88.0, 15.0, 104.0, 0.0, 0.0, 0.0, 1.645922671079665E9, 0.0, 2022-02-27 11:44:31.079
236.0, -580.810079671154, -3422.8790906523577, -1508.7427507332268, -8907.863069517978, 347.74844023566726, 547.0365937991851, -4654.102582228492, -1120.26943209999, -1424.7672468146382, -3959.87975119111, -3334.23207214261, -2538.5993765114995, -2718.9779542658275, -1442.4027731898755, -7900.179374239371, -14336.990038989788, 0.0098125, -0.10500000000000001, 0.9850625, 192.0, 0.0, 0.0, 0.0, 0.0, 0.0, 0.0, 0.0, 0.0, 0.0, 1.645922671087697E9, 0.0, 2022-02-27 11:44:31.087
238.0, -1044.4746666520437, -3804.423368504449, -1913.2199183964633, -9358.943624370531, -141.4865424020937, 182.054958588476, -5028.159025688055, -1605.9504873693572, -3775.4778594348268, -4901.4246346264645, -3448.7177072426925, -2724.342372935101, -2797.4996325373213, -1600.1613855554326, -8322.001495599925, -15441.076808104135, 0.0098125, -0.10500000000000001, 0.9850625, 192.0, 0.0, 0.0, 0.0, 0.0, 0.0, 0.0, 0.0, 0.0, 0.0, 1.645922671093839E9, 0.0, 2022-02-27 11:44:31.093
240.0, -879.3399786162352, -3651.2915672411405, -1736.976413366367, -9172.619482591092, 25.928023568156192, 368.42380385682634, -4764.386089370977, -1247.003823161581, -1125.231519369068, -4141.912358035131, -3542.2374060436973, -2610.1473105129376, -2951.860779745672, -1634.3372028275971, -7975.594160031576, -14451.073342689675, 0.0098125, -0.10500000000000001, 0.9850625, 192.0, 0.0, 0.0, 0.0, 0.0, 0.0, 0.0, 0.0, 0.0, 0.0, 1.645922671101416E9, 0.0, 2022-02-27 11:44:31.101
242.0, -554.5914834250789, -3404.1706805432655, -1566.4102514279189, -8971.364375515506, 288.8739453403885, 455.9308833993535, -4805.937982313393, -1331.5604724360076, -2873.5849706631866, -4357.114953650827, -3255.26335898201, -2580.754766554209, -2630.7556189007305, -1421.548595613074, -8094.639551000542, -14886.552379912422, 0.0098125, -0.10500000000000001, 0.9850625, 192.0, 0.0, 0.0, 0.0, 0.0, 0.0, 0.0, 0.0, 0.0, 0.0, 1.645922671109331E9, 0.0, 2022-02-27 11:44:31.109
244.0, -1141.1906649101575, -3855.1618284179963, -1966.7970498558343, -9434.447817140559, -251.74769780012343, 161.49135368959352, -4957.751030653838, -1505.8370239540368, -2600.1560807414153, -4780.6805110788955, -3655.4489917098276, -2750.5162656922657, -3045.1569611021237, -1782.9539517109338, -8253.15812267758, -15178.175589820814, 0.008906250000000001, -0.10450000000000001, 0.98553125, 192.0, 0.0, 32.0, 126.0, 96.0, 15.0, 104.0, 0.0, 0.0, 0.0, 1.645922671117352E9, 0.0, 2022-02-27 11:44:31.117
246.0, -489.5702588045906, -3333.0250779420235, -1489.4084917793862, -8906.611371828481, 343.21103611123993, 535.1231140045064, -4662.395079421411, -1139.4919323315542, -1397.6322290458954, -3927.000335097353, -3300.5032897595515, -2507.083416829517, -2712.7641693072524, -1438.3571074434649, -7898.726510849776, -14339.69460006888, 0.008906250000000001, -0.10450000000000001, 0.98553125, 192.0, 0.0, 0.0, 0.0, 0.0, 0.0, 0.0, 0.0, 0.0, 0.0, 1.645922671123971E9, 0.0, 2022-02-27 11:44:31.123
