%OpenBCI Raw EEG Data
%Number of channels = 16
%Sample Rate = 125 Hz
%Board = OpenBCI_GUI$BoardCytonSerialDaisy
Sample Index, EXG Channel 0, EXG Channel 1, EXG Channel 2, EXG Channel 3, EXG Channel 4, EXG Channel 5, EXG Channel 6, EXG Channel 7, EXG Channel 8, EXG Channel 9, EXG Channel 10, EXG Channel 11, EXG Channel 12, EXG Channel 13, EXG Channel 14, EXG Channel 15, Accel Channel 0, Accel Channel 1, Accel Channel 2, Other, Other, Other, Other, Other, Other, Other, Analog Channel 0, Analog Channel 1, Analog Channel 2, Timestamp, Other, Timestamp (Formatted)
0.0, -96.91716395821142, -2603.777063343175, -2018.8766144366998, -9112.292124306217, 72.95609390212225, 379.42086212883737, -4438.922338357251, -1614.7570746847482, 0.0, 0.0, 0.0, 0.0, 0.0, 0.0, 0.0, 0.0, 0.0, 0.0, 0.0, 192.0, 0.0, 0.0, 0.0, 0.0, 0.0, 0.0, 0.0, 0.0, 0.0, 1.645923098874662E9, 0.0, 2022-02-27 11:51:38.874
196.0, -120.31944040291792, -2610.66140063541, -2032.3323645987946, -9118.058874375687, 48.99502384603308, 392.47428089073674, -4430.138102786315, -1597.9038593654466, -2388.976799127674, -4249.6924697986215, -3526.3006122470633, -2542.712097491276, -2928.6596690010633, -1923.8146452682788, -7923.000505328239, -14914.425005248191, 0.006, -0.052000000000000005, 0.499, 192.0, 0.0, 48.0, 126.0, 96.0, 15.5, 24.0, 0.0, 0.0, 0.0, 1.645923098874665E9, 0.0, 2022-02-27 11:51:38.874
198.0, -40.747230142024776, -2536.6994782327984, -1944.713526333991, -9041.526501360715, 136.3456411773731, 468.22434284977237, -4363.239331631581, -1528.993431209735, -1796.8343850176796, -3904.20155575294, -3342.0775344464228, -2291.3890828358035, -2746.4482482014, -1720.1902532804315, -7652.589100907934, -14590.816449024254, 0.006, -0.052000000000000005, 0.499, 192.0, 0.0, 0.0, 0.0, 0.0, 0.0, 0.0, 0.0, 0.0, 0.0, 1.645923098874668E9, 0.0, 2022-02-27 11:51:38.874
0.0, -127.13672246178658, -1354.4263070137868, -1077.1529170457027, -4615.568174787542, -12.673439106159105, 142.7382400915909, -2286.538754289002, -812.061227805761, -1068.2345710080351, -2020.0389051483758, -1705.4157501954735, -1201.6968371506737, -1404.4048076158533, -895.5449933463327, -3886.0519392552305, -7384.569333144347, 0.01, -0.112, 0.994, 192.0, 0.0, 40.0, 126.0, 64.0, 15.5, 8.0, 0.0, 0.0, 0.0, 1.645923098995357E9, 0.0, 2022-02-27 11:51:38.995
2.0, -145.66631861523612, -2594.70225509432, -2047.3080333838504, -9116.04721737471, 76.48766952606077, 402.35375193998243, -4463.2410363246245, -1496.4269395383526, -2276.0334343950076, -4150.942462795075, -3608.7114940537804, -2557.330138365047, -2976.2241812019565, -1908.5707555497595, -7888.042377000139, -14848.979097483052, 0.01, -0.112, 0.994, 192.0, 0.0, 0.0, 0.0, 0.0, 0.0, 0.0, 0.0, 0.0, 0.0, 1.645923099001734E9, 0.0, 2022-02-27 11:51:39.001
4.0, -51.051384335921334, -2515.6664867003547, -1947.3510321797173, -9031.132940188998, 188.2463918025961, 484.31759885759345, -4365.809782243941, -1441.0169650336463, -1997.709512437524, -3863.1190494440857, -3359.221322443643, -2272.8147831934434, -2713.7923495521964, -1653.47029608134, -7622.861280782376, -14612.452937656992, 0.01, -0.112, 0.994, 192.0, 0.0, 0.0, 0.0, 0.0, 0.0, 0.0, 0.0, 0.0, 0.0, 1.645923099008829E9, 0.0, 2022-02-27 11:51:39.008
6.0, -271.4842881541596, -2718.150939720981, -2161.7489649950226, -9237.01485836683, -42.55772144290465, 279.3968056913383, -4572.518714966621, -1617.1263595970106, -2276.1228413728286, -4120.834663013776, -3554.6873277053032, -2483.390567706891, -2910.308886803256, -1847.5504931867713, -7820.651867467388, -14844.50874859199, 0.01, -0.112, 0.994, 192.0, 0.0, 0.0, 0.0, 0.0, 0.0, 0.0, 0.0, 0.0, 0.0, 1.645923099015755E9, 0.0, 2022-02-27 11:51:39.015
8.0, -22.7764275999579, -2492.3536172334693, -1917.6902672875246, -8982.62965472098, 216.85662470538912, 534.1396372484729, -4342.7874854549755, -1383.5953335279626, -2101.667475899157, -4022.7328565994335, -3496.639847354871, -2429.075828680495, -2855.345947187656, -1796.432053617484, -7762.380869672403, -14697.680139265078, 0.008, -0.10400000000000001, 0.984, 192.0, 0.0, 32.0, 126.0, 96.0, 15.0, 96.0, 0.0, 0.0, 0.0, 1.645923099023923E9, 0.0, 2022-02-27 11:51:39.023
10.0, -187.30761853547318, -2652.325052300102, -2085.50716465797, -9156.23565390535, 51.54312271393809, 367.06034744505257, -4514.091254960448, -1574.0992515205446, -2139.196054839618, -3970.3403675961936, -3419.995715617623, -2331.689278088722, -2768.6211787010648, -1703.2923344722194, -7684.194467567739, -14723.429348877591, 0.008, -0.10400000000000001, 0.984, 192.0, 0.0, 0.0, 0.0, 0.0, 0.0, 0.0, 0.0, 0.0, 0.0, 1.645923099031087E9, 0.0, 2022-02-27 11:51:39.031
12.0, -159.77026936653488, -2617.0763512940825, -2058.93094050061, -9120.674028476957, 78.18640210466411, 398.5092518936696, -4453.562730975477, -1501.2996198296096, -2275.4522890391695, -4156.776268097909, -3617.7192470692694, -2552.5468650516113, -2978.1464312251132, -1924.2169766684744, -7886.813031055097, -14844.307582891892, 0.008, -0.10400000000000001, 0.984, 192.0, 0.0, 0.0, 0.0, 0.0, 0.0, 0.0, 0.0, 0.0, 0.0, 1.645923099038519E9, 0.0, 2022-02-27 11:51:39.038
14.0, -49.6879279241476, -2510.592640709, -1948.5356746358484, -9022.482815084793, 196.00244712858762, 491.04547393864084, -4376.985654471595, -1435.0266975196241, -2012.0593323778312, -3877.5806281066693, -3364.6751480907383, -2279.7438239745884, -2712.451244884878, -1654.923159470935, -7620.782568548032, -14615.090443502719, 0.008, -0.10400000000000001, 0.984, 192.0, 0.0, 0.0, 0.0, 0.0, 0.0, 0.0, 0.0, 0.0, 0.0, 1.645923099046457E9, 0.0, 2022-02-27 11:51:39.046
16.0, -265.96340727369875, -2723.515358390255, -2166.174610397173, -9233.125654831607, -38.19913127411977, 278.5250876575813, -4589.953075641761, -1630.2021301033653, -2275.921675672731, -4112.8103867543205, -3550.7534206811692, -2478.5402391600896, -2902.9775146219154, -1848.7127838984472, -7818.260230810671, -14841.6030218128, 0.012, -0.10400000000000001, 0.986, 192.0, 0.0, 64.0, 126.0, 96.0, 15.0, 112.0, 0.0, 0.0, 0.0, 1.645923099054506E9, 0.0, 2022-02-27 11:51:39.054
18.0, -12.695790850614411, -2476.193305992282, -1916.5279765758487, -8978.11460234101, 222.1316363968416, 541.0910297740734, -4330.091694604361, -1356.3262052924879, -2095.31958047385, -3998.5035656098803, -3488.906143773335, -2420.6715727652995, -2848.930996528983, -1784.6079808006266, -7761.10682023845, -14689.231179860972, 0.012, -0.10400000000000001, 0.986, 192.0, 0.0, 0.0, 0.0, 0.0, 0.0, 0.0, 0.0, 0.0, 0.0, 1.645923099061032E9, 0.0, 2022-02-27 11:51:39.061
20.0, -184.5136504785598, -2641.7750289171972, -2083.674321612635, -9160.43778186295, 52.638358192248134, 361.4053560978599, -4497.036873941049, -1544.0808587170673, -2145.6557089872017, -3955.6999749779675, -3415.257145793098, -2326.8613012863757, -2772.890361892028, -1710.266078742275, -7677.354833764414, -14718.131985441683, 0.012, -0.10400000000000001, 0.986, 192.0, 0.0, 0.0, 0.0, 0.0, 0.0, 0.0, 0.0, 0.0, 0.0, 1.645923099069091E9, 0.0, 2022-02-27 11:51:39.069
22.0, -158.8985513327779, -2613.522423925689, -2053.8794462537107, -9119.176461598452, 85.00368416353275, 408.34401945400475, -4448.399478006301, -1494.214116837277, -2266.6904052126893, -4173.428317717114, -3611.4607586217835, -2561.420507600368, -2976.1347742241355, -1920.7077527889912, -7876.218304183281, -14842.608850313289, 0.012, -0.10400000000000001, 0.986, 192.0, 0.0, 0.0, 0.0, 0.0, 0.0, 0.0, 0.0, 0.0, 0.0, 1.645923099077376E9, 0.0, 2022-02-27 11:51:39.077
24.0, -53.57713145937103, -2523.2213763262484, -1946.5016658904156, -9022.907498229444, 202.99854314309874, 489.07852042657385, -4362.993462442572, -1424.543729370085, -2014.3392103122726, -3883.1238607315854, -3357.611996842861, -2267.2715505685273, -2706.4609773708557, -1654.2973106261863, -7610.9478009876975, -14612.765862079366, 0.012, -0.10400000000000001, 0.986, 192.0, 0.0, 0.0, 0.0, 0.0, 0.0, 0.0, 0.0, 0.0, 0.0, 1.645923099090716E9, 0.0, 2022-02-27 11:51:39.090
26.0, -282.9283813152768, -2738.356916708579, -2169.0356336874524, -9237.372486278116, -39.74140164153596, 273.6524073663244, -4581.168840070825, -1621.8649294215359, -2279.7214722301333, -4116.274907144893, -3551.111048592454, -2478.070852526528, -2903.2680872998344, -1847.8857693536008, -7805.676198682332, -14846.252184659505, 0.01, -0.10400000000000001, 0.986, 192.0, 0.0, 32.0, 126.0, 96.0, 15.0, 104.0, 0.0, 0.0, 0.0, 1.645923099098866E9, 0.0, 2022-02-27 11:51:39.098
28.0, -24.631622389748383, -2487.9950270646846, -1919.7019242885024, -8985.73654720027, 216.56605202747014, 527.7246865897997, -4338.183026097182, -1368.2173333427113, -2106.830728868333, -4038.960223073986, -3497.668027599815, -2441.011660219629, -2858.698708855952, -1799.9189257525118, -7757.776410314609, -14699.602389288235, 0.01, -0.10400000000000001, 0.986, 192.0, 0.0, 0.0, 0.0, 0.0, 0.0, 0.0, 0.0, 0.0, 0.0, 1.645923099106779E9, 0.0, 2022-02-27 11:51:39.106
30.0, -200.2939820640066, -2654.9849098902837, -2086.021254780442, -9161.108334196608, 46.089297066843166, 348.2625303581393, -4513.934792749261, -1560.017652513701, -2157.122153892774, -3980.3763008566266, -3417.6264307053607, -2335.9808130241413, -2770.7445944243186, -1707.203889751898, -7673.219761040183, -14723.876383766697, 0.01, -0.10400000000000001, 0.986, 192.0, 0.0, 0.0, 0.0, 0.0, 0.0, 0.0, 0.0, 0.0, 0.0, 1.6459230991133E9, 0.0, 2022-02-27 11:51:39.113
32.0, -189.00635111407652, -2651.09570635506, -2063.4683446250374, -9132.922784438466, 68.12811709977592, 381.6336848299128, -4472.584065506943, -1524.5677858075842, -2277.531001273513, -4185.565314956345, -3620.379104659451, -2569.645949559921, -2980.6498266041076, -1929.1120087041866, -7884.46609788729, -14852.756542295998, 0.01, -0.10400000000000001, 0.986, 192.0, 0.0, 0.0, 0.0, 0.0, 0.0, 0.0, 0.0, 0.0, 0.0, 1.645923099121366E9, 0.0, 2022-02-27 11:51:39.121
34.0, -103.91325997272253, -2566.9860919697394, -1951.9554915375104, -9028.227213409808, 191.28622904851784, 490.44197683834756, -4396.923410525729, -1440.6146336334507, -2035.6851262670907, -3909.968305822409, -3369.458421404174, -2289.578591534924, -2710.998381495283, -1660.7793165182254, -7621.073141225951, -14623.539402906825, 0.01, -0.10400000000000001, 0.986, 192.0, 0.0, 0.0, 0.0, 0.0, 0.0, 0.0, 0.0, 0.0, 0.0, 1.645923099129442E9, 0.0, 2022-02-27 11:51:39.129
36.0, -379.2643999176502, -2839.185635946469, -2181.7537762825223, -9253.64455624158, -43.988233088044296, 274.4347184222601, -4584.454546505755, -1602.5530222121504, -2316.2218709256495, -4156.731564608999, -3579.430708817328, -2506.4128644958573, -2915.1368636056022, -1859.5310282148157, -7819.1543005888825, -14844.84402475882, 0.011, -0.10400000000000001, 0.988, 192.0, 0.0, 48.0, 126.0, 96.0, 15.0, 120.0, 0.0, 0.0, 0.0, 1.645923099137405E9, 0.0, 2022-02-27 11:51:39.137
38.0, -166.94517933668845, -2628.542796199655, -1923.8146452682788, -8997.985303161777, 231.42996209024932, 532.2844424586824, -4305.638886170254, -1364.8198681855044, -2151.9141974346876, -4069.9173891445867, -3532.916728605834, -2475.0310152806064, -2859.726889100896, -1816.9956585163663, -7756.591767858478, -14698.842429976754, 0.011, -0.10400000000000001, 0.988, 192.0, 0.0, 0.0, 0.0, 0.0, 0.0, 0.0, 0.0, 0.0, 0.0, 1.64592309914354E9, 0.0, 2022-02-27 11:51:39.143
40.0, -380.53844935160276, -2839.342098157656, -2095.9677810630537, -9179.213247205407, 64.77535543147987, 361.2935973755834, -4493.4605948282, -1553.7815158106705, -2218.7235616116004, -4025.0127345338747, -3461.413498093307, -2381.5560199685124, -2767.7494606673076, -1723.207738781898, -7673.085650573451, -14731.990067003975, 0.011, -0.10400000000000001, 0.988, 192.0, 0.0, 0.0, 0.0, 0.0, 0.0, 0.0, 0.0, 0.0, 0.0, 1.645923099151089E9, 0.0, 2022-02-27 11:51:39.151
42.0, -398.8668798049545, -2853.7142698424186, -2081.640312867202, -9147.943156712432, 81.0250736504881, 399.8280048165327, -4448.399478006301, -1486.4580615112857, -2342.239301471627, -4238.091914426317, -3677.44310825385, -2630.509749711722, -2985.276637706356, -1934.945814007022, -7886.790679310642, -14851.638955073233, 0.011, -0.10400000000000001, 0.988, 192.0, 0.0, 0.0, 0.0, 0.0, 0.0, 0.0, 0.0, 0.0, 0.0, 1.645923099159133E9, 0.0, 2022-02-27 11:51:39.159
44.0, -288.96335231820973, -2755.612463428076, -1964.9865585549544, -9039.35838214855, 203.60204024339203, 501.2155176658056, -4364.893360721274, -1410.3280198965097, -2120.934679619632, -3972.553190297269, -3435.552529758517, -2351.6270341428562, -2720.5425763776993, -1685.8132703081692, -7621.36371390387, -14620.99130403892, 0.011, -0.10400000000000001, 0.988, 192.0, 0.0, 0.0, 0.0, 0.0, 0.0, 0.0, 0.0, 0.0, 0.0, 1.645923099166205E9, 0.0, 2022-02-27 11:51:39.166
46.0, -513.039590482663, -2955.526465836342, -2196.371817156293, -9266.40740232556, -33.8628928497902, 277.8992388128327, -4563.980348584694, -1620.210900331843, -2374.4481652317245, -4184.157155055661, -3621.854319793501, -2551.5633882955776, -2916.567375250742, -1868.9634643749553, -7812.046445852095, -14851.951879495607, 0.0145, -0.10600000000000001, 0.989, 192.0, 0.0, 72.0, 126.0, 80.0, 15.0, 120.0, 0.0, 0.0, 0.0, 1.645923099173613E9, 0.0, 2022-02-27 11:51:39.173
48.0, -233.46397083568226, -2689.093671929082, -1935.1916831960302, -8995.705425227336, 235.92266272576606, 542.2980239746599, -4313.461996729612, -1378.0073974141358, -2197.9364392681646, -4094.57136327879, -3568.1430778673985, -2498.299181258581, -2871.3721479621113, -1830.4514086784613, -7764.526637140112, -14707.313741125316, 0.0145, -0.10600000000000001, 0.989, 192.0, 0.0, 0.0, 0.0, 0.0, 0.0, 0.0, 0.0, 0.0, 0.0, 1.645923099181667E9, 0.0, 2022-02-27 11:51:39.181
50.0, -386.3722546544379, -2844.9076825270276, -2100.2593159984726, -9175.614616348103, 62.62958796377039, 364.33343462150515, -4490.264295371091, -1550.7416785647488, -2241.5223409560135, -4036.970917817464, -3474.288102899564, -2369.1731535402723, -2768.285902534235, -1714.7140758888813, -7671.923359861775, -14728.39143614667, 0.0145, -0.10600000000000001, 0.989, 192.0, 0.0, 0.0, 0.0, 0.0, 0.0, 0.0, 0.0, 0.0, 0.0, 1.645923099189708E9, 0.0, 2022-02-27 11:51:39.189
52.0, -356.46562057323706, -2809.5919262876423, -2085.1718884911406, -9149.440723590938, 72.10672761282058, 392.58603961301327, -4457.116658343871, -1513.34721009102, -2349.2801009750488, -4246.2279494080485, -3683.276913556685, -2620.5632234291106, -2997.860669834694, -1948.803895569312, -7888.668225844887, -14852.980059740552, 0.0145, -0.10600000000000001, 0.989, 192.0, 0.0, 0.0, 0.0, 0.0, 0.0, 0.0, 0.0, 0.0, 0.0, 1.645923099196261E9, 0.0, 2022-02-27 11:51:39.196
54.0, -199.28815356351777, -2661.9586541603394, -1957.7892968403455, -9029.344800632573, 199.84694717490044, 510.69265731485575, -4378.349110883369, -1413.770188542627, -2094.6490281401907, -3937.930338135998, -3408.573974200961, -2328.7388478206217, -2719.447340899389, -1684.2262964518425, -7623.777702305044, -14626.109853519185, 0.0145, -0.10600000000000001, 0.989, 192.0, 0.0, 0.0, 0.0, 0.0, 0.0, 0.0, 0.0, 0.0, 0.0, 1.64592309921149E9, 0.0, 2022-02-27 11:51:39.211
56.0, -426.270118507161, -2884.3585114906446, -2188.86163101931, -9256.93026267651, -42.602424931815264, 285.7223493721902, -4578.643092947375, -1630.2468335922758, -2340.0935340039177, -4176.06582356284, -3593.244086890708, -2508.9162598748517, -2913.5498897492757, -1861.0509468377766, -7816.405036020879, -14849.716705050078, 0.01425, -0.10700000000000001, 0.9895, 192.0, 0.0, 56.0, 126.0, 80.0, 15.0, 120.0, 0.0, 0.0, 0.0, 1.645923099219313E9, 0.0, 2022-02-27 11:51:39.219
58.0, -138.44670515617196, -2605.788720344153, -1921.2218429114632, -8991.816221692112, 243.3657936293833, 554.815000869632, -4311.182118795171, -1374.4311183012867, -2159.7596597385004, -4076.801726436821, -3540.6504321873704, -2474.3828146914025, -2868.0417380382705, -1801.1259199530984, -7768.862875564441, -14702.843392234254, 0.01425, -0.10700000000000001, 0.9895, 192.0, 0.0, 0.0, 0.0, 0.0, 0.0, 0.0, 0.0, 0.0, 0.0, 1.645923099225878E9, 0.0, 2022-02-27 11:51:39.225
60.0, -301.5250327020923, -2758.674652418453, -2094.157289762174, -9172.060688979709, 59.634454206759244, 363.0370334430973, -4504.569411822487, -1566.2984927056425, -2205.4242736606925, -3994.547306841291, -3444.6943932407376, -2355.359775466892, -2765.447230988411, -1725.0182300827778, -7671.8786563728645, -14736.549822872857, 0.01425, -0.10700000000000001, 0.9895, 192.0, 0.0, 0.0, 0.0, 0.0, 0.0, 0.0, 0.0, 0.0, 0.0, 1.645923099234346E9, 0.0, 2022-02-27 11:51:39.234
62.0, -276.826355078978, -2727.7845415812185, -2083.428452423627, -9150.133627669053, 75.0348061364658, 419.16226377037333, -4462.16815259077, -1498.9973901507128, -2302.184975407717, -4210.085178623817, -3656.3207097435848, -2604.738188354753, -2993.6808936215516, -1948.2451019579296, -7892.870353802486, -14855.438751630636, 0.01425, -0.10700000000000001, 0.9895, 192.0, 0.0, 0.0, 0.0, 0.0, 0.0, 0.0, 0.0, 0.0, 0.0, 1.645923099242714E9, 0.0, 2022-02-27 11:51:39.242
64.0, -136.12212373282, -2606.5710314000885, -1953.38600318265, -9027.333143631595, 202.28328732052893, 495.8287472520766, -4360.355956596846, -1436.5242643981296, -2075.4265279086267, -3927.2462042863617, -3391.6984071372044, -2309.9633824781636, -2716.3404484201014, -1674.3468254025968, -7622.727170315644, -14625.394597696615, 0.01425, -0.10700000000000001, 0.9895, 192.0, 0.0, 0.0, 0.0, 0.0, 0.0, 0.0, 0.0, 0.0, 0.0, 1.645923099249359E9, 0.0, 2022-02-27 11:51:39.249
66.0, -369.6084463129576, -2824.0982084391367, -2191.566192098402, -9261.02063191183, -53.28655878145204, 275.7087678562126, -4580.185363314791, -1638.0922958960887, -2310.209251667172, -4150.741297094977, -3576.480278549228, -2496.77926263562, -2911.895860659583, -1861.1180020711427, -7814.371027275447, -14861.116094722283, 0.014125, -0.10750000000000001, 0.98875, 192.0, 0.0, 56.0, 126.0, 80.0, 15.0, 112.0, 0.0, 0.0, 0.0, 1.64592309925729E9, 0.0, 2022-02-27 11:51:39.257
68.0, -85.38366381927298, -2549.1493998944047, -1927.100351703209, -8991.726814714291, 227.85368297740018, 542.007451296741, -4312.433816484669, -1367.9938158981581, -2140.2242350845618, -4061.379022762659, -3529.3628012374406, -2466.0232622651174, -2875.417813708522, -1828.0821237661987, -7774.160239000349, -14709.7724330154, 0.014125, -0.10750000000000001, 0.98875, 192.0, 0.0, 0.0, 0.0, 0.0, 0.0, 0.0, 0.0, 0.0, 0.0, 1.645923099263436E9, 0.0, 2022-02-27 11:51:39.263
70.0, -245.310395396995, -2701.968276735339, -2091.251562982984, -9166.763325543801, 54.672366937681076, 372.6706353033347, -4532.933775536272, -1579.374263211997, -2190.6944740646454, -3984.5337253253133, -3426.9024046543127, -2336.405496168792, -2768.285902534235, -1714.9152415889791, -7674.158534307306, -14734.6275728497, 0.014125, -0.10750000000000001, 0.98875, 192.0, 0.0, 0.0, 0.0, 0.0, 0.0, 0.0, 0.0, 0.0, 0.0, 1.645923099270967E9, 0.0, 2022-02-27 11:51:39.270
72.0, -244.05869770749783, -2698.928439489417, -2084.41192917966, -9151.072400936175, 66.29527405444075, 390.10499597847416, -4454.814428664974, -1508.6309920109502, -2282.78366122051, -4187.889896379697, -3640.1827502468527, -2581.1123944654937, -2993.993818043926, -1938.9467762645218, -7892.959760780306, -14858.165664454184, 0.014125, -0.10750000000000001, 0.98875, 192.0, 0.0, 0.0, 0.0, 0.0, 0.0, 0.0, 0.0, 0.0, 0.0, 1.645923099278928E9, 0.0, 2022-02-27 11:51:39.278
74.0, -95.03961742396564, -2563.9462547238177, -1945.585244367748, -9020.314695872628, 220.5670142849701, 517.8228637960988, -4350.1859128696815, -1417.324115911021, -2066.0387952373976, -3919.043114071264, -3380.678997120738, -2302.0732166854405, -2718.5532711211767, -1670.0329387227225, -7622.257783682083, -14620.544269149814, 0.014125, -0.10750000000000001, 0.98875, 192.0, 0.0, 0.0, 0.0, 0.0, 0.0, 0.0, 0.0, 0.0, 0.0, 1.645923099286115E9, 0.0, 2022-02-27 11:51:39.286
76.0, -334.11387611793, -2791.732882467852, -2181.351444882327, -9257.399649310071, -53.554779714915725, 282.9730848041874, -4572.138735310881, -1642.4732378093288, -2297.2899433720045, -4139.453666145047, -3561.3928510418955, -2483.2788089846144, -2906.062055356748, -1850.523275199327, -7812.761701674664, -14853.360039396292, 0.0150625, -0.10675000000000001, 0.986375, 192.0, 0.0, 64.0, 126.0, 88.0, 15.0, 96.0, 0.0, 0.0, 0.0, 1.645923099293544E9, 0.0, 2022-02-27 11:51:39.293
78.0, -61.0649658518989, -2522.774341437142, -1920.2383661554297, -8988.217590834807, 221.81871197446728, 546.9024833324532, -4315.831281641875, -1364.3057780630324, -2126.321450033361, -4045.0175458213744, -3517.4046179538514, -2456.4790673827015, -2873.2273427519017, -1826.2939842097742, -7776.060137279051, -14711.359406871727, 0.0150625, -0.10675000000000001, 0.986375, 192.0, 0.0, 0.0, 0.0, 0.0, 0.0, 0.0, 0.0, 0.0, 0.0, 1.645923099301529E9, 0.0, 2022-02-27 11:51:39.301
80.0, -229.37360160036107, -2686.9479044613727, -2088.256429225973, -9164.662261565001, 53.957111115111246, 367.61914105643524, -4502.915382732795, -1552.9992047547348, -2188.414596130204, -3987.864135249154, -3419.325163283964, -2328.0906472314177, -2768.1070885785925, -1711.7636456207808, -7677.6901099312445, -14731.610087348234, 0.0150625, -0.10675000000000001, 0.986375, 192.0, 0.0, 0.0, 0.0, 0.0, 0.0, 0.0, 0.0, 0.0, 0.0, 1.645923099309681E9, 0.0, 2022-02-27 11:51:39.309
82.0, -220.29879335150642, -2675.794383978174, -2084.41192917966, -9150.647717791524, 53.8006489039241, 381.85720227446586, -4471.444126539723, -1530.6474602994276, -2284.1247658878287, -4198.797547673887, -3639.467494424283, -2582.3417404105357, -2999.6711611355736, -1945.7193548344799, -7897.452461415824, -14859.752638310509, 0.0150625, -0.10675000000000001, 0.986375, 192.0, 0.0, 0.0, 0.0, 0.0, 0.0, 0.0, 0.0, 0.0, 0.0, 1.645923099316117E9, 0.0, 2022-02-27 11:51:39.316
84.0, -73.44783228013901, -2540.275757345648, -1942.5454071218262, -9021.097006928565, 205.47958677763782, 496.4992995857358, -4369.00608170105, -1426.935366026803, -2060.294396912384, -3901.139366762563, -3363.579912612428, -2287.9022107007754, -2716.474558886833, -1680.0465202387002, -7634.685353599233, -14635.117606534674, 0.0150625, -0.10675000000000001, 0.986375, 192.0, 0.0, 0.0, 0.0, 0.0, 0.0, 0.0, 0.0, 0.0, 0.0, 1.645923099324294E9, 0.0, 2022-02-27 11:51:39.324
86.0, -323.8767771573993, -2779.1712020839695, -2184.48068910607, -9263.099344146174, -51.498419225027476, 262.632997349858, -4593.283485565601, -1643.3896593319964, -2297.9381439612084, -4119.404151368636, -3552.5192084931386, -2484.619913651933, -2909.6830379585076, -1873.0314818658212, -7821.0318471231285, -14866.972251769574, 0.012, -0.1, 0.986, 192.0, 0.0, 48.0, 126.0, 112.0, 15.0, 104.0, 0.0, 0.0, 0.0, 1.64592309933934E9, 0.0, 2022-02-27 11:51:39.339
88.0, -35.71808763958069, -2498.321533003036, -1912.817586996268, -8979.031023863678, 232.72636326865714, 539.5487594066572, -4330.404619026735, -1386.836336473982, -2122.544005220414, -4059.1438483171287, -3510.050894028055, -2455.003852248651, -2874.3225782302115, -1831.6807546235032, -7788.532410685112, -14723.00466573294, 0.012, -0.1, 0.986, 192.0, 0.0, 0.0, 0.0, 0.0, 0.0, 0.0, 0.0, 0.0, 0.0, 1.645923099345814E9, 0.0, 2022-02-27 11:51:39.345
90.0, -210.97811591364336, -2671.5028490427553, -2082.780251834423, -9155.699212038424, 54.71707042659169, 372.7153387922453, -4520.170929452292, -1560.9787775252794, -2180.3679681262934, -3973.35785309766, -3403.3660177428746, -2317.115940703862, -2759.0769838186484, -1715.2505177558087, -7681.1546303218165, -14736.862747295232, 0.012, -0.1, 0.986, 192.0, 0.0, 0.0, 0.0, 0.0, 0.0, 0.0, 0.0, 0.0, 0.0, 1.645923099353764E9, 0.0, 2022-02-27 11:51:39.353
92.0, -215.5155200380707, -2671.0781658981045, -2087.608228636769, -9147.362011356594, 44.50232321051636, 383.15360345287365, -4486.151574391315, -1542.8738645164806, -2274.8487919388763, -4191.667341192644, -3630.951479786811, -2569.064804204083, -3002.107501281202, -1937.9185960195775, -7905.476737675279, -14862.747772067522, 0.012, -0.1, 0.986, 192.0, 0.0, 0.0, 0.0, 0.0, 0.0, 0.0, 0.0, 0.0, 0.0, 1.64592309936179E9, 0.0, 2022-02-27 11:51:39.361
94.0, -62.76369843050223, -2529.1892920958153, -1939.4161628980833, -9013.542117302672, 213.23564210362937, 508.6139450805122, -4358.8136862294305, -1428.4552846497638, -2056.829876521811, -3898.7924335947555, -3363.4458021456962, -2282.8730681983316, -2717.167462964948, -1665.1379066870102, -7639.178054234751, -14633.463577444982, 0.012, -0.1, 0.986, 192.0, 0.0, 0.0, 0.0, 0.0, 0.0, 0.0, 0.0, 0.0, 0.0, 1.645923099368837E9, 0.0, 2022-02-27 11:51:39.368
96.0, -323.8991289018546, -2777.472469505366, -2191.275619420483, -9261.802942967766, -55.208808804608445, 275.0382155225534, -4592.188250087292, -1635.4771417948177, -2298.5863445504124, -4128.680125317589, -3554.8437899164906, -2476.1262507589163, -2910.6218112256306, -1853.3842984896064, -7817.008533121173, -14856.712801064588, 0.012, -0.106, 0.986, 192.0, 0.0, 48.0, 126.0, 88.0, 15.0, 104.0, 0.0, 0.0, 0.0, 1.645923099376372E9, 0.0, 2022-02-27 11:51:39.376
98.0, -39.763753385991265, -2505.228222039726, -1919.9477934775107, -8985.244808822252, 235.8109040034895, 543.3485559640594, -4325.911918391218, -1385.159955639834, -2127.930775634143, -4030.868891581165, -3518.41044645434, -2466.9173320433297, -2877.4965259428654, -1831.367830201129, -7788.800631618576, -14720.657732565134, 0.012, -0.106, 0.986, 192.0, 0.0, 0.0, 0.0, 0.0, 0.0, 0.0, 0.0, 0.0, 0.0, 1.645923099384392E9, 0.0, 2022-02-27 11:51:39.384
100.0, -213.25799384808468, -2680.2423811247804, -2083.093176256797, -9164.751668542824, 62.18255307466425, 357.627911284913, -4504.100025188926, -1551.9486727653352, -2191.834413031866, -3997.0507022202855, -3408.8198433899697, -2334.505597890091, -2759.903998363495, -1711.2495554983086, -7677.578351208967, -14738.6285351072, 0.012, -0.106, 0.986, 192.0, 0.0, 0.0, 0.0, 0.0, 0.0, 0.0, 0.0, 0.0, 0.0, 1.645923099391555E9, 0.0, 2022-02-27 11:51:39.391
102.0, -220.72347649615725, -2674.3191688441243, -2087.4294146811267, -9154.67103179348, 53.28655878145204, 380.1137662069519, -4498.087405930449, -1531.5862335665506, -2273.3288733159156, -4200.496280252491, -3629.498616397216, -2584.487507878245, -2997.8383180902388, -1948.2227502134742, -7901.296961462136, -14869.095667492827, 0.012, -0.106, 0.986, 192.0, 0.0, 0.0, 0.0, 0.0, 0.0, 0.0, 0.0, 0.0, 0.0, 1.645923099398639E9, 0.0, 2022-02-27 11:51:39.398
104.0, -61.31083504090727, -2527.2223385837483, -1937.7621338083904, -9010.234059123286, 215.67198224925784, 523.3213929321042, -4387.334512154403, -1412.4290838753086, -2058.707423056057, -3902.9498580634427, -3361.9482352671907, -2292.3502078473816, -2719.4920443882997, -1656.823057749636, -7641.189711235727, -14627.026275041853, 0.012, -0.106, 0.986, 192.0, 0.0, 0.0, 0.0, 0.0, 0.0, 0.0, 0.0, 0.0, 0.0, 1.645923099406113E9, 0.0, 2022-02-27 11:51:39.406
106.0, -331.7222394612121, -2782.3898532855337, -2195.701264822634, -9262.965233679442, -46.13400055575378, 275.82052657848914, -4594.222258832724, -1635.1195138835328, -2298.8769172283314, -4134.223357942505, -3552.0051183706664, -2478.719053115732, -2913.885165916105, -1855.7088799129583, -7820.07072211155, -14855.148178952717, 0.008, -0.10400000000000001, 0.984, 192.0, 0.0, 32.0, 126.0, 96.0, 15.0, 96.0, 0.0, 0.0, 0.0, 1.645923099414638E9, 0.0, 2022-02-27 11:51:39.414
108.0, -43.004756332010786, -2511.1961378092933, -1918.0925986877203, -8986.675320467391, 238.38135461584983, 537.1124192610287, -4321.2404038000595, -1381.5389730380743, -2128.8471971568106, -4052.32656625826, -3523.50664419015, -2470.694776856277, -2884.514973701832, -1833.0889145241874, -7788.420651962835, -14722.28940991037, 0.008, -0.10400000000000001, 0.984, 192.0, 0.0, 0.0, 0.0, 0.0, 0.0, 0.0, 0.0, 0.0, 0.0, 1.645923099421183E9, 0.0, 2022-02-27 11:51:39.421
110.0, -214.28617409302882, -2678.6330555239983, -2079.9862837775095, -9159.297842895729, 69.6033322338262, 371.44128935829275, -4488.409100581301, -1552.5521698656287, -2186.8499740183324, -3980.912742723554, -3407.478738722651, -2326.6154320973674, -2757.221789028858, -1706.5556891626943, -7668.794115638032, -14734.694628083067, 0.008, -0.10400000000000001, 0.984, 192.0, 0.0, 0.0, 0.0, 0.0, 0.0, 0.0, 0.0, 0.0, 0.0, 1.645923099428815E9, 0.0, 2022-02-27 11:51:39.428
112.0, -231.20644464569625, -2689.808927751652, -2090.60336239378, -9155.632156805057, 62.16020133020894, 381.9913127411977, -4486.106870902404, -1538.7834952811595, -2278.827402451921, -4189.365111513747, -3637.8805205679564, -2581.7605950546977, -3001.4816524364537, -1945.9652240234882, -7896.334874193058, -14864.535911623945, 0.008, -0.10400000000000001, 0.984, 192.0, 0.0, 0.0, 0.0, 0.0, 0.0, 0.0, 0.0, 0.0, 0.0, 1.645923099436724E9, 0.0, 2022-02-27 11:51:39.436
114.0, -61.26613155199666, -2532.363239808469, -1931.391886638628, -9009.138823644975, 228.36777309987227, 517.1299597179842, -4357.316119350925, -1407.3552378839538, -2067.9163417716436, -3911.4658727009146, -3367.871447547847, -2291.2549723690718, -2719.5367478772105, -1667.66365381046, -7634.215966965672, -14625.774577352355, 0.008, -0.10400000000000001, 0.984, 192.0, 0.0, 0.0, 0.0, 0.0, 0.0, 0.0, 0.0, 0.0, 0.0, 1.645923099444713E9, 0.0, 2022-02-27 11:51:39.444
116.0, -326.17900683629597, -2784.446213775422, -2188.302837407927, -9265.178056380517, -45.35168949981803, 272.2665992100953, -4585.773299428618, -1640.4839325528067, -2299.2568968840715, -4117.303087389838, -3547.0430311015884, -2470.068928011528, -2905.2350408119014, -1849.8527228656678, -7809.721864428743, -14859.752638310509, 0.01, -0.106, 0.986, 192.0, 0.0, 40.0, 126.0, 88.0, 15.0, 104.0, 0.0, 0.0, 0.0, 1.645923099458383E9, 0.0, 2022-02-27 11:51:39.458
118.0, -45.28463426645211, -2517.432274512324, -1918.80785451029, -8992.531477514682, 232.6369562908359, 545.7401926207773, -4349.671822747209, -1366.898580419848, -2132.937566392132, -4065.648205953623, -3527.015868069633, -2474.6957391137767, -2891.2204970384237, -1832.0830860236988, -7793.069814809539, -14723.205831433039, 0.01, -0.106, 0.986, 192.0, 0.0, 0.0, 0.0, 0.0, 0.0, 0.0, 0.0, 0.0, 0.0, 1.645923099466267E9, 0.0, 2022-02-27 11:51:39.466
120.0, -211.7157234806685, -2677.2695991122246, -2076.968798276043, -9161.644776063535, 67.92695139967816, 373.6764638038235, -4491.247772127124, -1552.149838465433, -2189.24161067505, -3990.9486759839865, -3406.3611514998856, -2324.089684973918, -2757.7582308957853, -1702.9570583053899, -7672.571560450979, -14737.19802346206, 0.01, -0.106, 0.986, 192.0, 0.0, 0.0, 0.0, 0.0, 0.0, 0.0, 0.0, 0.0, 0.0, 1.645923099474493E9, 0.0, 2022-02-27 11:51:39.474
122.0, -229.26184287808454, -2687.6408085394874, -2090.737472860512, -9164.282281909262, 52.79482040343528, 386.4840133767144, -4491.337179104946, -1529.6192800544836, -2278.089794884896, -4192.717873182043, -3639.601604891015, -2582.6993683218207, -3002.7109983814953, -1944.8029333118122, -7898.078310260572, -14870.548530882423, 0.01, -0.106, 0.986, 192.0, 0.0, 0.0, 0.0, 0.0, 0.0, 0.0, 0.0, 0.0, 0.0, 1.645923099480985E9, 0.0, 2022-02-27 11:51:39.480
124.0, -61.51200074100504, -2529.457513029279, -1926.1392266916307, -9007.842422466567, 225.61850853186948, 528.4846459012801, -4377.097413193871, -1405.7235605387166, -2058.8862370116994, -3902.39106445206, -3366.8879707918136, -2290.40560607977, -2714.77582630823, -1666.6801770544264, -7633.388952420825, -14630.915478577075, 0.01, -0.106, 0.986, 192.0, 0.0, 0.0, 0.0, 0.0, 0.0, 0.0, 0.0, 0.0, 0.0, 1.645923099489098E9, 0.0, 2022-02-27 11:51:39.489
126.0, -340.2159023542288, -2793.386911557545, -2185.151241439729, -9266.921492448031, -55.3876227602509, 277.36279694590536, -4583.292255794079, -1608.632696703994, -2301.6932370297, -4141.286509190382, -3553.9720718827334, -2471.5441431455783, -2907.827843168717, -1847.014051319844, -7813.856937152975, -14855.282289419449, 0.014, -0.10400000000000001, 0.986, 192.0, 0.0, 56.0, 126.0, 96.0, 15.0, 104.0, 0.0, 0.0, 0.0, 1.645923099497012E9, 0.0, 2022-02-27 11:51:39.497
128.0, -46.625738933770535, -2511.7325796762207, -1915.2986306308069, -8990.989207147266, 234.69331678072416, 551.4845909457912, -4309.572793194388, -1376.643941002362, -2135.642127471224, -4069.000967621919, -3536.1353798073987, -2478.137907759894, -2895.221459295924, -1840.3755832166175, -7791.30402699757, -14723.809328533333, 0.014, -0.10400000000000001, 0.986, 192.0, 0.0, 0.0, 0.0, 0.0, 0.0, 0.0, 0.0, 0.0, 0.0, 1.645923099504081E9, 0.0, 2022-02-27 11:51:39.504
130.0, -210.03934264652048, -2672.218104865325, -2069.4362603946042, -9155.229825404862, 80.30981782791828, 390.06029248956355, -4499.048530942026, -1533.1285039339668, -2181.127927437774, -3981.4491845904813, -3402.382540986841, -2318.9040802602867, -2751.052707559193, -1680.180630705432, -7668.525894704569, -14730.850128036755, 0.014, -0.10400000000000001, 0.986, 192.0, 0.0, 0.0, 0.0, 0.0, 0.0, 0.0, 0.0, 0.0, 0.0, 1.645923099510653E9, 0.0, 2022-02-27 11:51:39.510
132.0, -243.90223549631068, -2701.476538357322, -2094.894897329199, -9166.942139499442, 49.50911396850515, 378.1468126948849, -4469.991263150127, -1508.027494910657, -2280.6378937528007, -4204.094911109795, -3642.8426078370344, -2585.3368741675467, -2999.2241262464677, -1946.166389723586, -7891.618656112988, -14862.814827300886, 0.014, -0.10400000000000001, 0.986, 192.0, 0.0, 0.0, 0.0, 0.0, 0.0, 0.0, 0.0, 0.0, 0.0, 1.645923099518664E9, 0.0, 2022-02-27 11:51:39.518
134.0, -70.31858805639602, -2536.5653677660666, -1925.2898604023292, -9012.06690216862, 226.46787482117116, 517.0629044846182, -4316.166557808704, -1399.6662377913283, -2073.1019464852748, -3918.9537070934425, -3379.740223853615, -2301.3579608628706, -2725.571718880143, -1675.3973573919961, -7630.036190752529, -14627.093330275218, 0.014, -0.10400000000000001, 0.986, 192.0, 0.0, 0.0, 0.0, 0.0, 0.0, 0.0, 0.0, 0.0, 0.0, 1.645923099526715E9, 0.0, 2022-02-27 11:51:39.526
136.0, -334.11387611793, -2795.264458091791, -2180.189154170651, -9265.960367436453, -47.76567790099119, 271.2160672206959, -4581.079433093004, -1643.5237697987284, -2306.8117865099653, -4130.222395685005, -3551.960414881756, -2478.6072943934555, -2901.6140582101416, -1850.6573856660589, -7799.529468957123, -14861.94310926713, 0.014, -0.10200000000000001, 0.984, 192.0, 0.0, 56.0, 126.0, 104.0, 15.0, 96.0, 0.0, 0.0, 0.0, 1.645923099533271E9, 0.0, 2022-02-27 11:51:39.533
138.0, -56.16993381618665, -2526.954117650285, -1916.0585899422874, -8988.664625723914, 234.04511619152026, 552.4010124684587, -4317.753531665031, -1348.1231150773901, -2140.47010427357, -4080.355653805215, -3536.2694902741305, -2481.1777450058157, -2896.629619196608, -1836.1287517701094, -7793.226277020726, -14729.129043713696, 0.014, -0.10200000000000001, 0.984, 192.0, 0.0, 0.0, 0.0, 0.0, 0.0, 0.0, 0.0, 0.0, 0.0, 1.645923099541208E9, 0.0, 2022-02-27 11:51:39.541
140.0, -208.02768564554285, -2676.755508989753, -2066.55288535987, -9151.89941548102, 82.05325389543222, 389.41209190035966, -4470.907684672795, -1516.4317508258523, -2192.236744432061, -3989.004074216375, -3405.6905991662265, -2317.182995937228, -2752.4832192043327, -1689.6801220989373, -7664.480228958158, -14725.10572971174, 0.014, -0.10200000000000001, 0.984, 192.0, 0.0, 0.0, 0.0, 0.0, 0.0, 0.0, 0.0, 0.0, 0.0, 1.645923099550749E9, 0.0, 2022-02-27 11:51:39.550
142.0, -222.55631954149243, -2682.656369525954, -2084.7248536020343, -9163.410563875505, 54.359442515306775, 381.52192610763626, -4485.145745890826, -1510.285021100643, -2274.8040884499655, -4194.371902271736, -3632.0243635206657, -2573.915132750885, -2993.569134899275, -1936.197511696519, -7889.1823159673595, -14866.100533735816, 0.014, -0.10200000000000001, 0.984, 192.0, 0.0, 0.0, 0.0, 0.0, 0.0, 0.0, 0.0, 0.0, 0.0, 1.645923099556951E9, 0.0, 2022-02-27 11:51:39.556
144.0, -61.0649658518989, -2533.391420053413, -1918.1373021766308, -9002.67916949739, 239.8342180054448, 544.1085152755398, -4333.422104528201, -1375.2804845905882, -2068.7210045720344, -3913.254012257339, -3365.6809765912267, -2294.138347403806, -2717.033352498216, -1656.5548368161724, -7628.873900040853, -14623.159423251085, 0.014, -0.10200000000000001, 0.984, 192.0, 0.0, 0.0, 0.0, 0.0, 0.0, 0.0, 0.0, 0.0, 0.0, 1.64592309956407E9, 0.0, 2022-02-27 11:51:39.564
146.0, -328.36947779291603, -2781.7640044407854, -2175.316473879394, -9255.54445452028, -33.304099238407524, 288.24809649563986, -4570.216485287725, -1600.4519582333517, -2305.269516142549, -4128.702477062044, -3541.611557198949, -2459.9882912621847, -2895.892011629583, -1829.4455801779725, -7793.807422376564, -14848.107379449295, 0.012, -0.10400000000000001, 0.978, 192.0, 0.0, 48.0, 126.0, 96.0, 15.0, 72.0, 0.0, 0.0, 0.0, 1.645923099571853E9, 0.0, 2022-02-27 11:51:39.571
148.0, -53.24185529254142, -2516.4711495007455, -1909.2860113723293, -8984.954236144333, 242.7399447846347, 553.2280270133051, -4307.5164327045, -1347.9443011217477, -2143.6217002417684, -4065.871723398176, -3532.313231505541, -2474.0475385245727, -2893.030988339304, -1836.620490148126, -7788.2194862627375, -14725.642171578667, 0.012, -0.10400000000000001, 0.978, 192.0, 0.0, 0.0, 0.0, 0.0, 0.0, 0.0, 0.0, 0.0, 0.0, 1.645923099586043E9, 0.0, 2022-02-27 11:51:39.586
150.0, -203.8479094324004, -2666.1160786290266, -2053.4324113646044, -9138.04133391873, 84.33313182987355, 395.2906006921054, -4475.2662748415805, -1524.2995648741205, -2191.230915931573, -3970.7203472519336, -3393.799471116003, -2305.7165510316554, -2743.7883906112183, -1685.7015115858928, -7655.695993387222, -14721.507098854436, 0.012, -0.10400000000000001, 0.978, 192.0, 0.0, 0.0, 0.0, 0.0, 0.0, 0.0, 0.0, 0.0, 0.0, 1.645923099593519E9, 0.0, 2022-02-27 11:51:39.593
152.0, -242.27055815107326, -2696.067416199138, -2092.8832403282213, -9161.19774117443, 38.46735220758345, 379.1302894509184, -4486.956237191705, -1507.602811766006, -2291.0538066689737, -4195.377730772225, -3626.4811308957496, -2571.4787926052563, -2996.787786100839, -1934.0517442288094, -7891.305731690613, -14865.519388379978, 0.012, -0.10400000000000001, 0.978, 192.0, 0.0, 0.0, 0.0, 0.0, 0.0, 0.0, 0.0, 0.0, 0.0, 1.645923099601503E9, 0.0, 2022-02-27 11:51:39.601
154.0, -57.265169294496694, -2524.8754054159413, -1918.360819621184, -8994.386672304472, 234.08981968043088, 542.4768379303024, -4335.679630718188, -1376.5992375134513, -2073.3031121853724, -3913.4328262129816, -3364.7645550685593, -2290.1597368907615, -2723.671820601442, -1665.2720171537421, -7635.020629766063, -14624.791100596321, 0.012, -0.10800000000000001, 0.982, 192.0, 0.0, 48.0, 126.0, 64.0, 15.0, 104.0, 0.0, 0.0, 0.0, 1.645923099609685E9, 0.0, 2022-02-27 11:51:39.609
156.0, -331.58812899448026, -2788.2907138217347, -2179.4068431147152, -9259.657175500057, -34.24287250553042, 288.4716139401929, -4571.937569610783, -1612.4548450058514, -2303.8166527529543, -4123.472168859502, -3533.117894305932, -2457.5743028610113, -2890.6840551714963, -1834.944109313978, -7795.394396232891, -14852.756542295998, 0.012, -0.10800000000000001, 0.982, 192.0, 0.0, 0.0, 0.0, 0.0, 0.0, 0.0, 0.0, 0.0, 0.0, 1.645923099616164E9, 0.0, 2022-02-27 11:51:39.616
158.0, -64.44007926465027, -2527.915242661863, -1922.3394301342287, -8990.229247835785, 232.56990105747, 555.4184979699252, -4318.580546209878, -1334.5332544485634, -2150.863665445288, -4080.5344677608573, -3537.6776501748145, -2491.6160096664444, -2894.0368168397927, -1849.5397984432934, -7796.780204389121, -14729.665485580623, 0.012, -0.10800000000000001, 0.982, 192.0, 0.0, 0.0, 0.0, 0.0, 0.0, 0.0, 0.0, 0.0, 0.0, 1.64592309962409E9, 0.0, 2022-02-27 11:51:39.624
160.0, -203.2220605876518, -2653.8002674341524, -2053.477114853515, -9136.342601340128, 89.04934990994333, 400.2973914500942, -4477.434394053745, -1510.7097042452938, -2192.0579304764187, -3962.427850059015, -3393.9782850716456, -2309.8739755003426, -2741.6649748879645, -1692.8987733005017, -7658.646423655323, -14719.428386620091, 0.012, -0.10800000000000001, 0.982, 192.0, 0.0, 0.0, 0.0, 0.0, 0.0, 0.0, 0.0, 0.0, 0.0, 1.645923099632243E9, 0.0, 2022-02-27 11:51:39.632
162.0, -249.57957858795865, -2697.587334822099, -2096.0348362964196, -9173.9158837695, 38.780276629957754, 373.58705682600225, -4493.728815761664, -1518.2198903822768, -2294.183050892717, -4190.795623158887, -3628.7163053412805, -2574.563333340089, -2989.657579619596, -1947.2392734574407, -7892.915057291396, -14874.482437906558, 0.012, -0.10800000000000001, 0.982, 192.0, 0.0, 0.0, 0.0, 0.0, 0.0, 0.0, 0.0, 0.0, 0.0, 1.645923099639372E9, 0.0, 2022-02-27 11:51:39.639
164.0, -53.71124192610287, -2518.2145855682597, -1912.7281800184467, -8994.744300215758, 236.19088365922974, 538.4758756728024, -4343.458037788634, -1381.516621293619, -2072.2302284515176, -3920.3171635052163, -3365.6809765912267, -2298.5416410615017, -2718.6650298434533, -1679.3759679050409, -7642.79903683651, -14632.815376855777, 0.013000000000000001, -0.10900000000000001, 0.984, 192.0, 0.0, 56.0, 126.0, 72.0, 15.0, 104.0, 0.0, 0.0, 0.0, 1.645923099645714E9, 0.0, 2022-02-27 11:51:39.645
166.0, -327.1848353367848, -2779.8864579065394, -2176.836392502355, -9260.752410978366, -39.67434640817004, 277.7874800905562, -4584.767470928129, -1624.122455611522, -2302.1179201743507, -4114.732636777477, -3529.3628012374406, -2451.0028899911513, -2886.861906869639, -1834.1170947691317, -7801.83169863602, -14858.076257476361, 0.013000000000000001, -0.10900000000000001, 0.984, 192.0, 0.0, 0.0, 0.0, 0.0, 0.0, 0.0, 0.0, 0.0, 0.0, 1.645923099653838E9, 0.0, 2022-02-27 11:51:39.653
168.0, -64.48478275356088, -2527.4682077727566, -1923.2782034013514, -8992.35266355904, 236.21323540368505, 542.2533204857493, -4332.304517305436, -1361.6235687283956, -2156.451601559115, -4074.3430345467373, -3539.1081618199546, -2478.7414048601872, -2905.4585582564546, -1857.6087781916594, -7812.2252598077375, -14744.797616576865, 0.013000000000000001, -0.10900000000000001, 0.984, 192.0, 0.0, 0.0, 0.0, 0.0, 0.0, 0.0, 0.0, 0.0, 0.0, 1.64592309966179E9, 0.0, 2022-02-27 11:51:39.661
170.0, -206.75363621159033, -2668.038328652183, -2061.0990597127748, -9141.975240942866, 88.15528013173106, 384.5170598646474, -4483.111737145393, -1523.8078264961036, -2195.8800787782766, -3982.007978201864, -3399.1638897852768, -2311.103321445384, -2748.9739953248495, -1700.8112908376804, -7668.056508071007, -14731.833604792788, 0.013000000000000001, -0.10900000000000001, 0.984, 192.0, 0.0, 0.0, 0.0, 0.0, 0.0, 0.0, 0.0, 0.0, 0.0, 1.645923099668413E9, 0.0, 2022-02-27 11:51:39.668
172.0, -251.21125593319607, -2701.6553523129646, -2103.70148464459, -9172.999462246831, 40.70252665311416, 367.03799570059726, -4496.008693696105, -1525.506559074707, -2299.949800962186, -4188.225172546527, -3637.5452444011266, -2571.8364205165412, -2992.362140698688, -1941.941910021533, -7900.537002150656, -14880.5621123984, 0.013000000000000001, -0.10900000000000001, 0.984, 192.0, 0.0, 0.0, 0.0, 0.0, 0.0, 0.0, 0.0, 0.0, 0.0, 1.64592309967645E9, 0.0, 2022-02-27 11:51:39.676
174.0, -49.64322443523699, -2520.3380012915136, -1914.42691259705, -8995.347797316052, 236.66027029279118, 538.4982274172578, -4346.274357590003, -1386.9927986851692, -2071.2243999510288, -3917.232622770384, -3372.5206103945507, -2295.50180381558, -2719.290878688202, -1665.7190520428483, -7647.962289805686, -14633.687094889534, 0.0115, -0.10550000000000001, 0.984, 192.0, 0.0, 40.0, 126.0, 104.0, 15.0, 96.0, 0.0, 0.0, 0.0, 1.64592309968449E9, 0.0, 2022-02-27 11:51:39.684
176.0, -319.9875736221759, -2772.5997892141095, -2172.0754709333746, -9256.058544642752, -37.68504115164771, 276.7816515900674, -4588.3213982965235, -1631.565586515139, -2299.3239521174373, -4118.286564145871, -3528.2005105257645, -2450.3099859130366, -2882.927999845505, -1843.3707169736288, -7801.943457358296, -14860.020859243974, 0.0115, -0.10550000000000001, 0.984, 192.0, 0.0, 0.0, 0.0, 0.0, 0.0, 0.0, 0.0, 0.0, 0.0, 1.645923099691616E9, 0.0, 2022-02-27 11:51:39.691
178.0, -53.823000648379406, -2512.693704687799, -1914.8292439972454, -8993.78317520418, 227.40664808829405, 536.844198327565, -4339.121799364305, -1359.097821604946, -2148.4273252996595, -4068.8221536662763, -3535.375420495918, -2478.9872740491955, -2901.8822791436055, -1855.9994525908774, -7813.119329585949, -14745.15524448815, 0.0115, -0.10550000000000001, 0.984, 192.0, 0.0, 0.0, 0.0, 0.0, 0.0, 0.0, 0.0, 0.0, 0.0, 1.645923099706036E9, 0.0, 2022-02-27 11:51:39.706
180.0, -189.31927553645082, -2648.614662720521, -2051.3089956413505, -9139.449493819415, 89.16110863221988, 394.3741791694378, -4486.822126724974, -1521.282079372654, -2180.9714652265866, -3952.4142685430375, -3385.8422500899137, -2306.2306411541276, -2742.156713265981, -1704.566383906172, -7665.955444092208, -14730.067816980818, 0.0115, -0.10550000000000001, 0.984, 192.0, 0.0, 0.0, 0.0, 0.0, 0.0, 0.0, 0.0, 0.0, 0.0, 1.645923099714188E9, 0.0, 2022-02-27 11:51:39.714
182.0, -238.44840984921575, -2686.612628294543, -2097.9794380640315, -9170.227845934372, 34.77931437245779, 363.2829026321057, -4520.819130041496, -1527.0711811865785, -2290.606771779868, -4193.209611560061, -3627.285793696141, -2566.4049466139018, -2996.4301581895543, -1942.7689245663794, -7904.180336496871, -14880.204484487116, 0.0115, -0.10550000000000001, 0.984, 192.0, 0.0, 0.0, 0.0, 0.0, 0.0, 0.0, 0.0, 0.0, 0.0, 1.645923099721203E9, 0.0, 2022-02-27 11:51:39.721
184.0, -40.38960223073986, -2504.6023731949776, -1908.2801828718405, -8992.218553092307, 241.08591569494197, 534.4078581819366, -4352.778715226497, -1384.0200166726133, -2059.1097544562526, -3899.2841719727726, -3361.635310844816, -2287.5222310450354, -2718.6650298434533, -1677.341959159608, -7648.632842139345, -14635.497586190413, 0.01375, -0.10275000000000001, 0.985, 192.0, 0.0, 64.0, 126.0, 112.0, 15.0, 104.0, 0.0, 0.0, 0.0, 1.645923099728809E9, 0.0, 2022-02-27 11:51:39.728
186.0, -316.09837008695246, -2759.9934053413162, -2170.2649796324945, -9253.309280074749, -36.03101206195498, 269.40557591981604, -4586.555610484554, -1639.634566263505, -2295.054768926474, -4094.5043080454243, -3521.830263356002, -2451.6734423248104, -2886.3701684916223, -1846.522312941827, -7800.1329660574165, -14864.200635457115, 0.01375, -0.10275000000000001, 0.985, 192.0, 0.0, 0.0, 0.0, 0.0, 0.0, 0.0, 0.0, 0.0, 0.0, 1.645923099736818E9, 0.0, 2022-02-27 11:51:39.736
188.0, -45.105820310809655, -2500.266134770648, -1913.5328428188377, -8983.68018671038, 224.83619747593374, 539.8840355734868, -4349.113029135827, -1380.9131241933255, -2149.56726426688, -4061.8260576517655, -3532.7379146501917, -2476.9309135593076, -2910.3535902921667, -1856.0218043353325, -7814.147509830894, -14748.686820112089, 0.01375, -0.10275000000000001, 0.985, 192.0, 0.0, 0.0, 0.0, 0.0, 0.0, 0.0, 0.0, 0.0, 0.0, 1.645923099744719E9, 0.0, 2022-02-27 11:51:39.744
190.0, -174.85769687386716, -2631.850854379041, -2041.5412833143812, -9128.072455891665, 86.16597487520873, 404.56657464105785, -4486.978588936161, -1523.0925706735338, -2174.8023837569217, -3937.2150823134284, -3375.8510203183914, -2287.4328240672144, -2738.1781027529364, -1687.467299397862, -7662.222702768172, -14726.96092450153, 0.01375, -0.10275000000000001, 0.985, 192.0, 0.0, 0.0, 0.0, 0.0, 0.0, 0.0, 0.0, 0.0, 0.0, 1.645923099751358E9, 0.0, 2022-02-27 11:51:39.751
192.0, -231.13938941233033, -2678.5883520350876, -2097.778272363934, -9171.703061068423, 19.87070082076798, 356.44326882878175, -4518.092217217948, -1532.6814690448607, -2286.4269955667255, -4168.846210103776, -3614.4782441232496, -2550.6693185173654, -2996.4525099340094, -1939.1255902201642, -7901.475775417778, -14881.344423454337, 0.01375, -0.10275000000000001, 0.985, 192.0, 0.0, 0.0, 0.0, 0.0, 0.0, 0.0, 0.0, 0.0, 0.0, 1.645923099758463E9, 0.0, 2022-02-27 11:51:39.758
194.0, -29.191378258631023, -2493.0018178226733, -1898.7583397338797, -8985.244808822252, 227.94308995522144, 530.071619757607, -4364.111049665338, -1405.477691349708, -2060.339100401294, -3887.3036369447277, -3357.768459054048, -2282.426033309225, -2727.0916375031043, -1678.0572149821778, -7653.0361357970405, -14638.783292625343, 0.011875, -0.101375, 0.9875, 192.0, 0.0, 40.0, 126.0, 112.0, 15.0, 120.0, 0.0, 0.0, 0.0, 1.645923099766365E9, 0.0, 2022-02-27 11:51:39.766
196.0, -307.22472753819557, -2753.6902134049196, -2163.4253458291705, -9251.767009707333, -53.443020992639184, 275.9993405341316, -4607.8121194615505, -1638.5169790407394, -2286.762271733555, -4091.1738981215835, -3510.967315550723, -2436.1836834172827, -2880.4693079554213, -1834.139446513587, -7802.479899225224, -14860.51259762199, 0.011875, -0.101375, 0.9875, 192.0, 0.0, 0.0, 0.0, 0.0, 0.0, 0.0, 0.0, 0.0, 0.0, 1.645923099773458E9, 0.0, 2022-02-27 11:51:39.773
198.0, -52.39248900323975, -2507.195175551793, -1915.4774445864493, -8997.627675250493, 206.88774667832217, 532.3962011809589, -4361.562950797433, -1374.4981735346526, -2147.1979793546175, -4063.5024384859134, -3536.5600629520495, -2488.822041609531, -2912.208785081957, -1863.1296590721201, -7825.949230903296, -14755.504102170957, 0.011875, -0.101375, 0.9875, 192.0, 0.0, 0.0, 0.0, 0.0, 0.0, 0.0, 0.0, 0.0, 0.0, 1.645923099781114E9, 0.0, 2022-02-27 11:51:39.781
200.0, -174.54477245149286, -2631.739095656764, -2036.288623367384, -9129.033580903242, 79.19223060515293, 396.1176152369518, -4502.490699588144, -1532.6814690448607, -2166.867514475288, -3937.1480270800625, -3376.7227383521486, -2293.847774725887, -2739.250986486791, -1689.1213284875548, -7670.314034260993, -14723.205831433039, 0.011875, -0.101375, 0.9875, 192.0, 0.0, 0.0, 0.0, 0.0, 0.0, 0.0, 0.0, 0.0, 0.0, 1.645923099789128E9, 0.0, 2022-02-27 11:51:39.789
202.0, -239.8789214943554, -2688.423119595423, -2096.772443863445, -9179.973206516886, 18.440189175628326, 352.35289959346056, -4536.979441282683, -1550.8087337981146, -2287.0304926670187, -4176.132878796206, -3619.7532558147022, -2556.7266412647537, -3001.079321036258, -1934.6552413291029, -7907.957781309818, -14887.84878109083, 0.011875, -0.101375, 0.9875, 192.0, 0.0, 0.0, 0.0, 0.0, 0.0, 0.0, 0.0, 0.0, 0.0, 1.645923099797103E9, 0.0, 2022-02-27 11:51:39.797
204.0, -33.01352656048853, -2492.420672466835, -1899.3171333452624, -8992.240904836763, 227.85368297740018, 529.0657912571181, -4364.28986362098, -1393.0724731770126, -2054.751164287468, -3875.43486063896, -3364.228113201632, -2295.077120670929, -2732.6348701280203, -1671.821078279147, -7657.864112599387, -14638.51507169188, 0.012937500000000001, -0.10268750000000001, 0.99075, 192.0, 0.0, 56.0, 126.0, 96.0, 15.5, 8.0, 0.0, 0.0, 0.0, 1.645923099803605E9, 0.0, 2022-02-27 11:51:39.803
206.0, -303.08965481396376, -2753.01966107126, -2158.083278904352, -9250.649422484568, -42.22244527607504, 273.92062829978806, -4616.4398928212995, -1637.3546883290635, -2285.8458502108874, -4110.128177419684, -3514.700056874759, -2438.307099140537, -2884.4926219573763, -1843.5271791848159, -7803.172803303338, -14856.332821408847, 0.012937500000000001, -0.10268750000000001, 0.99075, 192.0, 0.0, 0.0, 0.0, 0.0, 0.0, 0.0, 0.0, 0.0, 0.0, 1.645923099811695E9, 0.0, 2022-02-27 11:51:39.811
208.0, -49.0397273349437, -2505.3399807620026, -1909.397770094606, -8998.298227584151, 213.3026973369953, 526.0483057556518, -4349.828284958397, -1373.6935107342615, -2145.1416188647295, -4073.2477990684274, -3535.0177925846333, -2483.9270095738184, -2914.0639798717475, -1869.2093335639638, -7827.379742548435, -14756.487578926992, 0.012937500000000001, -0.10268750000000001, 0.99075, 192.0, 0.0, 0.0, 0.0, 0.0, 0.0, 0.0, 0.0, 0.0, 0.0, 1.645923099819847E9, 0.0, 2022-02-27 11:51:39.819
210.0, -169.38151948231692, -2625.592365931555, -2027.6384982631803, -9130.128816381552, 93.43029182318352, 392.51898437964735, -4483.067033656483, -1527.3617538644976, -2163.7159185070896, -3950.06733537523, -3373.7946598285034, -2294.6524375262784, -2735.2276724848357, -1684.8074418076806, -7661.216874267683, -14718.981351730985, 0.012937500000000001, -0.10268750000000001, 0.99075, 192.0, 0.0, 0.0, 0.0, 0.0, 0.0, 0.0, 0.0, 0.0, 0.0, 1.645923099833235E9, 0.0, 2022-02-27 11:51:39.833
212.0, -239.633052305347, -2681.67289276992, -2092.4362054391154, -9179.928503027977, 22.30704096639645, 352.62112052692424, -4533.358458680923, -1569.7406613517596, -2283.767137976544, -4177.339872996792, -3617.115749968976, -2560.101754677505, -2993.7479488549175, -1933.6941163175245, -7900.067615517094, -14886.060641534406, 0.012937500000000001, -0.10268750000000001, 0.99075, 192.0, 0.0, 0.0, 0.0, 0.0, 0.0, 0.0, 0.0, 0.0, 0.0, 1.645923099841719E9, 0.0, 2022-02-27 11:51:39.841
214.0, -29.258433491996946, -2480.2389717386927, -1891.5610780192708, -8987.032948378677, 227.96544169967675, 543.6391286419783, -4364.2675118765255, -1364.417536785309, -2053.901797998166, -3888.1530032340293, -3364.2728166905426, -2297.088777671907, -2732.456056172378, -1676.2243719368425, -7654.265481742083, -14633.955315822997, 0.01246875, -0.10234375000000001, 0.992375, 192.0, 0.0, 48.0, 126.0, 104.0, 15.5, 8.0, 0.0, 0.0, 0.0, 1.64592309984928E9, 0.0, 2022-02-27 11:51:39.849
216.0, -301.70384665773474, -2747.5211319352547, -2154.127020135763, -9249.464780028437, -48.12330581227611, 281.49786967013716, -4594.468128021733, -1625.1282841120105, -2287.4775275561246, -4084.826002696276, -3510.185004494787, -2430.9310234702857, -2882.4139097230327, -1816.101588738154, -7793.248628765182, -14847.7050480491, 0.01246875, -0.10234375000000001, 0.992375, 192.0, 0.0, 0.0, 0.0, 0.0, 0.0, 0.0, 0.0, 0.0, 0.0, 1.645923099857237E9, 0.0, 2022-02-27 11:51:39.857
218.0, -47.25158777851913, -2500.8696318709412, -1909.9342119615333, -8994.073747882097, 214.2191188596629, 536.911253560931, -4354.142171638271, -1379.5943712704625, -2150.5954445118246, -4062.5189617298797, -3539.6222519424264, -2480.306026972059, -2915.0027531388705, -1863.0179003498438, -7823.557594246578, -14754.185349248095, 0.01246875, -0.10234375000000001, 0.992375, 192.0, 0.0, 0.0, 0.0, 0.0, 0.0, 0.0, 0.0, 0.0, 0.0, 1.645923099864065E9, 0.0, 2022-02-27 11:51:39.864
220.0, -168.6439119152918, -2622.418418218901, -2030.521873297915, -9128.027752402753, 88.04352140945451, 403.0019525291863, -4502.781272266063, -1524.1431026629332, -2165.8169824858883, -3942.4677422604254, -3374.6887296067157, -2284.750614732577, -2736.63583238552, -1679.532430116228, -7660.32280448947, -14715.382720873682, 0.01246875, -0.10234375000000001, 0.992375, 192.0, 0.0, 0.0, 0.0, 0.0, 0.0, 0.0, 0.0, 0.0, 0.0, 1.64592309987201E9, 0.0, 2022-02-27 11:51:39.872
222.0, -242.62818606235817, -2688.490174828789, -2096.2807054854284, -9186.835192064666, 15.042724018421653, 344.4850855451925, -4538.052325016538, -1543.4326581278633, -2292.372559591837, -4190.370940014236, -3621.2284709487526, -2563.230998901248, -3000.5428791693307, -1943.841808300234, -7904.068577774594, -14883.914874066697, 0.01246875, -0.10234375000000001, 0.992375, 192.0, 0.0, 0.0, 0.0, 0.0, 0.0, 0.0, 0.0, 0.0, 0.0, 1.645923099879899E9, 0.0, 2022-02-27 11:51:39.879
224.0, -29.571357914371244, -2482.697663628777, -1893.103348386687, -8986.071823367098, 235.8109040034895, 535.9724802938081, -4343.435686044179, -1385.5399352955742, -2061.188466690596, -3896.289038215761, -3370.0172150155563, -2299.011027695063, -2738.1110475195705, -1685.4556423968843, -7653.505522430602, -14636.145786779618, 0.012, -0.1, 0.992, 192.0, 0.0, 48.0, 126.0, 112.0, 15.5, 0.0, 0.0, 0.0, 0.0, 1.64592309988605E9, 0.0, 2022-02-27 11:51:39.886
226.0, -308.5211287166034, -2746.224730756847, -2159.7820114829556, -9246.335535804694, -49.97850060206659, 278.1674597462964, -4606.4039595608665, -1624.949470156368, -2298.9439724616973, -4095.6218952681897, -3517.7175423762255, -2432.0933141819614, -2887.890087114583, -1825.914004554034, -7792.891000853897, -14853.672963818666, 0.012, -0.1, 0.992, 192.0, 0.0, 0.0, 0.0, 0.0, 0.0, 0.0, 0.0, 0.0, 0.0, 1.645923099893479E9, 0.0, 2022-02-27 11:51:39.893
228.0, -48.57034070138225, -2496.4663382132458, -1913.0858079297316, -8993.336140315074, 217.68363925023547, 525.4224569109031, -4352.219921615115, -1375.5040020351414, -2163.8500289738213, -4073.828944424265, -3546.9983276126777, -2483.591733406989, -2921.015372397348, -1863.46493523895, -7830.397228049902, -14760.01915455093, 0.012, -0.1, 0.992, 192.0, 0.0, 0.0, 0.0, 0.0, 0.0, 0.0, 0.0, 0.0, 0.0, 1.645923099901695E9, 0.0, 2022-02-27 11:51:39.901
230.0, -167.68278690371358, -2616.3834472159683, -2025.3362685842835, -9122.752740711301, 100.71696051561362, 393.54716462459146, -4478.686091743242, -1518.8904427159362, -2165.6605202747014, -3910.325933733694, -3371.157153982777, -2280.9061146862646, -2737.4628469303666, -1679.8006510496916, -7657.975871321663, -14719.048406964352, 0.012, -0.1, 0.992, 192.0, 0.0, 0.0, 0.0, 0.0, 0.0, 0.0, 0.0, 0.0, 0.0, 1.645923099908662E9, 0.0, 2022-02-27 11:51:39.908
232.0, -259.5708083594809, -2698.704922044864, -2104.707313145079, -9186.209343219918, 11.511148394483138, 334.11387611793, -4541.740362851663, -1558.5200856351955, -2301.290905629505, -4171.260198504949, -3625.721171584269, -2559.587664555033, -3003.06862629278, -1939.684383831547, -7898.055958516116, -14887.04411829044, 0.012, -0.1, 0.992, 192.0, 0.0, 0.0, 0.0, 0.0, 0.0, 0.0, 0.0, 0.0, 0.0, 1.645923099916174E9, 0.0, 2022-02-27 11:51:39.916
234.0, -51.02903259146603, -2507.5975069519886, -1896.4561100549831, -8984.261332066219, 235.27446213656214, 538.6993931173555, -4364.580436298899, -1375.1240223794011, -2077.9746267765317, -3920.9877158388754, -3383.6964826222043, -2297.736978261111, -2744.704812133886, -1679.018339993756, -7661.820371367976, -14637.106911791196, 0.014, -0.10200000000000001, 0.988, 192.0, 0.0, 56.0, 126.0, 104.0, 15.0, 112.0, 0.0, 0.0, 0.0, 1.645923099924169E9, 0.0, 2022-02-27 11:51:39.924
236.0, -328.436533026282, -2770.543428724221, -2159.4914388050365, -9255.58915800919, -45.68696566664764, 265.762241573601, -4582.107613337947, -1635.27597609472, -2316.7359610481217, -4111.089302431262, -3532.022658827622, -2442.4198201203135, -2898.149537819569, -1820.4378271624837, -7793.226277020726, -14851.214271928582, 0.014, -0.10200000000000001, 0.988, 192.0, 0.0, 0.0, 0.0, 0.0, 0.0, 0.0, 0.0, 0.0, 0.0, 1.645923099932224E9, 0.0, 2022-02-27 11:51:39.932
238.0, -70.07271886738764, -2522.0590856145723, -1914.650430041603, -9004.489660798272, 213.70502873719082, 511.6314305819787, -4351.750534981553, -1388.8256417305042, -2176.7469855245336, -4094.95134293453, -3561.0352231306106, -2502.814233638553, -2935.0969714041917, -1879.7593569468686, -7833.437065295824, -14770.144494789183, 0.014, -0.10200000000000001, 0.988, 192.0, 0.0, 0.0, 0.0, 0.0, 0.0, 0.0, 0.0, 0.0, 0.0, 1.645923099938749E9, 0.0, 2022-02-27 11:51:39.938
240.0, -181.07148183244252, -2632.5661102016106, -2024.5986610172583, -9125.390246557028, 98.88411747027844, 395.9835047702199, -4494.9358099622505, -1520.6115270389948, -2174.1988866566285, -3950.7825911978, -3380.522534909551, -2296.2617631270605, -2739.7427248648078, -1689.4119011654736, -7662.692089401733, -14720.098938953752, 0.014, -0.10200000000000001, 0.988, 192.0, 0.0, 0.0, 0.0, 0.0, 0.0, 0.0, 0.0, 0.0, 0.0, 1.645923099953752E9, 0.0, 2022-02-27 11:51:39.953
242.0, -280.80496559202265, -2722.0177915117492, -2111.4351882261262, -9196.602904391635, 1.3411046673184237, 333.71154471773445, -4530.005697012627, -1558.0954024905448, -2319.6416878273117, -4192.092024337295, -3638.4169624348838, -2571.948179238818, -3013.4845392089537, -1945.38407866765, -7904.3815021969685, -14891.179191014671, 0.014, -0.10200000000000001, 0.988, 192.0, 0.0, 0.0, 0.0, 0.0, 0.0, 0.0, 0.0, 0.0, 0.0, 1.645923099962255E9, 0.0, 2022-02-27 11:51:39.962
244.0, -53.51007622600511, -2507.038713340606, -1895.4055780655835, -8986.697672211847, 240.99650871712075, 531.9268145473975, -4350.811761714431, -1402.0802261925014, -2086.1106617582636, -3934.488169489881, -3394.224154260654, -2315.9983534810967, -2757.959396595883, -1693.7481395898033, -7665.37429873637, -14641.644315915622, 0.016, -0.10400000000000001, 0.99, 192.0, 0.0, 64.0, 126.0, 96.0, 15.0, 120.0, 0.0, 0.0, 0.0, 1.645923099968454E9, 0.0, 2022-02-27 11:51:39.968
246.0, -314.8690241419106, -2758.182914040436, -2159.7820114829556, -9250.87293992912, -46.223407533575006, 270.81373582050037, -4590.24364831968, -1638.114647640544, -2308.4211121107473, -4097.432386569069, -3526.5911849249824, -2437.5694915735116, -2891.1981452939685, -1832.7759901018132, -7797.786032889609, -14859.663231332688, 0.016, -0.10400000000000001, 0.99, 192.0, 0.0, 0.0, 0.0, 0.0, 0.0, 0.0, 0.0, 0.0, 0.0, 1.645923099976452E9, 0.0, 2022-02-27 11:51:39.976
248.0, -89.8763644547897, -2535.8724636879524, -1932.4424186280273, -9008.602381778048, 190.97330462614354, 512.4807968712803, -4370.526000324011, -1404.9412494827807, -2186.090014706852, -4098.393511580648, -3572.0769848915324, -2505.8987743733855, -2947.569244810253, -1871.9585981319665, -7843.607109022989, -14768.088134299296, 0.016, -0.10400000000000001, 0.99, 192.0, 0.0, 0.0, 0.0, 0.0, 0.0, 0.0, 0.0, 0.0, 0.0, 1.645923099984447E9, 0.0, 2022-02-27 11:51:39.984
250.0, -195.75657793957924, -2644.4348865073785, -2025.1127511397306, -9120.428159287949, 98.83941398136783, 400.6326676169238, -4478.082594642949, -1544.1032104615224, -2191.901468265232, -3956.035251144797, -3395.319389738964, -2301.045036440496, -2755.3889459835227, -1685.5226976302504, -7667.6094731819, -14717.036749963374, 0.016, -0.10400000000000001, 0.99, 192.0, 0.0, 0.0, 0.0, 0.0, 0.0, 0.0, 0.0, 0.0, 0.0, 1.645923099991426E9, 0.0, 2022-02-27 11:51:39.991
252.0, -281.72138711469023, -2718.3074019321684, -2111.3010777593945, -9198.39104394806, 5.587936113826766, 329.0623818710306, -4534.923080792794, -1591.8018331291478, -2325.3190309189595, -4196.987056373007, -3642.52968341466, -2571.5011443497115, -3014.177443287068, -1944.8029333118122, -7908.427167943379, -14897.638845162255, 0.016, -0.10400000000000001, 0.99, 192.0, 0.0, 0.0, 0.0, 0.0, 0.0, 0.0, 0.0, 0.0, 0.0, 1.645923099999148E9, 0.0, 2022-02-27 11:51:39.999
254.0, -53.957111115111246, -2504.200041794782, -1896.1431856326087, -8988.195239090353, 233.48632258013757, 537.0006605387522, -4359.774811241008, -1383.2153538722223, -2088.5246501594365, -3914.908041347032, -3397.0181223175673, -2317.6970860597, -2757.512361706777, -1705.371046706563, -7671.744545906133, -14646.85227237371, 0.012, -0.11, 0.99, 192.0, 0.0, 48.0, 126.0, 72.0, 15.0, 120.0, 0.0, 0.0, 0.0, 1.645923100006224E9, 0.0, 2022-02-27 11:51:40.006
0.0, -326.2013585807513, -2764.1955332989137, -2157.0103951704973, -9250.738829462389, -47.87743662326773, 280.7155586142014, -4605.24166884919, -1646.8094762336584, -2317.942955248708, -4099.376988336681, -3531.195644282776, -2438.9105962408303, -2894.349741262167, -1830.429056934006, -7799.529468957123, -14855.88578651974, 0.012, -0.11, 0.99, 192.0, 0.0, 0.0, 0.0, 0.0, 0.0, 0.0, 0.0, 0.0, 0.0, 1.645923100013984E9, 0.0, 2022-02-27 11:51:40.013
2.0, -81.36034981731771, -2525.948289149796, -1923.389962123628, -9006.724835243802, 196.96357214016584, 521.1532737199394, -4386.149869698271, -1413.9937059871802, -2191.1415089537513, -4100.271058114893, -3573.954531425778, -2508.4692249857458, -2945.401125598088, -1887.4707087839497, -7849.865597470474, -14777.677032670623, 0.012, -0.11, 0.99, 192.0, 0.0, 0.0, 0.0, 0.0, 0.0, 0.0, 0.0, 0.0, 0.0, 1.645923100020932E9, 0.0, 2022-02-27 11:51:40.020
4.0, -181.3397027659062, -2628.0957613105493, -2020.9553266710434, -9119.936420909933, 98.30297211444046, 404.0971880074964, -4477.814373709485, -1544.7514110507263, -2180.189154170651, -3946.5804632402023, -3383.6070756443833, -2292.238449125105, -2744.5259981782438, -1690.887116299524, -7664.927263847264, -14719.495441853458, 0.012, -0.11, 0.99, 192.0, 0.0, 0.0, 0.0, 0.0, 0.0, 0.0, 0.0, 0.0, 0.0, 1.645923100028824E9, 0.0, 2022-02-27 11:51:40.028
6.0, -282.74956735963434, -2720.5649281221545, -2117.6266214402463, -9202.615523650113, -2.7492645680027685, 327.49775975915907, -4535.414819170812, -1598.2391355322761, -2323.6202983403564, -4188.962780113552, -3639.311032213096, -2574.3174641510805, -3011.249364763423, -1955.3753084391724, -7903.6215428854875, -14900.432813219168, 0.012, -0.11, 0.99, 192.0, 0.0, 0.0, 0.0, 0.0, 0.0, 0.0, 0.0, 0.0, 0.0, 1.645923100036644E9, 0.0, 2022-02-27 11:51:40.036
8.0, -46.558683700404615, -2506.9269546183295, -1896.2102408659746, -8987.34587280105, 235.07329643646437, 537.2912332166711, -4345.760267467531, -1409.389246629387, -2086.714158858557, -3919.4677972159147, -3396.995770573112, -2321.429827383736, -2758.6970041629083, -1712.076570043155, -7666.447182470225, -14652.28374627635, 0.01, -0.108, 0.99, 192.0, 0.0, 40.0, 126.0, 80.0, 15.0, 120.0, 0.0, 0.0, 0.0, 1.645923100043854E9, 0.0, 2022-02-27 11:51:40.043
10.0, -319.4064282663379, -2760.485143719333, -2154.6858137471454, -9254.963309164443, -44.927006355167194, 278.59214289094723, -4607.990933417193, -1657.5606653166612, -2310.5892313229124, -4086.860011441709, -3522.456112200751, -2438.664727051822, -2883.3526829901557, -1832.5077691683496, -7792.980407831718, -14855.639917330733, 0.01, -0.108, 0.99, 192.0, 0.0, 0.0, 0.0, 0.0, 0.0, 0.0, 0.0, 0.0, 0.0, 1.645923100051448E9, 0.0, 2022-02-27 11:51:40.051
12.0, -77.78407070446858, -2523.5566524930778, -1919.746627777413, -9011.150480645952, 200.6292582308362, 519.2757271856937, -4368.983729956595, -1415.2007001877666, -2184.9053722507206, -4096.337151090759, -3569.081851134521, -2519.1533588353823, -2937.5556632942753, -1883.782670948824, -7843.1600741338825, -14778.59345419329, 0.01, -0.108, 0.99, 192.0, 0.0, 0.0, 0.0, 0.0, 0.0, 0.0, 0.0, 0.0, 0.0, 1.645923100059291E9, 0.0, 2022-02-27 11:51:40.059
14.0, -173.94127535119955, -2629.481569466778, -2014.4062655456385, -9117.634191231036, 107.08720768537614, 411.67442937784546, -4487.827955225463, -1541.085724960056, -2168.8791714762656, -3947.9886231408864, -3376.298055207498, -2288.21513512315, -2727.7845415812185, -1699.0007995368005, -7655.89715908732, -14717.997874974952, 0.01, -0.108, 0.99, 192.0, 0.0, 0.0, 0.0, 0.0, 0.0, 0.0, 0.0, 0.0, 0.0, 1.645923100067247E9, 0.0, 2022-02-27 11:51:40.067
16.0, -278.65919812431315, -2717.2345181983137, -2114.2738597719504, -9201.497936427348, -3.1068924792876818, 334.69502147376795, -4552.156275767837, -1594.796966886159, -2312.8467575128984, -4187.6887306796, -3632.0690670095764, -2565.6002838135105, -2998.218297745979, -1954.1459624941306, -7902.548659151633, -14897.70590039562, 0.01, -0.108, 0.99, 192.0, 0.0, 0.0, 0.0, 0.0, 0.0, 0.0, 0.0, 0.0, 0.0, 1.645923100081054E9, 0.0, 2022-02-27 11:51:40.081
18.0, -40.814285375390696, -2490.721939888232, -1885.0120168938658, -8980.327425042084, 240.72828778365707, 549.294119989171, -4354.365689082824, -1412.8090635310489, -2079.0698622548416, -3928.900233376054, -3393.844174604914, -2321.2510134280938, -2750.672727903453, -1707.494462429817, -7671.096345316929, -14649.579185197257, 0.012, -0.11, 0.992, 192.0, 0.0, 48.0, 126.0, 72.0, 15.5, 0.0, 0.0, 0.0, 0.0, 1.645923100089003E9, 0.0, 2022-02-27 11:51:40.089
20.0, -319.83111141098874, -2749.8457133586066, -2152.6965084906233, -9249.509483517348, -35.271052750474546, 290.32680872998344, -4601.2407065916905, -1653.5373513147058, -2299.7486352620886, -4072.130211845662, -3512.4648824292285, -2427.95824145773, -2872.4897351848767, -1826.3386876986847, -7783.3468059714805, -14850.74488529502, 0.012, -0.11, 0.992, 192.0, 0.0, 0.0, 0.0, 0.0, 0.0, 0.0, 0.0, 0.0, 0.0, 1.645923100097052E9, 0.0, 2022-02-27 11:51:40.097
22.0, -84.71311148561377, -2538.64408000041, -1930.7213343049689, -9008.624733522503, 208.29590657900653, 523.9919452657634, -4368.0896601783825, -1409.8809850074035, -2186.0676629623968, -4110.686971031067, -3571.2276186022305, -2528.4516845287903, -2941.9142534630605, -1885.4814035274273, -7845.8646352129745, -14782.795582150888, 0.012, -0.11, 0.992, 192.0, 0.0, 0.0, 0.0, 0.0, 0.0, 0.0, 0.0, 0.0, 0.0, 1.645923100103661E9, 0.0, 2022-02-27 11:51:40.103
24.0, -175.6400079298029, -2640.5680347166103, -2017.9378411695768, -9110.28046730524, 117.12314094580901, 422.35856322748225, -4466.638501481832, -1524.992468952235, -2163.7159185070896, -3935.1140183346297, -3377.6838633637267, -2277.821573951432, -2731.6513933719866, -1684.7180348298593, -7651.069182284973, -14708.76660451491, 0.012, -0.11, 0.992, 192.0, 0.0, 0.0, 0.0, 0.0, 0.0, 0.0, 0.0, 0.0, 0.0, 1.645923100111515E9, 0.0, 2022-02-27 11:51:40.111
26.0, -291.98083781967614, -2736.680535874431, -2122.9463366206096, -9209.075177797697, 2.2798779344413203, 338.20424535325117, -4532.576147624987, -1586.1691935264105, -2311.3268388899373, -4202.440882020102, -3633.9913170327327, -2565.5555803245998, -2999.5146989243867, -1938.9244245200664, -7896.826612571074, -14891.290949736947, 0.012, -0.11, 0.992, 192.0, 0.0, 0.0, 0.0, 0.0, 0.0, 0.0, 0.0, 0.0, 0.0, 1.645923100119632E9, 0.0, 2022-02-27 11:51:40.119
28.0, -54.605311704315156, -2502.613067938455, -1888.1189093731534, -8989.156364101931, 248.52904659855923, 544.555550164646, -4348.062497146428, -1399.2639063911327, -2077.7511093319786, -3933.728210178401, -3400.0132560745787, -2335.55612987949, -2754.1148965495704, -1706.1310060180433, -7666.111906303395, -14646.51699620688, 0.008, -0.108, 0.986, 192.0, 0.0, 32.0, 126.0, 80.0, 15.0, 104.0, 0.0, 0.0, 0.0, 1.645923100126768E9, 0.0, 2022-02-27 11:51:40.126
30.0, -327.16248359232947, -2764.419050743467, -2148.896711933221, -9251.722306218422, -41.32837549786276, 289.276276740584, -4614.0929596534925, -1662.0086624632672, -2297.31229511646, -4086.5917905082456, -3513.64952488536, -2448.365384145425, -2871.3497962176557, -1831.9266238125115, -7786.140774028394, -14855.863434775287, 0.008, -0.108, 0.986, 192.0, 0.0, 0.0, 0.0, 0.0, 0.0, 0.0, 0.0, 0.0, 0.0, 1.645923100133391E9, 0.0, 2022-02-27 11:51:40.133
32.0, -112.51868158801575, -2582.1852781993484, -1927.8379592702343, -9018.034817938187, 200.40574078628313, 518.8510440410429, -4354.544503038466, -1418.8887380228923, -2191.5214886094914, -4109.904659975131, -3578.536639039116, -2526.0600478720726, -2944.507055819876, -1895.5396885323155, -7849.083286414539, -14787.087117086307, 0.008, -0.108, 0.986, 192.0, 0.0, 0.0, 0.0, 0.0, 0.0, 0.0, 0.0, 0.0, 0.0, 1.645923100141243E9, 0.0, 2022-02-27 11:51:40.141
34.0, -201.45627277568255, -2669.67000599742, -2009.7347509544793, -9120.294048821217, 125.34858290536201, 418.6481736479013, -4453.674489697753, -1545.2207976842878, -2170.153220910218, -3949.642652230579, -3381.2154389876655, -2297.759330005566, -2720.5202246332437, -1681.633494095027, -7646.621185138368, -14714.376892373193, 0.008, -0.108, 0.986, 192.0, 0.0, 0.0, 0.0, 0.0, 0.0, 0.0, 0.0, 0.0, 0.0, 1.645923100149366E9, 0.0, 2022-02-27 11:51:40.149
36.0, -334.98559415168694, -2790.8164609451846, -2122.1416738202183, -9211.422110965505, 0.9387732671228967, 331.6775359723015, -4553.653842646342, -1592.5617924406283, -2321.8992140172977, -4213.259126336471, -3634.6618693663922, -2581.4700223767786, -2989.076434263758, -1959.555084652315, -7893.183278224859, -14897.460031206612, 0.009000000000000001, -0.108, 0.987, 192.0, 0.0, 40.0, 126.0, 80.0, 15.0, 112.0, 0.0, 0.0, 0.0, 1.645923100156385E9, 0.0, 2022-02-27 11:51:40.156
38.0, -112.04929495445431, -2578.296074664125, -1899.6747612565473, -8991.771518203203, 233.79924700251186, 551.3504804790593, -4348.62129075781, -1403.9354209822918, -2101.7568828769786, -3959.3656610686376, -3414.407779503796, -2348.788362597032, -2763.9496641099054, -1712.6800671434485, -7678.383014009359, -14646.069961317775, 0.009000000000000001, -0.108, 0.987, 192.0, 0.0, 0.0, 0.0, 0.0, 0.0, 0.0, 0.0, 0.0, 0.0, 1.645923100163998E9, 0.0, 2022-02-27 11:51:40.163
40.0, -404.3654089409601, -2856.5529413882427, -2163.7606219960003, -9259.54541677778, -51.72193666958054, 284.13537551586336, -4596.569192000531, -1662.4109938634629, -2333.186844967228, -4123.583927581779, -3535.420123984829, -2459.563608117534, -2885.0514155687592, -1827.6127371326372, -7784.2855792386035, -14850.878995761752, 0.009000000000000001, -0.108, 0.987, 192.0, 0.0, 0.0, 0.0, 0.0, 0.0, 0.0, 0.0, 0.0, 0.0, 1.645923100172007E9, 0.0, 2022-02-27 11:51:40.172
42.0, -200.89747916429988, -2658.1812093473923, -1950.8826078036557, -9033.032838467698, 172.17548753923032, 506.55758459062395, -4392.006026745561, -1439.675860366328, -2236.180274031195, -4156.105715764251, -3609.0020667316994, -2558.626539543455, -2967.7752217978505, -1912.5940695517147, -7861.399097609413, -14794.820820667843, 0.009000000000000001, -0.108, 0.987, 192.0, 0.0, 0.0, 0.0, 0.0, 0.0, 0.0, 0.0, 0.0, 0.0, 1.64592310017899E9, 0.0, 2022-02-27 11:51:40.178
44.0, -302.44145422475987, -2758.4287832294444, -2023.0787423942975, -9117.298915064206, 108.96475421962192, 419.8104643595772, -4469.007786394094, -1543.0079749832125, -2210.8110440744217, -3979.7504520118778, -3407.8810701228467, -2322.3015454174933, -2747.409373212978, -1692.0494070112, -7660.613377167389, -14710.398281860147, 0.009000000000000001, -0.108, 0.987, 192.0, 0.0, 0.0, 0.0, 0.0, 0.0, 0.0, 0.0, 0.0, 0.0, 1.645923100186527E9, 0.0, 2022-02-27 11:51:40.186
46.0, -454.1203920984736, -2901.8822791436055, -2140.8500839293106, -9225.257840783339, -10.371209427262476, 325.5755097360027, -4557.788915370574, -1603.3576850125414, -2376.526877466068, -4247.74786803101, -3667.787154649157, -2603.3076767096136, -3014.445664220532, -1952.7601543379014, -7903.465080674301, -14899.248170763038, 0.0115, -0.109, 0.9875, 192.0, 0.0, 56.0, 126.0, 72.0, 15.0, 112.0, 0.0, 0.0, 0.0, 1.645923100201403E9, 0.0, 2022-02-27 11:51:40.201
48.0, -250.16072394379665, -2712.294782673691, -1906.6708572710584, -8998.141765372964, 248.7525640431123, 548.3553467220481, -4337.065438874417, -1408.1822524288002, -2150.1707613671733, -3994.6590655635678, -3447.44365780874, -2380.5501914680235, -2769.582303712643, -1720.2796602582528, -7676.572522708479, -14650.361496253194, 0.0115, -0.109, 0.9875, 192.0, 0.0, 0.0, 0.0, 0.0, 0.0, 0.0, 0.0, 0.0, 0.0, 1.645923100208597E9, 0.0, 2022-02-27 11:51:40.208
50.0, -557.1395822929838, -3003.0015710594143, -2169.8179447433886, -9265.714498247446, -25.19041600113106, 287.62224765089127, -4590.064834364037, -1664.2661886532533, -2377.6668164332887, -4157.379765198203, -3569.014795901155, -2497.986256836207, -2877.5635811762313, -1829.3114697112405, -7778.854105335964, -14853.292984162927, 0.0115, -0.109, 0.9875, 192.0, 0.0, 0.0, 0.0, 0.0, 0.0, 0.0, 0.0, 0.0, 0.0, 1.645923100216258E9, 0.0, 2022-02-27 11:51:40.216
52.0, -364.19932415477325, -2812.162376900003, -1956.29172996184, -9038.710181559347, 202.5515082539926, 520.8850527864757, -4375.555142826455, -1422.8002933025712, -2281.9342949312086, -4194.193088316094, -3646.083610783054, -2600.3125429526026, -2956.152314681091, -1907.810796238279, -7849.88794921493, -14794.172620078638, 0.0115, -0.109, 0.9875, 192.0, 0.0, 0.0, 0.0, 0.0, 0.0, 0.0, 0.0, 0.0, 0.0, 1.645923100224113E9, 0.0, 2022-02-27 11:51:40.224
54.0, -445.6267292054569, -2900.3176570317337, -2031.5947570317696, -9128.8547669476, 125.97443175011061, 424.2808132506387, -4458.12248684436, -1530.6474602994276, -2258.01792836403, -4025.4374176785254, -3448.6506520093267, -2366.3568337389033, -2739.1392277645145, -1690.4400814104179, -7649.906891573298, -14708.051348692341, 0.0115, -0.109, 0.9875, 192.0, 0.0, 0.0, 0.0, 0.0, 0.0, 0.0, 0.0, 0.0, 0.0, 1.645923100232281E9, 0.0, 2022-02-27 11:51:40.232
56.0, -558.0783555601067, -3001.794576858828, -2142.057078129897, -9232.298640286761, -2.6375058457262335, 328.63769872637977, -4556.000775814149, -1606.9563158698459, -2406.2770493360817, -4277.6097986233, -3700.7336259762797, -2641.260938794725, -3006.376684472166, -1951.5978636262255, -7895.351397437024, -14902.243304520049, 0.01075, -0.1105, 0.98775, 192.0, 0.0, 40.0, 126.0, 64.0, 15.0, 112.0, 0.0, 0.0, 0.0, 1.645923100238838E9, 0.0, 2022-02-27 11:51:40.238
58.0, -292.9643145757097, -2747.185855768425, -1905.32975260374, -8998.477041539794, 253.44643037872677, 555.4408497143805, -4333.444456272657, -1397.7216360237167, -2165.19113364114, -4009.5006238818914, -3470.8235825089914, -2403.863060934909, -2768.30825427869, -1724.884119616046, -7676.863095386398, -14654.630679444157, 0.01075, -0.1105, 0.98775, 192.0, 0.0, 0.0, 0.0, 0.0, 0.0, 0.0, 0.0, 0.0, 0.0, 1.645923100246873E9, 0.0, 2022-02-27 11:51:40.246
60.0, -560.7158614058329, -3003.2250885039675, -2168.990930198542, -9267.010899425853, -25.838616590334965, 284.15772726031867, -4572.518714966621, -1642.8085139761586, -2384.595857214434, -4159.056146032351, -3574.8486012039903, -2502.3448470049916, -2878.2117817654353, -1839.6156239051372, -7772.685023866299, -14850.767237039476, 0.01075, -0.1105, 0.98775, 192.0, 0.0, 0.0, 0.0, 0.0, 0.0, 0.0, 0.0, 0.0, 0.0, 1.64592310025382E9, 0.0, 2022-02-27 11:51:40.253
62.0, -313.5726229635028, -2765.8719141330616, -1952.8272095712675, -9045.773332807223, 201.00923788657641, 499.1591571759173, -4366.167410155226, -1434.445552163786, -2277.083966384407, -4203.558469242867, -3645.547168916127, -2605.9228308108845, -2965.5847508412303, -1930.0060784823988, -7855.073553928561, -14801.258123070971, 0.01075, -0.1105, 0.98775, 192.0, 0.0, 0.0, 0.0, 0.0, 0.0, 0.0, 0.0, 0.0, 0.0, 1.645923100261077E9, 0.0, 2022-02-27 11:51:40.261
64.0, -361.22654214221745, -2816.4315600909663, -2021.0894371377751, -9124.362066312084, 133.35050742036194, 420.2127957597728, -4457.340175788424, -1537.442390613841, -2218.9694308006087, -4006.3713796581487, -3427.8635296658913, -2353.5492841660125, -2733.864216073062, -1702.2194507383647, -7646.621185138368, -14710.48768883797, 0.01075, -0.1105, 0.98775, 192.0, 0.0, 0.0, 0.0, 0.0, 0.0, 0.0, 0.0, 0.0, 0.0, 1.645923100269265E9, 0.0, 2022-02-27 11:51:40.269
66.0, -475.68982549784494, -2916.43326478401, -2143.5322932639474, -9234.198538565463, -12.293459450418885, 315.8525008979441, -4568.629511431398, -1614.0418188621784, -2380.170211812283, -4257.135600702239, -3679.4771169992828, -2619.80326411763, -3006.4437397055317, -1958.5716078962814, -7898.547696894133, -14904.925513854685, 0.010374999999999999, -0.10825, 0.988875, 192.0, 0.0, 40.0, 126.0, 88.0, 15.0, 120.0, 0.0, 0.0, 0.0, 1.64592310027642E9, 0.0, 2022-02-27 11:51:40.276
68.0, -198.25997331857366, -2648.4358487648788, -1901.6640665130697, -8998.454689795339, 239.92362498326602, 547.327166477104, -4347.1907791126705, -1419.156958956356, -2136.312679804883, -3991.5968765731905, -3449.8799979543687, -2379.365549011892, -2775.997254371316, -1724.302974260208, -7687.167249580294, -14661.626775458668, 0.010374999999999999, -0.10825, 0.988875, 192.0, 0.0, 0.0, 0.0, 0.0, 0.0, 0.0, 0.0, 0.0, 0.0, 1.645923100284497E9, 0.0, 2022-02-27 11:51:40.284
70.0, -465.29626432612713, -2918.377866551622, -2161.7936684839333, -9270.140143649596, -40.56841618638232, 282.77191910408965, -4593.708168710252, -1669.5188486002505, -2353.8622085883867, -4151.456552917547, -3550.9098828923566, -2481.9600560617514, -2881.408081222544, -1831.8372168346903, -7781.335148970503, -14858.70210632111, 0.010374999999999999, -0.10825, 0.988875, 192.0, 0.0, 0.0, 0.0, 0.0, 0.0, 0.0, 0.0, 0.0, 0.0, 1.645923100291102E9, 0.0, 2022-02-27 11:51:40.291
72.0, -226.71374401017954, -2679.616532280032, -1948.4686194024825, -9046.533292118704, 184.8042231564788, 502.84719501104297, -4379.623160317321, -1454.9868053182133, -2248.5184369705244, -4170.276721748915, -3623.418941905373, -2584.554563111611, -2967.4846491199314, -1923.680534801547, -7860.348565620014, -14812.478698787536, 0.010374999999999999, -0.10825, 0.988875, 192.0, 0.0, 0.0, 0.0, 0.0, 0.0, 0.0, 0.0, 0.0, 0.0, 1.645923100299069E9, 0.0, 2022-02-27 11:51:40.299
74.0, -275.2840847115618, -2719.5590996216656, -2011.5675939998143, -9117.231859830841, 112.6974955436582, 419.0728567925521, -4476.048585897516, -1543.7455825502375, -2193.510793866014, -3973.3131496087494, -3406.3387997554305, -2333.119789733862, -2734.3112509621683, -1690.0377500102222, -7654.6231096533675, -14715.539183084868, 0.010374999999999999, -0.10825, 0.988875, 192.0, 0.0, 0.0, 0.0, 0.0, 0.0, 0.0, 0.0, 0.0, 0.0, 1.645923100307064E9, 0.0, 2022-02-27 11:51:40.307
76.0, -393.12248147994063, -2828.568557330198, -2134.636298970735, -9227.895346629066, -20.585956643337806, 311.1362828178743, -4571.155258554847, -1623.5189585112284, -2349.481266675147, -4214.935507170619, -3655.113715542998, -2600.1113772525046, -3001.9957425589255, -1953.7883345828457, -7906.013179542206, -14905.908990610718, 0.010187499999999999, -0.105125, 0.9884375, 192.0, 0.0, 40.0, 126.0, 104.0, 15.0, 112.0, 0.0, 0.0, 0.0, 1.645923100314149E9, 0.0, 2022-02-27 11:51:40.314
78.0, -124.3651061493285, -2575.479754862756, -1889.1247378736423, -8989.625750735493, 243.49990409611513, 545.8743030875091, -4339.47942727559, -1415.223051932222, -2100.393426465205, -3968.1051931506627, -3431.193939589732, -2364.166362782283, -2772.9574171253944, -1737.9375383779454, -7692.621075227389, -14662.09616209223, 0.010187499999999999, -0.105125, 0.9884375, 192.0, 0.0, 0.0, 0.0, 0.0, 0.0, 0.0, 0.0, 0.0, 0.0, 1.645923100328652E9, 0.0, 2022-02-27 11:51:40.328
80.0, -383.399472641882, -2827.316859640701, -2147.3991450547155, -9250.314146317738, -32.633546904748314, 289.1421662738522, -4588.343750040978, -1666.8366392656135, -2308.8457952553986, -4112.6315727986785, -3520.7797313666024, -2446.7784102890982, -2861.738546101874, -1816.9509550274558, -7774.8978465673745, -14846.810978270887, 0.010187499999999999, -0.105125, 0.9884375, 192.0, 0.0, 0.0, 0.0, 0.0, 0.0, 0.0, 0.0, 0.0, 0.0, 1.645923100336649E9, 0.0, 2022-02-27 11:51:40.336
82.0, -169.49327820459345, -2622.1501972854376, -1948.4686194024825, -9045.058076984653, 171.61669392784762, 495.15819491841734, -4398.10805298186, -1462.7428606442047, -2220.6905151236674, -4155.9492535530635, -3606.409264374884, -2556.2796063756477, -2965.852971774694, -1909.3083631167847, -7869.5574843356, -14810.757614464477, 0.010187499999999999, -0.105125, 0.9884375, 192.0, 0.0, 0.0, 0.0, 0.0, 0.0, 0.0, 0.0, 0.0, 0.0, 1.64592310034387E9, 0.0, 2022-02-27 11:51:40.343
84.0, -216.67781074974667, -2671.0781658981045, -2000.2799630498844, -9113.409711528982, 114.41857986671685, 423.7890748726219, -4481.591818522432, -1530.1333701769556, -2170.1979243991286, -3959.3656610686376, -3392.570125170961, -2315.8195395254543, -2737.9098818194725, -1686.4614708973731, -7657.841760854932, -14707.827831247787, 0.010187499999999999, -0.105125, 0.9884375, 192.0, 0.0, 0.0, 0.0, 0.0, 0.0, 0.0, 0.0, 0.0, 0.0, 1.645923100351281E9, 0.0, 2022-02-27 11:51:40.351
86.0, -351.88351295989906, -2791.732882467852, -2135.4409617711262, -9237.439541511481, -31.448904448617036, 305.0119048371202, -4549.474066433199, -1631.5208830262284, -2337.7018973472, -4212.0074286469735, -3643.4461049373276, -2588.7566910692085, -3006.7119606389956, -1953.00602352691, -7904.649723130432, -14912.882734880774, 0.01309375, -0.1045625, 0.98721875, 192.0, 0.0, 64.0, 126.0, 96.0, 15.0, 104.0, 0.0, 0.0, 0.0, 1.645923100359231E9, 0.0, 2022-02-27 11:51:40.359
88.0, -79.52750677198253, -2526.7976554390975, -1882.5756767482374, -8985.870657667001, 231.85464523490015, 550.9481490788638, -4343.569796510911, -1425.4377991482972, -2096.772443863445, -3957.219893600928, -3425.4942447536287, -2361.171229025272, -2783.1051091081035, -1732.1037330751103, -7691.727005449177, -14669.85221741822, 0.01309375, -0.1045625, 0.98721875, 192.0, 0.0, 0.0, 0.0, 0.0, 0.0, 0.0, 0.0, 0.0, 0.0, 1.64592310036897E9, 0.0, 2022-02-27 11:51:40.368
90.0, -344.75330647865616, -2784.1779928419583, -2139.799551939911, -9246.044963126775, -32.32062248237401, 292.87490759788847, -4583.828697661006, -1672.4469271238956, -2298.02755093903, -4091.933857433064, -3507.45809167124, -2423.823168733498, -2869.4498979389546, -1813.9111177815341, -7777.8929803243855, -14857.964498754085, 0.01309375, -0.1045625, 0.98721875, 192.0, 0.0, 0.0, 0.0, 0.0, 0.0, 0.0, 0.0, 0.0, 0.0, 1.645923100374853E9, 0.0, 2022-02-27 11:51:40.374
92.0, -131.45060914166083, -2570.9870542272397, -1943.417125155583, -9034.59746057957, 178.25516203107384, 511.78789279316584, -4380.427823117712, -1451.3434709719982, -2214.8343580763767, -4132.457570130536, -3600.0390172051216, -2545.7966382261084, -2968.602236342697, -1907.8331479827343, -7864.573045322067, -14813.97626566604, 0.01309375, -0.1045625, 0.98721875, 192.0, 0.0, 0.0, 0.0, 0.0, 0.0, 0.0, 0.0, 0.0, 0.0, 1.645923100380941E9, 0.0, 2022-02-27 11:51:40.380
94.0, -180.53503996551515, -2623.781874630675, -1995.9660763700101, -9103.70905443538, 123.06870497092069, 441.26813903667204, -4459.776515934052, -1536.4365621133522, -2154.8869794472434, -3930.6883729324786, -3379.38259594233, -2297.8710887278426, -2731.137303249515, -1668.4459648663958, -7648.588138650434, -14704.855049235231, 0.01309375, -0.1045625, 0.98721875, 192.0, 0.0, 0.0, 0.0, 0.0, 0.0, 0.0, 0.0, 0.0, 0.0, 1.64592310038897E9, 0.0, 2022-02-27 11:51:40.388
96.0, -321.70865794523456, -2754.606634927587, -2130.970612880065, -9227.247146039861, -25.34687821231821, 320.23344281118426, -4562.1475055393585, -1639.0757726521222, -2326.8165977974654, -4201.122129097239, -3632.0914187540316, -2571.4117373718905, -2999.6041059022077, -1938.9914797534325, -7897.720682349287, -14905.640769677255, 0.011546875, -0.10628125, 0.986609375, 192.0, 0.0, 40.0, 126.0, 80.0, 15.0, 104.0, 0.0, 0.0, 0.0, 1.645923100396114E9, 0.0, 2022-02-27 11:51:40.396
98.0, -42.91534935418956, -2497.718035902743, -1874.03731036631, -8976.572331973593, 241.44354360622688, 553.7197653913219, -4355.885607705785, -1428.7458573276826, -2079.6286558662246, -3938.869111403121, -3414.2289655481536, -2352.2528829876046, -2773.9855973703384, -1732.9530993644119, -7693.738662450155, -14665.985365627452, 0.011546875, -0.10628125, 0.986609375, 192.0, 0.0, 0.0, 0.0, 0.0, 0.0, 0.0, 0.0, 0.0, 0.0, 1.645923100403614E9, 0.0, 2022-02-27 11:51:40.403
100.0, -310.532785717581, -2754.807800627685, -2130.411819268682, -9239.697067701467, -30.331317225851684, 292.9196110867991, -4602.4700525367325, -1666.2331421653203, -2278.0003879070746, -4078.969845648986, -3490.2919519295638, -2417.3635145859143, -2856.240016965868, -1807.1161874671207, -7781.424555948324, -14851.46014111759, 0.011546875, -0.10628125, 0.986609375, 192.0, 0.0, 0.0, 0.0, 0.0, 0.0, 0.0, 0.0, 0.0, 0.0, 1.645923100411587E9, 0.0, 2022-02-27 11:51:40.411
102.0, -111.49050134307163, -2556.0560889310946, -1939.4608663869938, -9033.949259990366, 162.16190602325273, 502.8695467554983, -4396.342265169891, -1449.9800145602244, -2205.156052727229, -4140.325384178804, -3590.897153722901, -2540.879254445941, -2967.3952421421104, -1920.1489591776085, -7877.492353617234, -14820.435919813624, 0.011546875, -0.10628125, 0.986609375, 192.0, 0.0, 0.0, 0.0, 0.0, 0.0, 0.0, 0.0, 0.0, 0.0, 1.64592310041959E9, 0.0, 2022-02-27 11:51:40.419
104.0, -156.0151762980433, -2607.643915133943, -1984.2761140198845, -9093.494307219304, 118.24072816857436, 435.43433373383687, -4466.5043910151, -1549.5793878530728, -2144.314604319883, -3927.223852541906, -3364.585741112917, -2284.370635076837, -2730.2432334713026, -1677.9678080043566, -7657.238263754638, -14709.280694637382, 0.011546875, -0.10628125, 0.986609375, 192.0, 0.0, 0.0, 0.0, 0.0, 0.0, 0.0, 0.0, 0.0, 0.0, 1.645923100426287E9, 0.0, 2022-02-27 11:51:40.426
106.0, -306.2859542710727, -2738.714544619864, -2129.048362856908, -9224.430826238493, -25.615099145781894, 310.89041362886593, -4565.097935807459, -1651.011604191256, -2314.9701732361523, -4180.357358498259, -3614.4558923787945, -2551.9210162068625, -2988.338826696733, -1947.9098257910998, -7899.240600972248, -14921.555211729434, 0.014, -0.106, 0.988, 192.0, 0.0, 56.0, 126.0, 88.0, 15.0, 112.0, 0.0, 0.0, 0.0, 1.645923100434265E9, 0.0, 2022-02-27 11:51:40.434
108.0, -46.93866335614483, -2491.6830648998102, -1883.6262087376367, -8972.437259249362, 245.15393318580786, 562.9286841069083, -4330.561081237922, -1410.1715576853226, -2089.999865293487, -3948.815637685733, -3421.225061562665, -2342.596929382912, -2783.6862544639416, -1732.014326097289, -7697.04672062954, -14669.896920907131, 0.014, -0.106, 0.988, 192.0, 0.0, 0.0, 0.0, 0.0, 0.0, 0.0, 0.0, 0.0, 0.0, 1.645923100450572E9, 0.0, 2022-02-27 11:51:40.450
110.0, -315.80779740903347, -2751.3656319815677, -2140.179531595651, -9236.277250799805, -25.078657278854525, 309.34814326144976, -4574.306854523045, -1665.9649212318566, -2297.2228881386386, -4076.5335055033574, -3501.221954968209, -2407.394636558847, -2863.2584647248345, -1798.5107658518275, -7768.169971486327, -14848.196786427116, 0.014, -0.106, 0.988, 192.0, 0.0, 0.0, 0.0, 0.0, 0.0, 0.0, 0.0, 0.0, 0.0, 1.645923100455922E9, 0.0, 2022-02-27 11:51:40.455
112.0, -109.92587923120013, -2557.8218767430635, -1945.741706578935, -9037.257318169752, 171.77315613903477, 510.200918936839, -4387.692140065687, -1461.4241077213417, -2214.990820287564, -4128.233090428483, -3598.9437817268113, -2544.254367858692, -2966.4788206194426, -1917.869081243167, -7866.428240111857, -14822.201707625594, 0.014, -0.106, 0.988, 192.0, 0.0, 0.0, 0.0, 0.0, 0.0, 0.0, 0.0, 0.0, 0.0, 1.645923100463948E9, 0.0, 2022-02-27 11:51:40.463
114.0, -147.67797561621376, -2597.1385952399487, -1987.360654754717, -9092.51083046327, 122.1299317037978, 446.8784268949541, -4471.2206090951695, -1537.9788324807685, -2145.2310258425505, -3921.7923786392666, -3367.4020609142854, -2284.080062398918, -2730.802027082685, -1683.891020285013, -7647.917586316775, -14707.269037636404, 0.014, -0.106, 0.988, 192.0, 0.0, 0.0, 0.0, 0.0, 0.0, 0.0, 0.0, 0.0, 0.0, 1.645923100471888E9, 0.0, 2022-02-27 11:51:40.471
116.0, -304.43075948128217, -2745.822399356651, -2130.0988948463078, -9229.035285596286, -28.476122436061196, 315.8748526423994, -4551.619833900909, -1655.1913804043986, -2318.8370250269204, -4200.026893618929, -3619.082703481043, -2559.006519199195, -2993.2338587324452, -1951.7319740929574, -7893.183278224859, -14914.089729081361, 0.016, -0.108, 0.992, 192.0, 0.0, 64.0, 126.0, 80.0, 15.5, 0.0, 0.0, 0.0, 0.0, 1.645923100478864E9, 0.0, 2022-02-27 11:51:40.478
118.0, -39.2496632635192, -2488.822041609531, -1874.104365599676, -8978.494581996749, 250.16072394379665, 559.4418119718805, -4316.099502575338, -1412.451435619764, -2080.455670411071, -3949.977928397409, -3417.604078960905, -2351.9399585652304, -2778.746518939319, -1744.3301372921633, -7687.882505402864, -14668.891092406642, 0.016, -0.108, 0.992, 192.0, 0.0, 0.0, 0.0, 0.0, 0.0, 0.0, 0.0, 0.0, 0.0, 1.645923100486637E9, 0.0, 2022-02-27 11:51:40.486
120.0, -305.0789600704861, -2746.9846900683274, -2130.411819268682, -9238.512425245337, -18.730761853547317, 302.8214338805001, -4565.030880574093, -1646.2059791333652, -2287.611638022857, -4067.99513912143, -3496.9751235217004, -2419.3751715868916, -2848.9086447845275, -1815.9227747825116, -7755.183607957793, -14846.207481170593, 0.016, -0.108, 0.992, 192.0, 0.0, 0.0, 0.0, 0.0, 0.0, 0.0, 0.0, 0.0, 0.0, 1.645923100494515E9, 0.0, 2022-02-27 11:51:40.494
122.0, -114.95502173364423, -2557.3971935984127, -1947.261625201896, -9043.985193250799, 165.98405432511024, 497.37101761949276, -4393.280076179513, -1460.999424576691, -2217.538919155469, -4151.188331984083, -3601.5142323391715, -2548.523551049656, -2970.3009689213004, -1929.0002499819102, -7866.137667433938, -14819.787719224421, 0.016, -0.108, 0.992, 192.0, 0.0, 0.0, 0.0, 0.0, 0.0, 0.0, 0.0, 0.0, 0.0, 1.645923100501695E9, 0.0, 2022-02-27 11:51:40.501
124.0, -148.1697139942305, -2597.518574895689, -1979.4034337286275, -9092.779051396734, 132.3446789198731, 445.2467495497167, -4462.257559568591, -1551.6804518318716, -2144.448714786615, -3930.2189862989176, -3370.1513254822885, -2282.9401234316974, -2723.8953380459952, -1681.8346597951247, -7642.03907752503, -14708.43132834808, 0.016, -0.108, 0.992, 192.0, 0.0, 0.0, 0.0, 0.0, 0.0, 0.0, 0.0, 0.0, 0.0, 1.645923100508241E9, 0.0, 2022-02-27 11:51:40.508
126.0, -312.0303525960866, -2749.9798238253384, -2136.9832321385425, -9234.086779843186, -31.314793981885195, 300.72036990170125, -4573.725709167208, -1656.1972089048875, -2329.1411792208173, -4203.804338431876, -3622.9719070162664, -2556.391365097924, -2989.076434263758, -1965.38888995515, -7891.171621223882, -14919.923534384196, 0.014, -0.106, 0.988, 192.0, 0.0, 56.0, 126.0, 88.0, 15.0, 112.0, 0.0, 0.0, 0.0, 1.64592310051626E9, 0.0, 2022-02-27 11:51:40.516
128.0, -40.70252665311416, -2496.7345591467097, -1880.072281369243, -8974.784192417168, 246.33857564193914, 550.4340589563917, -4339.434723786679, -1436.0325260201128, -2094.22434499554, -3966.674681505523, -3425.3377825424413, -2351.470571931669, -2788.6930452219303, -1758.009404898811, -7700.511241020113, -14681.81040070181, 0.014, -0.106, 0.988, 192.0, 0.0, 0.0, 0.0, 0.0, 0.0, 0.0, 0.0, 0.0, 0.0, 1.645923100524281E9, 0.0, 2022-02-27 11:51:40.524
130.0, -313.10323632994135, -2756.0594983171823, -2139.9783658955535, -9237.618355467124, -27.62675614675953, 308.23055603868437, -4566.729613152696, -1654.0961449260885, -2296.2617631270605, -4082.7249387174775, -3497.2209927107087, -2405.517090024601, -2855.7482785878515, -1810.558356113238, -7763.0961254949725, -14844.50874859199, 0.014, -0.106, 0.988, 192.0, 0.0, 0.0, 0.0, 0.0, 0.0, 0.0, 0.0, 0.0, 0.0, 1.64592310053131E9, 0.0, 2022-02-27 11:51:40.531
132.0, -119.38066713579502, -2567.4778303477565, -1958.683366618558, -9049.662536342446, 161.80427811196782, 493.3477036175375, -4389.2791139220135, -1472.1529450598891, -2233.900396096754, -4157.647986131667, -3612.1983661888084, -2557.643062787421, -2981.6109516156857, -1933.1800261950525, -7874.541923349134, -14827.253201872492, 0.014, -0.106, 0.988, 192.0, 0.0, 0.0, 0.0, 0.0, 0.0, 0.0, 0.0, 0.0, 0.0, 1.645923100538883E9, 0.0, 2022-02-27 11:51:40.538
134.0, -147.1415337492864, -2602.7935865871414, -1986.1536605541303, -9093.024920585744, 126.6226323393145, 441.35754601449327, -4451.998108863605, -1549.2888151751538, -2153.2329503575506, -3936.8351026576884, -3374.9793022846347, -2296.8876119718093, -2728.4327421704224, -1687.310837186675, -7646.79999909401, -14706.91140972512, 0.014, -0.106, 0.988, 192.0, 0.0, 0.0, 0.0, 0.0, 0.0, 0.0, 0.0, 0.0, 0.0, 1.64592310054673E9, 0.0, 2022-02-27 11:51:40.546
136.0, -319.6746491998016, -2755.478352961344, -2142.8617409302883, -9238.087742100686, -41.39543073122868, 300.049817568042, -4564.539142196077, -1654.8337524931137, -2335.6678886017667, -4206.531251255423, -3629.8338925640455, -2570.2494466602143, -2995.312570966789, -1955.0623840167982, -7889.495240389734, -14915.564944215412, 0.012, -0.106, 0.986, 192.0, 0.0, 48.0, 126.0, 88.0, 15.0, 104.0, 0.0, 0.0, 0.0, 1.645923100554807E9, 0.0, 2022-02-27 11:51:40.554
138.0, -38.69086965213653, -2494.052349812073, -1877.5912377347038, -8981.154439586931, 243.11992444037492, 544.1755705089057, -4328.95175563714, -1434.289089952599, -2100.2146125095624, -3976.129469410118, -3434.636108235849, -2363.3840517263475, -2796.158527870003, -1755.885989175557, -7694.588028739457, -14675.149580854128, 0.012, -0.106, 0.986, 192.0, 0.0, 0.0, 0.0, 0.0, 0.0, 0.0, 0.0, 0.0, 0.0, 1.645923100561426E9, 0.0, 2022-02-27 11:51:40.561
140.0, -305.45893972622633, -2740.3015184761907, -2136.5585489938917, -9240.993468879875, -25.57039565687128, 293.14312853135215, -4576.251456290657, -1674.5703428471497, -2292.1937456361948, -4075.8629531696984, -3498.249172955653, -2414.010752917618, -2852.283758197279, -1821.845987063168, -7757.307023681048, -14844.151120680704, 0.012, -0.106, 0.986, 192.0, 0.0, 0.0, 0.0, 0.0, 0.0, 0.0, 0.0, 0.0, 0.0, 1.645923100576417E9, 0.0, 2022-02-27 11:51:40.576
142.0, -127.5390538619821, -2575.0550717181054, -1963.4442881875384, -9055.764562578746, 156.2610454870517, 471.91238068489804, -4388.4520993771675, -1481.026587608646, -2231.8216838624103, -4145.958023781541, -3614.8805755234453, -2558.4700773322675, -2982.594428371719, -1944.1100292336978, -7875.391289638435, -14827.36496059477, 0.012, -0.106, 0.986, 192.0, 0.0, 0.0, 0.0, 0.0, 0.0, 0.0, 0.0, 0.0, 0.0, 1.645923100584638E9, 0.0, 2022-02-27 11:51:40.584
144.0, -144.74989709256855, -2597.876202806974, -1979.0011023284321, -9084.71007164837, 138.20083596716356, 442.3857262594374, -4433.133236543326, -1539.699916803827, -2148.963767166587, -3936.3433642796713, -3373.995825528601, -2290.1597368907615, -2727.0916375031043, -1720.078494558155, -7639.982717035141, -14701.167011400106, 0.012, -0.106, 0.986, 192.0, 0.0, 0.0, 0.0, 0.0, 0.0, 0.0, 0.0, 0.0, 0.0, 1.645923100591218E9, 0.0, 2022-02-27 11:51:40.591
146.0, -315.3160590310167, -2752.863198860073, -2138.100819361308, -9239.026515367808, -37.50622719600525, 301.5473844465476, -4570.954092854749, -1659.818191506647, -2332.4268856557474, -4175.529381695912, -3620.9602500152887, -2559.9899959552286, -2993.3903209436326, -1940.198473954019, -7884.175525209371, -14912.90508662523, 0.01, -0.106, 0.988, 192.0, 0.0, 40.0, 126.0, 88.0, 15.0, 112.0, 0.0, 0.0, 0.0, 1.645923100599021E9, 0.0, 2022-02-27 11:51:40.599
148.0, -39.67434640817004, -2490.9901608216956, -1875.780746433824, -8977.153477329432, 241.89057849533305, 552.0433845571738, -4344.5756250114, -1433.8197033190374, -2096.9065543301767, -3986.0312922038192, -3433.160893101799, -2378.6726449337775, -2794.2362778468464, -1771.979245183378, -7704.109871877417, -14682.659766991112, 0.01, -0.106, 0.988, 192.0, 0.0, 0.0, 0.0, 0.0, 0.0, 0.0, 0.0, 0.0, 0.0, 1.645923100606998E9, 0.0, 2022-02-27 11:51:40.606
150.0, -307.87292812739946, -2742.7155068773636, -2130.054191357397, -9234.39970426556, -27.514997424482996, 291.243230252651, -4572.04932833306, -1686.014436008267, -2289.7574054905663, -4070.2750170558716, -3488.280294928586, -2411.3508953274363, -2845.734697071874, -1821.041324262777, -7752.970785256718, -14842.966478224575, 0.01, -0.106, 0.988, 192.0, 0.0, 0.0, 0.0, 0.0, 0.0, 0.0, 0.0, 0.0, 0.0, 1.6459231006143E9, 0.0, 2022-02-27 11:51:40.614
152.0, -127.5614056064374, -2568.7965832706195, -1958.10222126272, -9054.021126511232, 150.9413303066886, 474.0357964081522, -4395.068215735939, -1483.8205556655594, -2239.175407788206, -4156.686861120089, -3612.958325500289, -2563.007481456695, -2984.6507888616075, -1944.0429740003317, -7875.056013471605, -14833.869318231264, 0.01, -0.106, 0.988, 192.0, 0.0, 0.0, 0.0, 0.0, 0.0, 0.0, 0.0, 0.0, 0.0, 1.645923100621667E9, 0.0, 2022-02-27 11:51:40.621
154.0, -145.35339419286183, -2596.4903946507447, -1975.1566022821191, -9087.124060049542, 130.6682980857251, 438.0941913240184, -4437.313012756469, -1533.1285039339668, -2145.119267120274, -3925.1898437964733, -3367.513819636562, -2280.146155374784, -2720.5202246332437, -1691.3341511886301, -7638.373391434359, -14701.658749778122, 0.01, -0.106, 0.988, 192.0, 0.0, 0.0, 0.0, 0.0, 0.0, 0.0, 0.0, 0.0, 0.0, 1.645923100628666E9, 0.0, 2022-02-27 11:51:40.628
156.0, -314.06436134151954, -2748.392849969012, -2136.200921082607, -9238.132445589596, -44.27880576596329, 294.7077506432236, -4577.480802235699, -1662.9250839859349, -2333.566824622968, -4191.197954559083, -3616.8028255466015, -2553.8432662300193, -2987.310646451789, -1956.6940613620357, -7883.773193809176, -14914.246191292548, 0.014, -0.106, 0.986, 192.0, 0.0, 56.0, 126.0, 88.0, 15.0, 104.0, 0.0, 0.0, 0.0, 1.645923100636896E9, 0.0, 2022-02-27 11:51:40.636
158.0, -37.14859928472034, -2489.7384631321984, -1869.1199265861426, -8971.25261679323, 239.20836916069618, 551.618701412523, -4324.056723601428, -1418.9557932562582, -2091.609190894269, -3955.8564371891543, -3422.9684976301787, -2359.293682491026, -2787.93308591045, -1759.8422479441463, -7704.288685833059, -14678.032955888862, 0.014, -0.106, 0.986, 192.0, 0.0, 0.0, 0.0, 0.0, 0.0, 0.0, 0.0, 0.0, 0.0, 1.645923100643332E9, 0.0, 2022-02-27 11:51:40.643
160.0, -315.38311426438264, -2755.254835516791, -2123.7286476765453, -9229.907003630044, -29.23608174754164, 294.21601226520687, -4567.511924208632, -1672.6033893350827, -2283.074233898429, -4080.646226483134, -3477.0150157231114, -2398.8115666880094, -2839.8114847912175, -1810.1783764574977, -7754.647166090866, -14837.914983977675, 0.014, -0.106, 0.986, 192.0, 0.0, 0.0, 0.0, 0.0, 0.0, 0.0, 0.0, 0.0, 0.0, 1.645923100651379E9, 0.0, 2022-02-27 11:51:40.651
162.0, -167.28045550351806, -2614.885880337463, -1961.678500375569, -9060.659594614459, 144.25815871455177, 470.3254068285712, -4400.007951260562, -1492.24716332521, -2243.332832256893, -4168.153306025661, -3612.1536626998977, -2559.4312023438456, -2977.4535271469986, -1951.4861049039491, -7878.006443739706, -14835.545699065413, 0.014, -0.106, 0.986, 192.0, 0.0, 0.0, 0.0, 0.0, 0.0, 0.0, 0.0, 0.0, 0.0, 1.645923100659407E9, 0.0, 2022-02-27 11:51:40.659
164.0, -214.2414706041182, -2664.8643809395294, -1969.7474801239348, -9082.765469880756, 140.90539704625573, 452.68988045333396, -4421.532681171022, -1533.6649458008942, -2154.9316829361537, -3944.747620194867, -3375.359281940375, -2296.105300915873, -2716.6310210980205, -1693.14464248951, -7636.182920477739, -14695.333206097272, 0.014, -0.106, 0.986, 192.0, 0.0, 0.0, 0.0, 0.0, 0.0, 0.0, 0.0, 0.0, 0.0, 1.645923100666477E9, 0.0, 2022-02-27 11:51:40.666
166.0, -442.1622088148843, -2870.0086915503375, -2138.9725373950646, -9243.429809025503, -33.48291319404998, 300.8544803684331, -4567.087241063981, -1657.1359821720102, -2360.567731924979, -4216.410722304669, -3635.086552511043, -2569.288321648636, -2977.654692847096, -1948.8709508026782, -7877.17942919486, -14912.078072080383, 0.018000000000000002, -0.106, 0.992, 192.0, 0.0, 72.0, 126.0, 88.0, 15.5, 0.0, 0.0, 0.0, 0.0, 1.645923100675373E9, 0.0, 2022-02-27 11:51:40.675
168.0, -219.24826136210697, -2657.577712247099, -1873.7243859439357, -8977.73462268527, 253.93816875674355, 566.9967015977743, -4325.531938735478, -1417.9499647557695, -2132.378772780749, -4000.2470016773946, -3461.1676289042985, -2396.6434474758444, -2782.6580742189976, -1760.11046887761, -7694.073938616984, -14675.350746554226, 0.018000000000000002, -0.106, 0.992, 192.0, 0.0, 0.0, 0.0, 0.0, 0.0, 0.0, 0.0, 0.0, 0.0, 1.645923100681941E9, 0.0, 2022-02-27 11:51:40.681
170.0, -552.1774950239056, -2965.2941781633112, -2136.312679804883, -9233.125654831607, -14.126302495754064, 326.51428300312557, -4568.942435853772, -1655.9066362269684, -2360.4783249471575, -4118.24186065696, -3539.7787141536137, -2450.131171957394, -2841.0631824807147, -1798.6001728296487, -7745.550006097556, -14829.957762951586, 0.018000000000000002, -0.106, 0.992, 192.0, 0.0, 0.0, 0.0, 0.0, 0.0, 0.0, 0.0, 0.0, 0.0, 1.645923100696163E9, 0.0, 2022-02-27 11:51:40.696
172.0, -398.2186792157506, -2817.3256298691786, -1969.7027766350243, -9059.251434713773, 159.39028971079466, 500.5449653321464, -4391.626047089821, -1474.3881195054198, -2329.8117315544764, -4209.97341990154, -3678.3148262876066, -2616.3163919826025, -2984.9860650284368, -1936.0186977408766, -7874.810144282597, -14826.582649538834, 0.018000000000000002, -0.106, 0.992, 192.0, 0.0, 0.0, 0.0, 0.0, 0.0, 0.0, 0.0, 0.0, 0.0, 1.645923100703602E9, 0.0, 2022-02-27 11:51:40.703
174.0, -422.9173568388649, -2846.382897661078, -1982.6667884191024, -9086.699376904891, 154.87523733082264, 467.4643835382919, -4430.383971975323, -1519.2033671383103, -2231.598166417857, -3984.1537456695733, -3433.2726518240756, -2343.8039235834985, -2721.1460734779926, -1680.5829621056275, -7633.098379742906, -14688.80649671632, 0.018000000000000002, -0.10500000000000001, 0.992, 192.0, 0.0, 72.0, 126.0, 96.0, 15.5, 0.0, 0.0, 0.0, 0.0, 1.64592310071158E9, 0.0, 2022-02-27 11:51:40.711
176.0, -594.9810856558187, -2999.559402413297, -2152.227121857062, -9245.620279982124, -37.573282429371176, 314.8913758863659, -4560.962863083228, -1638.986365674301, -2435.6695932948105, -4234.090952168817, -3690.697692715847, -2612.918926825396, -2990.350483697711, -1941.8525030437117, -7874.296054160125, -14907.451260978134, 0.018000000000000002, -0.10500000000000001, 0.992, 192.0, 0.0, 0.0, 0.0, 0.0, 0.0, 0.0, 0.0, 0.0, 0.0, 1.645923100719576E9, 0.0, 2022-02-27 11:51:40.719
178.0, -301.72619840219005, -2718.9108990324617, -1881.391034292106, -8971.409079004417, 249.0654884654866, 568.0919370760843, -4321.150996822238, -1409.6351158183952, -2190.3591978978156, -4007.5560221142796, -3500.21612646772, -2423.376133844392, -2800.6959319944303, -1756.4894862758501, -7695.079767117473, -14671.796819185833, 0.018000000000000002, -0.10500000000000001, 0.992, 192.0, 0.0, 0.0, 0.0, 0.0, 0.0, 0.0, 0.0, 0.0, 0.0, 1.645923100726161E9, 0.0, 2022-02-27 11:51:40.726
180.0, -530.9880412802746, -2946.1610849095687, -2125.0697523438635, -9227.850643140155, -8.270145448463612, 326.08959985847474, -4571.758755655141, -1656.1972089048875, -2374.336406509448, -4104.182613394572, -3541.1421705653875, -2447.0466312225617, -2841.577272603187, -1787.3795971130846, -7740.297346150559, -14823.565164037367, 0.018000000000000002, -0.10500000000000001, 0.992, 192.0, 0.0, 0.0, 0.0, 0.0, 0.0, 0.0, 0.0, 0.0, 0.0, 1.645923100734309E9, 0.0, 2022-02-27 11:51:40.734
182.0, -337.9583761642428, -2769.2023240569024, -1965.970035310988, -9063.833542327111, 160.95491182266616, 483.46823256829174, -4390.2178871891365, -1470.118936314456, -2309.784568522521, -4208.967591401051, -3659.0699743115874, -2599.1726039853816, -2981.58859987123, -1943.5735873667704, -7872.2173419257815, -14829.153100151194, 0.018000000000000002, -0.10500000000000001, 0.992, 192.0, 0.0, 0.0, 0.0, 0.0, 0.0, 0.0, 0.0, 0.0, 0.0, 1.645923100742329E9, 0.0, 2022-02-27 11:51:40.742
184.0, -318.1100270879301, -2755.277187261246, -1969.3004452348287, -9084.71007164837, 163.25714150156278, 466.5703137600796, -4415.251840979081, -1511.7378844902378, -2195.7459683115444, -3962.3160913367383, -3401.8237473754584, -2321.6756965727445, -2713.5017768742773, -1687.2214302088537, -7624.761179061077, -14688.270054849394, 0.018000000000000002, -0.10650000000000001, 0.992, 192.0, 0.0, 72.0, 126.0, 80.0, 15.5, 0.0, 0.0, 0.0, 0.0, 1.645923100749177E9, 0.0, 2022-02-27 11:51:40.749
186.0, -467.64319749393434, -2894.2379825398903, -2139.1066478617963, -9239.562957234735, -20.16127349868697, 317.3053642875391, -4573.546895211565, -1643.5237697987284, -2379.1867350562497, -4217.774178716442, -3643.0884770260427, -2584.3981009004237, -2970.2562654323897, -1936.0186977408766, -7867.74699303472, -14906.445432477645, 0.018000000000000002, -0.10650000000000001, 0.992, 192.0, 0.0, 0.0, 0.0, 0.0, 0.0, 0.0, 0.0, 0.0, 0.0, 1.645923100755941E9, 0.0, 2022-02-27 11:51:40.755
188.0, -161.58076066741475, -2600.4466534193343, -1866.683586440514, -8971.297320282141, 261.51541012709265, 585.6157047290451, -4324.2355375570705, -1411.4903106081856, -2130.61298496878, -3994.4131963745594, -3455.4679340681955, -2389.9379241392526, -2791.151737112014, -1772.0910039056546, -7703.081691632473, -14680.7151652235, 0.018000000000000002, -0.10650000000000001, 0.992, 192.0, 0.0, 0.0, 0.0, 0.0, 0.0, 0.0, 0.0, 0.0, 0.0, 1.645923100764059E9, 0.0, 2022-02-27 11:51:40.764
190.0, -401.5490891395914, -2836.8387027786616, -2112.485720215526, -9223.49205297137, -1.1846424561312743, 324.01088762413116, -4561.991043328171, -1658.5664938171499, -2310.6115830673675, -4074.6336072246563, -3494.8740595429017, -2415.7094854962215, -2828.188577674458, -1797.683751306981, -7739.604442072445, -14835.79156825442, 0.018000000000000002, -0.10650000000000001, 0.992, 192.0, 0.0, 0.0, 0.0, 0.0, 0.0, 0.0, 0.0, 0.0, 0.0, 1.645923100771926E9, 0.0, 2022-02-27 11:51:40.771
192.0, -227.11607541037506, -2668.708880985842, -1959.7786020968679, -9057.597405624081, 153.10944951885338, 480.4060435779147, -4392.207192445659, -1485.1393085884224, -2259.1355155867955, -4179.865620120242, -3623.709514583292, -2569.8247635155635, -2973.2290474449455, -1940.1537704651084, -7871.859714014497, -14839.144329922716, 0.018000000000000002, -0.10650000000000001, 0.992, 192.0, 0.0, 0.0, 0.0, 0.0, 0.0, 0.0, 0.0, 0.0, 0.0, 1.645923100778385E9, 0.0, 2022-02-27 11:51:40.778
194.0, -206.9324501672328, -2652.3697557890127, -1959.2421602299405, -9075.478801188327, 159.45734494416058, 459.3059968121048, -4428.104094040882, -1535.8777685019695, -2148.7849532109444, -3928.58730895368, -3369.391366170808, -2284.661207754756, -2706.5056808597665, -1681.6558458394823, -7627.353981417893, -14693.589770029757, 0.018000000000000002, -0.10625000000000001, 0.992, 192.0, 0.0, 72.0, 126.0, 88.0, 15.5, 0.0, 0.0, 0.0, 0.0, 1.645923100786542E9, 0.0, 2022-02-27 11:51:40.786
196.0, -380.85137377397706, -2812.564708300198, -2136.6256042272576, -9242.133407847095, -34.06405854988796, 300.8991838573437, -4583.04638660507, -1649.6034442905718, -2338.953595036697, -4197.478794751024, -3609.6055638319926, -2551.161056895382, -2968.557532853786, -1938.81266579779, -7871.144458191927, -14913.396825003247, 0.018000000000000002, -0.10625000000000001, 0.992, 192.0, 0.0, 0.0, 0.0, 0.0, 0.0, 0.0, 0.0, 0.0, 0.0, 1.645923100794602E9, 0.0, 2022-02-27 11:51:40.794
198.0, -85.58482951937074, -2532.6761642308434, -1865.6554061955699, -8965.731735912768, 253.35702340090555, 568.9189516209307, -4330.76224693802, -1408.9869152291913, -2100.08050204283, -3972.776707741822, -3435.9548611587124, -2379.3879007563473, -2793.409263302, -1765.9666259249004, -7707.484985290169, -14682.43624954656, 0.018000000000000002, -0.10625000000000001, 0.992, 192.0, 0.0, 0.0, 0.0, 0.0, 0.0, 0.0, 0.0, 0.0, 0.0, 1.645923100801642E9, 0.0, 2022-02-27 11:51:40.801
200.0, -334.67266972931264, -2768.911751378984, -2109.7141039030676, -9219.15581454704, 1.6316773452374156, 315.338410775472, -4554.905540335839, -1658.1865141614098, -2285.7117397441557, -4060.1720285620727, -3472.1646871763096, -2397.716331209699, -2829.194406174947, -1794.979190227889, -7737.413971115825, -14831.254164129992, 0.018000000000000002, -0.10625000000000001, 0.992, 192.0, 0.0, 0.0, 0.0, 0.0, 0.0, 0.0, 0.0, 0.0, 0.0, 1.645923100809049E9, 0.0, 2022-02-27 11:51:40.809
202.0, -173.98597884011016, -2608.2474122342364, -1963.4666399319935, -9061.419553925938, 155.59049315339246, 474.95221793081976, -4408.479262409122, -1506.5522797766066, -2248.0937538258736, -4153.423506429614, -3612.1983661888084, -2562.135763422938, -2980.1357364816354, -1948.133343235653, -7878.051147228617, -14843.79349276942, 0.018000000000000002, -0.10625000000000001, 0.992, 192.0, 0.0, 0.0, 0.0, 0.0, 0.0, 0.0, 0.0, 0.0, 0.0, 1.645923100824226E9, 0.0, 2022-02-27 11:51:40.824
204.0, -151.9248070627221, -2591.2153829592926, -1951.1061252482089, -9063.31945220464, 166.25227525857395, 466.39149980443716, -4426.11478878436, -1517.2587653706987, -2131.0823716023415, -3908.3142767327163, -3354.9744909971346, -2274.3570535608596, -2707.667971571442, -1678.7501190602923, -7629.723266330156, -14686.772487970888, 0.017, -0.10512500000000001, 0.991, 192.0, 0.0, 64.0, 126.0, 96.0, 15.0, 120.0, 0.0, 0.0, 0.0, 1.64592310083119E9, 0.0, 2022-02-27 11:51:40.831
206.0, -338.83009419799976, -2764.9778443548494, -2132.9152146476763, -9236.165492077529, -30.577186414860062, 303.1567100473297, -4575.580903956999, -1646.407144833463, -2328.336516420426, -4173.562428183845, -3598.273229393152, -2525.9035856608853, -2965.0036054853927, -1922.6747063010582, -7868.037565712639, -14903.249133020538, 0.017, -0.10512500000000001, 0.991, 192.0, 0.0, 0.0, 0.0, 0.0, 0.0, 0.0, 0.0, 0.0, 0.0, 1.645923100838659E9, 0.0, 2022-02-27 11:51:40.838
208.0, -46.759849400502375, -2488.4197102093353, -1855.038327579299, -8965.798791146135, 267.28216019656185, 561.3417102505816, -4314.289011274459, -1424.1861014588, -2092.5926676503027, -3968.8204489732325, -3433.4067622908074, -2374.694034420733, -2796.918487181483, -1768.7829457262692, -7709.04960740204, -14681.855104190721, 0.017, -0.10512500000000001, 0.991, 192.0, 0.0, 0.0, 0.0, 0.0, 0.0, 0.0, 0.0, 0.0, 0.0, 1.645923100846867E9, 0.0, 2022-02-27 11:51:40.846
210.0, -294.6183436654024, -2730.9808410383275, -2095.0737112848415, -9217.30061975725, 10.57237512736024, 306.3306577599833, -4552.536255423576, -1674.4138806359626, -2263.3152917999378, -4050.7172406574778, -3458.619530036394, -2388.172136327283, -2814.799882745729, -1785.1220709230986, -7729.210880900727, -14827.432015828135, 0.017, -0.10512500000000001, 0.991, 192.0, 0.0, 0.0, 0.0, 0.0, 0.0, 0.0, 0.0, 0.0, 0.0, 1.645923100856111E9, 0.0, 2022-02-27 11:51:40.856
212.0, -144.8840075593004, -2583.8393072890412, -1953.743631093935, -9060.79370508119, 152.01421404054332, 469.4089853059036, -4410.222698476637, -1479.3949102634085, -2233.699230396656, -4151.34479419527, -3605.8728225079567, -2563.5886268125328, -2974.1678207120685, -1945.7864100678457, -7876.352414650013, -14844.151120680704, 0.017, -0.10512500000000001, 0.991, 192.0, 0.0, 0.0, 0.0, 0.0, 0.0, 0.0, 0.0, 0.0, 0.0, 1.645923100862152E9, 0.0, 2022-02-27 11:51:40.862
214.0, -120.23003342509669, -2565.0191384576724, -1939.840846042734, -9055.429286411916, 172.06372881695376, 473.8346307080544, -4423.0302480495275, -1520.4550648278075, -2115.8831853727324, -3910.8176721117106, -3344.938557736702, -2267.83034417991, -2699.86721275654, -1671.8657817680578, -7627.376333162348, -14683.24091234695, 0.0165, -0.1065625, 0.9915, 192.0, 0.0, 64.0, 126.0, 80.0, 15.5, 0.0, 0.0, 0.0, 0.0, 1.645923100869494E9, 0.0, 2022-02-27 11:51:40.869
216.0, -297.32290474449456, -2729.796198582196, -2120.0853133303303, -9227.895346629066, -27.827921846857294, 306.15184380434084, -4576.832601646495, -1673.8774387690353, -2309.538699333513, -4137.218491699516, -3583.699892008292, -2511.017323853651, -2954.498285591398, -1921.5347673338376, -7869.468077357778, -14908.479441223079, 0.0165, -0.1065625, 0.9915, 192.0, 0.0, 0.0, 0.0, 0.0, 0.0, 0.0, 0.0, 0.0, 0.0, 1.645923100876615E9, 0.0, 2022-02-27 11:51:40.876
218.0, -11.48879665002783, -2459.1612767173383, -1843.2813099958075, -8955.226416018775, 263.16943921678535, 578.0608151031513, -4323.1850055676705, -1419.3804764009092, -2070.9785307620205, -3949.1956173414733, -3415.5253667265615, -2352.476400432158, -2784.2673998197797, -1739.7480296788253, -7712.759996981621, -14681.586883257258, 0.0165, -0.1065625, 0.9915, 192.0, 0.0, 0.0, 0.0, 0.0, 0.0, 0.0, 0.0, 0.0, 0.0, 1.645923100883513E9, 0.0, 2022-02-27 11:51:40.883
220.0, -271.9983782766316, -2704.829300025618, -2091.586839149814, -9210.237468509373, -2.145767467709478, 325.2849370580837, -4575.737366168185, -1652.3750606030299, -2252.8099719059437, -4021.704676354489, -3448.963576431701, -2374.7163861651884, -2810.5306995547653, -1790.9335244814783, -7737.413971115825, -14828.035512928429, 0.0165, -0.1065625, 0.9915, 192.0, 0.0, 0.0, 0.0, 0.0, 0.0, 0.0, 0.0, 0.0, 0.0, 1.645923100891174E9, 0.0, 2022-02-27 11:51:40.891
222.0, -134.2222254541189, -2572.574028083566, -1957.8340003292562, -9058.893806802489, 139.49723714557138, 462.7481654582221, -4417.710532869164, -1502.3948553079194, -2230.5476344284575, -4155.390459941681, -3601.2013079167973, -2549.9987661837063, -2981.5215446378643, -1951.2849392038513, -7887.595342111033, -14846.140425937228, 0.0165, -0.1065625, 0.9915, 192.0, 0.0, 0.0, 0.0, 0.0, 0.0, 0.0, 0.0, 0.0, 0.0, 1.645923100899188E9, 0.0, 2022-02-27 11:51:40.899
224.0, -112.78690252147943, -2560.526437822156, -1940.645508843125, -9055.69750734538, 153.64589138578074, 466.99499690473044, -4439.101152312894, -1533.3073178896093, -2116.5537377063915, -3916.852643114644, -3347.33019439342, -2263.5835127334017, -2708.025599482727, -1680.0912237276107, -7637.166397233773, -14690.52758103938, 0.013250000000000001, -0.10728125, 0.98875, 192.0, 0.0, 40.0, 126.0, 80.0, 15.0, 104.0, 0.0, 0.0, 0.0, 1.645923100906984E9, 0.0, 2022-02-27 11:51:40.906
226.0, -299.3569134899275, -2731.4055241829783, -2127.8413686563217, -9230.599907708158, -39.54023594143819, 295.73593088816773, -4595.608066988953, -1679.4430231384067, -2314.0984552023956, -4166.096945535773, -3586.337397854018, -2518.236937312715, -2958.5886548267194, -1919.9030899886002, -7875.41364138289, -14911.228705791082, 0.013250000000000001, -0.10728125, 0.98875, 192.0, 0.0, 0.0, 0.0, 0.0, 0.0, 0.0, 0.0, 0.0, 0.0, 1.645923100913652E9, 0.0, 2022-02-27 11:51:40.913
228.0, -2.190470956620092, -2449.7064888127434, -1848.4669147094387, -8953.885311351456, 257.38033740286085, 584.7663384397433, -4338.0936191193605, -1421.5709473575291, -2076.1641354756516, -3952.63778598759, -3424.778988931059, -2359.0031098131076, -2791.442309789933, -1755.4613060309061, -7721.968915697207, -14684.961996670008, 0.013250000000000001, -0.10728125, 0.98875, 192.0, 0.0, 0.0, 0.0, 0.0, 0.0, 0.0, 0.0, 0.0, 0.0, 1.645923100921838E9, 0.0, 2022-02-27 11:51:40.921
230.0, -253.04409897853125, -2686.6349800389985, -2089.329312959828, -9199.016892792808, 6.4373024031284345, 325.888434158377, -4575.044462090071, -1667.7307090438258, -2240.695326411167, -4001.0293127333302, -3437.3406693149414, -2352.0293655430514, -2797.320818581679, -1769.4534980599283, -7735.134093181383, -14818.916001190664, 0.013250000000000001, -0.10728125, 0.98875, 192.0, 0.0, 0.0, 0.0, 0.0, 0.0, 0.0, 0.0, 0.0, 0.0, 1.645923100929775E9, 0.0, 2022-02-27 11:51:40.929
232.0, -124.00747823804359, -2558.6935947768206, -1963.1984189985299, -9058.916158546945, 127.04731548396535, 461.87644742446514, -4432.663849909764, -1516.2305851257545, -2226.5243204265025, -4130.915299763119, -3595.792185758613, -2539.672260245354, -2971.150335210602, -1945.875817045667, -7887.9529700223175, -14849.001449227508, 0.013250000000000001, -0.10728125, 0.98875, 192.0, 0.0, 0.0, 0.0, 0.0, 0.0, 0.0, 0.0, 0.0, 0.0, 1.645923100943187E9, 0.0, 2022-02-27 11:51:40.943
234.0, -95.55370754643769, -2539.582853267533, -1932.0847907167424, -9046.421533396428, 164.30767349096223, 479.2884563551493, -4431.792131876008, -1529.9098527324024, -2103.2320980110285, -3898.814785339211, -3335.0143831985456, -2253.5475794729687, -2700.0683784566377, -1671.0611189676665, -7637.278155956049, -14682.682118735567, 0.013625000000000002, -0.10664062499999999, 0.988375, 192.0, 0.0, 56.0, 126.0, 88.0, 15.0, 112.0, 0.0, 0.0, 0.0, 1.645923100951697E9, 0.0, 2022-02-27 11:51:40.951
236.0, -299.6921896567571, -2734.5571201511766, -2129.8753774017546, -9235.807864166245, -28.61023290279304, 303.71550365871235, -4606.560421772054, -1679.241857438309, -2308.801091766488, -4158.9443873100745, -3575.496801793194, -2510.1903093088044, -2953.850085002194, -1923.2782034013514, -7873.111411703994, -14909.306455767924, 0.013625000000000002, -0.10664062499999999, 0.988375, 192.0, 0.0, 0.0, 0.0, 0.0, 0.0, 0.0, 0.0, 0.0, 0.0, 1.645923100959294E9, 0.0, 2022-02-27 11:51:40.959
238.0, -12.293459450418885, -2461.7764308186092, -1854.233664778908, -8960.076744565577, 264.91287528429933, 577.457318002858, -4316.501833975534, -1412.0044007306578, -2083.808432079367, -3969.1780768845174, -3429.2046343332095, -2369.7990023850207, -2793.118690624081, -1769.7664224823027, -7722.14772965285, -14686.258397848416, 0.013625000000000002, -0.10664062499999999, 0.988375, 192.0, 0.0, 0.0, 0.0, 0.0, 0.0, 0.0, 0.0, 0.0, 0.0, 1.645923100966441E9, 0.0, 2022-02-27 11:51:40.966
240.0, -253.13350595635248, -2693.742834775786, -2092.3915019502047, -9207.756424874833, 4.760921568980405, 318.6688206993128, -4585.058043606048, -1688.0931482426106, -2256.766230674533, -4030.9582985589864, -3449.2765008540755, -2365.6415779163335, -2805.121577396581, -1779.8694109761013, -7735.178796670294, -14823.140480892716, 0.013625000000000002, -0.10664062499999999, 0.988375, 192.0, 0.0, 0.0, 0.0, 0.0, 0.0, 0.0, 0.0, 0.0, 0.0, 1.645923100973968E9, 0.0, 2022-02-27 11:51:40.973
242.0, -136.92678653321107, -2577.5361153526446, -1970.0157010573985, -9073.489495931804, 127.44964688416087, 470.0348341506522, -4435.390762733312, -1505.7476169762156, -2233.2968989964606, -4148.886102305187, -3602.922392239856, -2550.9375394508293, -2975.73244282394, -1957.5657793957926, -7892.669188102387, -14854.052943474406, 0.013625000000000002, -0.10664062499999999, 0.988375, 192.0, 0.0, 0.0, 0.0, 0.0, 0.0, 0.0, 0.0, 0.0, 0.0, 1.645923100982067E9, 0.0, 2022-02-27 11:51:40.982
244.0, -95.21843137960809, -2543.650870758399, -1931.7048110610024, -9048.679059586413, 170.186182282708, 483.6023430350236, -4424.773684117042, -1513.3025066021094, -2112.508071959981, -3910.7729686228004, -3343.37393562483, -2266.377480790315, -2703.778768036219, -1681.8346597951247, -7634.126559987851, -14679.284653578361, 0.013812500000000002, -0.10732031249999999, 0.9881875, 192.0, 0.0, 56.0, 126.0, 80.0, 15.0, 112.0, 0.0, 0.0, 0.0, 1.645923100989011E9, 0.0, 2022-02-27 11:51:40.989
246.0, -299.93805884576545, -2732.791332339207, -2128.5342727344364, -9235.696105443967, -35.06988705037678, 308.09644557195253, -4584.81217441704, -1679.1300987160325, -2314.701952302689, -4163.034756545396, -3577.597865771993, -2509.0280185971283, -2951.301986134289, -1918.7407992769242, -7867.9928622237285, -14903.89733360974, 0.013812500000000002, -0.10732031249999999, 0.9881875, 192.0, 0.0, 0.0, 0.0, 0.0, 0.0, 0.0, 0.0, 0.0, 0.0, 1.645923100995582E9, 0.0, 2022-02-27 11:51:40.995
