%OpenBCI Raw EEG Data
%Number of channels = 16
%Sample Rate = 125 Hz
%Board = OpenBCI_GUI$BoardCytonSerialDaisy
Sample Index, EXG Channel 0, EXG Channel 1, EXG Channel 2, EXG Channel 3, EXG Channel 4, EXG Channel 5, EXG Channel 6, EXG Channel 7, EXG Channel 8, EXG Channel 9, EXG Channel 10, EXG Channel 11, EXG Channel 12, EXG Channel 13, EXG Channel 14, EXG Channel 15, Accel Channel 0, Accel Channel 1, Accel Channel 2, Other, Other, Other, Other, Other, Other, Other, Analog Channel 0, Analog Channel 1, Analog Channel 2, Timestamp, Other, Timestamp (Formatted)
72.0, -709.4220172669909, -3235.9514517726248, -2314.4560831136805, -9531.83436773233, -84.71311148561377, 208.1617961122747, -4912.242878942833, -1747.8170094271911, -2741.128533021037, -4657.567102619065, -3650.7104218853024, -2693.8545934980625, -3159.173209568645, -1995.5637449698145, -8156.620938375108, -15161.165912290326, 0.0, 0.0, 0.0, 192.0, 0.0, 0.0, 0.0, 0.0, 0.0, 0.0, 0.0, 0.0, 0.0, 1.645922897267859E9, 0.0, 2022-02-27 11:48:17.267
74.0, -553.4962479467688, -3143.102305305279, -2210.2969539519495, -9399.824964979287, 73.1125561133094, 268.22093346368473, -4843.175988575935, -1641.7356302423038, -1790.7770622702913, -4260.264844925981, -3617.8757092804562, -2648.547607487155, -3145.426886728631, -1944.6911745895356, -8009.412349392456, -14715.919162740609, 0.0, 0.0, 0.0, 192.0, 0.0, 0.0, 0.0, 0.0, 0.0, 0.0, 0.0, 0.0, 0.0, 1.645922897267861E9, 0.0, 2022-02-27 11:48:17.267
0.0, -228.72540101115717, -1476.1986108062997, -1091.3015712859121, -4667.290111457123, 42.133038298253815, 176.77994689702356, -2404.175985357283, -804.7522073688755, -1451.410526205364, -2282.8507164538764, -1786.0831959346767, -1371.257170588633, -1539.4316958703632, -977.9335234085946, -4093.297313844838, -7543.11025656584, 0.014, -0.106, 0.998, 192.0, 0.0, 56.0, 126.0, 88.0, 15.5, 24.0, 0.0, 0.0, 0.0, 1.645922897363581E9, 0.0, 2022-02-27 11:48:17.363
2.0, -428.34883074150457, -2936.594538282697, -2153.7246887355673, -9313.36841742616, 117.61487932382576, 363.9758067102202, -4806.183851502401, -1611.4937199942733, -2288.0363211675076, -4252.0394029664285, -3503.859460813935, -2483.725843873721, -3020.1230073121797, -1820.8625103071345, -7981.651482778965, -14826.493242561013, 0.014, -0.106, 0.998, 192.0, 0.0, 0.0, 0.0, 0.0, 0.0, 0.0, 0.0, 0.0, 0.0, 1.645922897369685E9, 0.0, 2022-02-27 11:48:17.369
4.0, -654.6602433514886, -3159.7990584133936, -2382.070110090984, -9534.494225322513, -109.70236178664706, 136.74797257756862, -5025.365057631142, -1840.8673215946344, -2585.135708467449, -4478.88725744334, -3670.670529683892, -2667.032500151694, -3194.0642826633793, -1998.7823961713789, -8161.404211688544, -15059.890158163329, 0.014, -0.106, 0.998, 192.0, 0.0, 0.0, 0.0, 0.0, 0.0, 0.0, 0.0, 0.0, 0.0, 1.64592289737757E9, 0.0, 2022-02-27 11:48:17.377
6.0, -417.61999340295716, -2926.6703637445407, -2141.5876914963355, -9300.002074241886, 130.91416727473347, 378.01270222815305, -4782.982740757792, -1596.6745134204048, -2438.8658927519195, -4423.566689916455, -3650.2633869961965, -2658.963520403328, -3172.8524771752927, -1980.4763174624823, -8145.80269405874, -14942.945831173163, 0.015, -0.107, 0.997, 192.0, 0.0, 64.0, 126.0, 80.0, 15.5, 16.0, 0.0, 0.0, 0.0, 1.645922897385669E9, 0.0, 2022-02-27 11:48:17.385
8.0, -557.9442450933749, -3067.46400206852, -2288.7515769900774, -9443.634384111689, -11.958183283589278, 225.6855637652354, -4927.64323087254, -1740.5079889903056, -2407.6181540034004, -4314.691342674654, -3537.2529670301637, -2522.327306548036, -3059.2832635978775, -1849.4503914654722, -8015.894355284496, -14920.191755317659, 0.015, -0.107, 0.997, 192.0, 0.0, 0.0, 0.0, 0.0, 0.0, 0.0, 0.0, 0.0, 0.0, 1.645922897392269E9, 0.0, 2022-02-27 11:48:17.392
10.0, -574.5292394792127, -3073.0966416712577, -2302.609658552368, -9448.238843469482, -31.29244223742989, 228.74775275561248, -4896.887230502037, -1728.6392126845376, -2618.484511194767, -4550.837522844973, -3758.557588882159, -2764.419050743467, -3286.1534698192445, -2090.4916036715035, -8254.968613978459, -15080.900797951317, 0.015, -0.107, 0.997, 192.0, 0.0, 0.0, 0.0, 0.0, 0.0, 0.0, 0.0, 0.0, 0.0, 1.645922897400292E9, 0.0, 2022-02-27 11:48:17.400
12.0, -422.5820806720353, -2936.214558626957, -2155.825752714366, -9314.284838948828, 132.5458446199709, 355.88447521739903, -4791.90108679546, -1610.8008159161589, -2292.0372834250074, -4233.487455068524, -3504.0159230251224, -2484.8210793520307, -3021.93349861306, -1830.8313883342014, -7978.030500177205, -14820.055940157885, 0.015, -0.107, 0.997, 192.0, 0.0, 0.0, 0.0, 0.0, 0.0, 0.0, 0.0, 0.0, 0.0, 1.645922897408202E9, 0.0, 2022-02-27 11:48:17.408
14.0, -655.8895892965304, -3162.5483229813963, -2384.439395003247, -9538.6516497912, -105.3661233623175, 134.93748127668874, -5009.8976504680695, -1831.5019406678607, -2578.430185130857, -4477.054414398005, -3669.0612040831097, -2663.970311161317, -3191.7844047289377, -1997.6871606930688, -8160.398383188056, -15052.469379004167, 0.015, -0.107, 0.997, 192.0, 0.0, 0.0, 0.0, 0.0, 0.0, 0.0, 0.0, 0.0, 0.0, 1.645922897414849E9, 0.0, 2022-02-27 11:48:17.414
16.0, -408.70164736528966, -2919.406046796566, -2137.6314327277464, -9298.12452770764, 140.16778947923058, 386.0369784876083, -4765.771897527206, -1574.8815625764803, -2429.634622291878, -4419.766893359053, -3646.1953695053307, -2655.901331412951, -3161.877770647737, -1983.6726169195913, -8136.392609643056, -14930.182985089183, 0.0135, -0.1075, 0.9964999999999999, 192.0, 0.0, 48.0, 126.0, 80.0, 15.5, 16.0, 0.0, 0.0, 0.0, 1.645922897429814E9, 0.0, 2022-02-27 11:48:17.429
18.0, -550.9034455899532, -3066.7487462459503, -2285.398815321781, -9450.183445237095, 1.072883733854739, 220.8575869628891, -4925.653925616018, -1746.6100152266044, -2409.2274796041825, -4316.144206064249, -3532.559100694549, -2520.2262425692375, -3045.3581268022212, -1850.8585513661567, -8009.904087770473, -14915.341426770858, 0.0135, -0.1075, 0.9964999999999999, 192.0, 0.0, 0.0, 0.0, 0.0, 0.0, 0.0, 0.0, 0.0, 0.0, 1.645922897437866E9, 0.0, 2022-02-27 11:48:17.437
20.0, -573.3669487675368, -3077.298769628855, -2301.0897399294067, -9457.179541251606, -22.821131088868512, 219.09179915091983, -4911.2594021868, -1713.238860754831, -2605.2969819661357, -4556.179589769792, -3756.635338859003, -2766.7883356557295, -3279.872629627303, -2098.068845041853, -8248.151331919591, -15078.307995594501, 0.0135, -0.1075, 0.9964999999999999, 192.0, 0.0, 0.0, 0.0, 0.0, 0.0, 0.0, 0.0, 0.0, 0.0, 1.645922897445861E9, 0.0, 2022-02-27 11:48:17.445
22.0, -424.7054963952895, -2939.589672039708, -2149.1649328666845, -9320.118644251663, 139.63134761230322, 348.597806524969, -4788.123641982513, -1608.4091792594409, -2296.8429084828986, -4264.355214161303, -3505.3346759479855, -2500.690817915299, -3012.12108279718, -1840.8673215946344, -7974.253055364258, -14821.665265758666, 0.0135, -0.1075, 0.9964999999999999, 192.0, 0.0, 0.0, 0.0, 0.0, 0.0, 0.0, 0.0, 0.0, 0.0, 1.645922897452607E9, 0.0, 2022-02-27 11:48:17.452
24.0, -654.2802636957483, -3161.72130843655, -2388.6638747053, -9541.490321337023, -104.80732975093481, 133.9093010317446, -5013.5409848142845, -1823.3882574305842, -2573.8927810064297, -4480.4965830441215, -3670.2234947947854, -2670.6981862423645, -3187.939904682625, -2001.2634398059179, -8152.70938309543, -15053.788131927031, 0.0135, -0.1075, 0.9964999999999999, 192.0, 0.0, 0.0, 0.0, 0.0, 0.0, 0.0, 0.0, 0.0, 0.0, 1.645922897460393E9, 0.0, 2022-02-27 11:48:17.460
26.0, -406.19825198629525, -2914.667476972041, -2141.2971188184165, -9299.532687608325, 140.14543773477527, 381.11959470744074, -4779.629979089496, -1575.3285974655864, -2423.532596055579, -4415.408303190267, -3650.732773629758, -2659.678776225898, -3167.488058506019, -1994.1108815802195, -8142.695801579453, -14933.848671179852, 0.01475, -0.10675, 0.99425, 192.0, 0.0, 64.0, 126.0, 88.0, 15.5, 0.0, 0.0, 0.0, 0.0, 1.645922897467699E9, 0.0, 2022-02-27 11:48:17.467
28.0, -541.7839338521879, -3055.595225762752, -2276.279303584016, -9449.021154525419, 15.869738563268015, 226.15495039879687, -4909.560669608196, -1757.5400182652497, -2408.0204854035956, -4310.735083906065, -3531.50856870515, -2518.6392687129105, -3043.100600612235, -1843.6612896515478, -8004.025578978727, -14907.250095278037, 0.01475, -0.10675, 0.99425, 192.0, 0.0, 0.0, 0.0, 0.0, 0.0, 0.0, 0.0, 0.0, 0.0, 1.645922897475198E9, 0.0, 2022-02-27 11:48:17.475
30.0, -576.6750069469222, -3077.946970218059, -2300.4638910846584, -9463.30391923236, -19.915404309678593, 228.21131088868512, -4916.8026348117155, -1719.430293968951, -2596.266877206192, -4517.287554417558, -3752.701431834869, -2767.034204844738, -3263.4217457081972, -2101.51101368797, -8240.01529693786, -15081.861922962897, 0.01475, -0.10675, 0.99425, 192.0, 0.0, 0.0, 0.0, 0.0, 0.0, 0.0, 0.0, 0.0, 0.0, 1.645922897482128E9, 0.0, 2022-02-27 11:48:17.482
32.0, -420.1233887819516, -2938.6732505170407, -2149.0308223999527, -9316.02827501634, 139.72075459012444, 370.39075736889333, -4816.577412674119, -1585.4986411927512, -2305.6494957982895, -4278.637978868243, -3506.184042237287, -2501.2496115266817, -3013.2833735088557, -1837.5816151597041, -7973.649558263965, -14810.288227830915, 0.01475, -0.10675, 0.99425, 192.0, 0.0, 0.0, 0.0, 0.0, 0.0, 0.0, 0.0, 0.0, 0.0, 1.645922897490188E9, 0.0, 2022-02-27 11:48:17.490
34.0, -659.5329236427455, -3170.5502474963964, -2391.591953228945, -9549.201673174104, -114.8879665002783, 135.1609987212418, -5017.296077882776, -1806.2891729222742, -2576.3514728965133, -4489.526687804066, -3668.435355238361, -2666.2725408402134, -3187.626980260251, -2001.2634398059179, -8159.481961665388, -15049.496596991612, 0.01475, -0.10675, 0.99425, 192.0, 0.0, 0.0, 0.0, 0.0, 0.0, 0.0, 0.0, 0.0, 0.0, 1.645922897497399E9, 0.0, 2022-02-27 11:48:17.497
36.0, -408.433426431826, -2922.5576427647643, -2137.2961565609166, -9299.711501563967, 149.93550180619977, 384.60646684246865, -4753.366679354511, -1555.055565244623, -2439.9387764857743, -4430.294564997503, -3660.0310993231656, -2669.647654252965, -3176.272294076955, -1999.1400240826638, -8135.543243353754, -14921.778729173986, 0.015375, -0.104375, 0.9921249999999999, 192.0, 0.0, 64.0, 126.0, 104.0, 15.0, 120.0, 0.0, 0.0, 0.0, 1.645922897504858E9, 0.0, 2022-02-27 11:48:17.504
38.0, -547.3718699660146, -3066.905208457137, -2278.2239053516278, -9448.01532602493, 17.81434033087973, 237.82256100446713, -4923.977544781869, -1717.105712545599, -2420.9397936987634, -4304.789519880953, -3530.547443693572, -2517.6334402124216, -3042.0947721117464, -1857.139391558098, -7998.236477164803, -14904.90316211023, 0.015375, -0.104375, 0.9921249999999999, 192.0, 0.0, 0.0, 0.0, 0.0, 0.0, 0.0, 0.0, 0.0, 0.0, 1.64592289751271E9, 0.0, 2022-02-27 11:48:17.512
40.0, -553.1609717799391, -3068.7156997580173, -2293.7807194925213, -9454.340869705782, -5.967915769566986, 237.88961623783308, -4917.2720214452775, -1702.9123548164791, -2591.4389004038458, -4552.290386234568, -3751.0026992562653, -2762.8991321205062, -3270.2390277670656, -2096.2360019965176, -8244.083314428724, -15066.707440222197, 0.015375, -0.104375, 0.9921249999999999, 192.0, 0.0, 0.0, 0.0, 0.0, 0.0, 0.0, 0.0, 0.0, 0.0, 1.64592289751991E9, 0.0, 2022-02-27 11:48:17.519
42.0, -420.5480719266024, -2933.599404525686, -2144.001679897509, -9308.495737134903, 148.28147271650707, 368.82613525702186, -4766.04011846067, -1581.6764928908938, -2293.6466090257895, -4255.749792546009, -3491.7001118302483, -2483.614085151444, -3004.2979722378223, -1820.3931236735732, -7967.614587261032, -14805.594361495301, 0.015375, -0.104375, 0.9921249999999999, 192.0, 0.0, 0.0, 0.0, 0.0, 0.0, 0.0, 0.0, 0.0, 0.0, 1.645922897527469E9, 0.0, 2022-02-27 11:48:17.527
44.0, -670.41822319248, -3178.239247589022, -2387.725101438177, -9547.145312684217, -108.04833269695435, 134.57985336540384, -5020.4029703620645, -1827.880958066101, -2588.868449791485, -4481.770632478075, -3670.8716953839894, -2664.3726425615123, -3186.9564279265915, -1994.937896125066, -8148.663717349019, -15043.662791688776, 0.015375, -0.104375, 0.9921249999999999, 192.0, 0.0, 0.0, 0.0, 0.0, 0.0, 0.0, 0.0, 0.0, 0.0, 1.64592289753537E9, 0.0, 2022-02-27 11:48:17.535
46.0, -438.18359830183965, -2953.6936227910073, -2138.3466885503162, -9305.902934778087, 149.80139133946793, 384.24883893118374, -4748.739868252262, -1559.1235827354888, -2449.1253434569053, -4436.106018555882, -3665.44022148135, -2675.9731979338167, -3173.2771603199435, -2000.6822944500798, -8139.99124050036, -14930.317095555914, 0.0146875, -0.1011875, 0.9910625, 192.0, 0.0, 56.0, 126.0, 120.0, 15.0, 120.0, 0.0, 0.0, 0.0, 1.645922897549481E9, 0.0, 2022-02-27 11:48:17.549
48.0, -566.0579283306514, -3084.0936999432683, -2273.597094249379, -9444.349639934258, 17.143787997220517, 236.3920493593275, -4918.858995301604, -1744.1289715920655, -2429.0311251915846, -4330.650488215743, -3532.872025116924, -2528.3399258065137, -3036.3950772756434, -1857.7205369139358, -7996.180116674915, -14910.692263924155, 0.0146875, -0.1011875, 0.9910625, 192.0, 0.0, 0.0, 0.0, 0.0, 0.0, 0.0, 0.0, 0.0, 0.0, 1.645922897556925E9, 0.0, 2022-02-27 11:48:17.556
50.0, -600.6584287474667, -3107.4736246435195, -2306.7447312765994, -9464.130933777205, -23.312869466885267, 230.3347266119393, -4941.344850223643, -1692.4740901558507, -2598.7032173518205, -4558.23595025968, -3754.7354405803017, -2771.4374985024333, -3264.3828707197754, -2103.388560222216, -8244.195073151002, -15076.385745571346, 0.0146875, -0.1011875, 0.9910625, 192.0, 0.0, 0.0, 0.0, 0.0, 0.0, 0.0, 0.0, 0.0, 0.0, 1.64592289756518E9, 0.0, 2022-02-27 11:48:17.565
52.0, -434.38380174443745, -2957.783992026328, -2141.1406566072296, -9309.926248780042, 153.75765010805728, 375.4422516157927, -4774.980816242793, -1582.279989991187, -2310.0080859670743, -4271.485420642545, -3504.842937569969, -2501.9872190937067, -3002.398073959121, -1832.7089348684474, -7973.493096052778, -14810.891724931209, 0.0146875, -0.1011875, 0.9910625, 192.0, 0.0, 0.0, 0.0, 0.0, 0.0, 0.0, 0.0, 0.0, 0.0, 1.645922897573089E9, 0.0, 2022-02-27 11:48:17.573
54.0, -685.9079821000079, -3196.7688437424713, -2393.2459823186377, -9550.69924005261, -105.09790242885381, 132.07645798640942, -5006.455481821952, -1798.6672280630146, -2578.4078333864013, -4484.430490068256, -3669.7094046723137, -2668.261846096736, -3169.6785294626393, -1998.9612101270213, -8140.438275389466, -15046.568518467966, 0.0146875, -0.1011875, 0.9910625, 192.0, 0.0, 0.0, 0.0, 0.0, 0.0, 0.0, 0.0, 0.0, 0.0, 1.645922897579714E9, 0.0, 2022-02-27 11:48:17.579
56.0, -426.47128420725875, -2943.054192430281, -2134.5915954818247, -9295.732891050922, 159.09971703287567, 393.3012954355831, -4764.4754963487985, -1543.3879546389526, -2428.561738558023, -4429.534605686022, -3655.7842678766574, -2677.2472473677694, -3158.8602851462706, -1995.4072827586274, -8141.153531212036, -14929.981819389084, 0.014343749999999999, -0.10059375000000001, 0.98753125, 192.0, 0.0, 56.0, 126.0, 112.0, 15.0, 96.0, 0.0, 0.0, 0.0, 1.645922897587564E9, 0.0, 2022-02-27 11:48:17.587
58.0, -570.7070911773552, -3094.7107785595394, -2279.9449896746864, -9439.6781253431, 20.809474087890877, 239.11896218287495, -4908.867765530082, -1694.7986715792026, -2416.625907018889, -4320.52514797749, -3525.3618389799403, -2518.97454487974, -3022.2017195465232, -1843.7954001182795, -7996.001302719272, -14902.176249286682, 0.014343749999999999, -0.10059375000000001, 0.98753125, 192.0, 0.0, 0.0, 0.0, 0.0, 0.0, 0.0, 0.0, 0.0, 0.0, 1.645922897595746E9, 0.0, 2022-02-27 11:48:17.595
60.0, -605.6652195054555, -3112.3463049347765, -2308.7787400220323, -9460.688765131088, -15.802683329902093, 233.8663022358778, -4902.564573593685, -1703.560555405683, -2591.2824381926584, -4554.927892080294, -3759.541065638193, -2771.6610159469865, -3260.3819084622755, -2087.250600725484, -8236.662535269563, -15066.685088477743, 0.014343749999999999, -0.10059375000000001, 0.98753125, 192.0, 0.0, 0.0, 0.0, 0.0, 0.0, 0.0, 0.0, 0.0, 0.0, 1.645922897602773E9, 0.0, 2022-02-27 11:48:17.602
62.0, -433.08740056602966, -2943.814151741761, -2138.3690402947714, -9306.327617922738, 167.4592694591605, 380.49374586269215, -4762.195618414356, -1560.9787775252794, -2295.6582660267673, -4235.432056836135, -3497.1315857328877, -2513.1407395769047, -2986.371873184666, -1824.8411208201792, -7965.133543626493, -14807.226038840538, 0.014343749999999999, -0.10059375000000001, 0.98753125, 192.0, 0.0, 0.0, 0.0, 0.0, 0.0, 0.0, 0.0, 0.0, 0.0, 1.645922897609204E9, 0.0, 2022-02-27 11:48:17.609
64.0, -700.771892162787, -3222.071018465879, -2390.1614415838053, -9548.41936211817, -93.11736740080923, 134.84807429886752, -4991.7033304814495, -1791.559373326227, -2569.5565425821, -4472.829934695952, -3661.461610968305, -2672.173401376415, -3160.8719421472483, -1983.3596924972169, -8133.241013674858, -15044.534509722533, 0.014343749999999999, -0.10059375000000001, 0.98753125, 192.0, 0.0, 0.0, 0.0, 0.0, 0.0, 0.0, 0.0, 0.0, 0.0, 1.645922897617255E9, 0.0, 2022-02-27 11:48:17.617
66.0, -454.4556682653032, -2981.186268471035, -2136.603252482802, -9292.916571249554, 163.45830720166055, 391.5578593680691, -4765.615435316019, -1548.0371174856566, -2433.43441884928, -4442.968004103662, -3659.181733033864, -2675.0567764111493, -3152.6465001876954, -2005.8455474192558, -8133.129254952581, -14926.763168187521, 0.013171875, -0.10229687500000001, 0.986765625, 192.0, 0.0, 48.0, 126.0, 96.0, 15.0, 104.0, 0.0, 0.0, 0.0, 1.645922897625367E9, 0.0, 2022-02-27 11:48:17.625
68.0, -602.5806787706231, -3117.017819525936, -2277.441594295692, -9433.754913062443, 25.078657278854525, 252.15002920031898, -4918.300201690221, -1707.2262414963534, -2418.883433208875, -4322.313287533914, -3519.9750685662116, -2518.9298413908296, -3010.020018818381, -1841.336708228196, -7990.05573869416, -14903.249133020538, 0.013171875, -0.10229687500000001, 0.986765625, 192.0, 0.0, 0.0, 0.0, 0.0, 0.0, 0.0, 0.0, 0.0, 0.0, 1.645922897632398E9, 0.0, 2022-02-27 11:48:17.632
70.0, -671.289941226237, -3168.2480178174997, -2318.6805628157335, -9465.53909367789, -14.908613551689811, 233.01693594657613, -4907.861937029593, -1696.0503692687, -2613.23185124777, -4568.629511431398, -3766.760679097257, -2790.6599987339973, -3262.8182486079036, -2090.290437971406, -8229.733494488419, -15067.042716389027, 0.013171875, -0.10229687500000001, 0.986765625, 192.0, 0.0, 0.0, 0.0, 0.0, 0.0, 0.0, 0.0, 0.0, 0.0, 1.645922897639849E9, 0.0, 2022-02-27 11:48:17.639
72.0, -514.0230672386965, -3047.436839036565, -2143.1076101192966, -9305.411196400071, 171.32612124992863, 382.21483018575077, -4771.069260963114, -1577.0720335331005, -2332.6504031003005, -4286.148165005227, -3520.3326964774965, -2511.0843790870167, -2996.251344233912, -1825.1763969870087, -7959.947938912862, -14809.304751074882, 0.013171875, -0.10229687500000001, 0.986765625, 192.0, 0.0, 0.0, 0.0, 0.0, 0.0, 0.0, 0.0, 0.0, 0.0, 1.645922897648036E9, 0.0, 2022-02-27 11:48:17.648
74.0, -814.5869749292106, -3329.6946680181827, -2399.5491742550344, -9554.610795332288, -81.11448062830934, 146.76155409354618, -5010.165871401533, -1778.6177132866042, -2605.3416854550464, -4513.3089439045125, -3687.6802072143805, -2685.1821166494033, -3162.8612474037704, -1992.9932943574543, -8126.669600804998, -15043.17105331076, 0.013171875, -0.10229687500000001, 0.986765625, 192.0, 0.0, 0.0, 0.0, 0.0, 0.0, 0.0, 0.0, 0.0, 0.0, 1.645922897655943E9, 0.0, 2022-02-27 11:48:17.655
76.0, -612.2366323753157, -3124.192729496089, -2146.8850549322433, -9307.735777823422, 178.03164458652074, 399.31391469406066, -4724.55528075162, -1522.9808119512572, -2480.39543394988, -4478.328463831957, -3698.4537480418385, -2716.809835053663, -3159.061450846368, -2004.7950154298564, -8124.233260659369, -14922.538688485467, 0.008, -0.11, 0.984, 192.0, 0.0, 32.0, 126.0, 72.0, 15.0, 96.0, 0.0, 0.0, 0.0, 1.645922897662476E9, 0.0, 2022-02-27 11:48:17.662
78.0, -800.1924514999929, -3308.8851939302917, -2288.1927833786945, -9450.228148726004, 42.602424931815264, 251.6135873333916, -4877.150640148001, -1685.500345885795, -2485.8269078525195, -4375.86806724883, -3577.083775649521, -2564.1921239128264, -3012.6128211751966, -1844.9576908299555, -7972.375508830012, -14898.264694007004, 0.008, -0.11, 0.984, 192.0, 0.0, 0.0, 0.0, 0.0, 0.0, 0.0, 0.0, 0.0, 0.0, 1.645922897677768E9, 0.0, 2022-02-27 11:48:17.677
80.0, -897.8695747696847, -3384.992883800612, -2335.3326124349373, -9477.92196010613, -1.363456411773731, 240.63888080583584, -4899.189460180934, -1680.0465202387002, -2688.4678230843333, -4622.698381268786, -3833.3465258296164, -2831.9660224874046, -3269.9037516002363, -2096.6383333967133, -8223.631468252119, -15062.326498308958, 0.008, -0.11, 0.984, 192.0, 0.0, 0.0, 0.0, 0.0, 0.0, 0.0, 0.0, 0.0, 0.0, 1.645922897684736E9, 0.0, 2022-02-27 11:48:17.684
82.0, -738.1440088920605, -3244.8921495547474, -2165.6605202747014, -9315.469481404958, 189.2522203030849, 399.24685946069474, -4750.304490364134, -1535.0731057015785, -2416.268279107604, -4333.086828361372, -3587.253819376686, -2567.7684030256755, -3004.6108966601964, -1824.3046789532518, -7955.455238277345, -14796.83247766882, 0.008, -0.11, 0.984, 192.0, 0.0, 0.0, 0.0, 0.0, 0.0, 0.0, 0.0, 0.0, 0.0, 1.645922897693651E9, 0.0, 2022-02-27 11:48:17.693
84.0, -998.7206457520301, -3496.2375159546755, -2417.4529215637353, -9561.919815769174, -92.15624238923102, 157.08806003189804, -5011.37286560212, -1762.2562363453194, -2690.4347765964003, -4562.348671239456, -3759.474010404827, -2743.386059211023, -3183.134279624734, -1991.9204106235995, -8128.770664783796, -15030.587021182422, 0.008, -0.11, 0.984, 192.0, 0.0, 0.0, 0.0, 0.0, 0.0, 0.0, 0.0, 0.0, 0.0, 1.645922897701823E9, 0.0, 2022-02-27 11:48:17.701
86.0, -735.3723925796023, -3243.2157687205995, -2166.778107497467, -9313.323713937249, 174.50006896258225, 413.48492067872536, -4731.104341877025, -1505.412340809386, -2544.45553355879, -4511.856080514918, -3752.2543969457624, -2753.2431785158133, -3171.6678347191614, -1996.5919252147587, -8133.911566008516, -14916.347255271347, 0.01, -0.106, 0.988, 192.0, 0.0, 40.0, 126.0, 88.0, 15.0, 112.0, 0.0, 0.0, 0.0, 1.6459228977096E9, 0.0, 2022-02-27 11:48:17.709
88.0, -837.765733929364, -3348.0678019604447, -2297.178184649728, -9448.618823125224, 39.897863852723106, 258.5426281145368, -4854.016584636758, -1675.9114475144684, -2521.9920303812064, -4390.5084598670555, -3605.112863196476, -2585.269818934181, -3033.668164452096, -1849.8750746101232, -7970.520314040222, -14885.99358630104, 0.01, -0.106, 0.988, 192.0, 0.0, 0.0, 0.0, 0.0, 0.0, 0.0, 0.0, 0.0, 0.0, 1.645922897715727E9, 0.0, 2022-02-27 11:48:17.715
90.0, -867.7617749883862, -3369.6372353598163, -2340.406458426292, -9483.331082264314, -12.18170072814235, 232.77106675756775, -4910.92412601997, -1692.2952762002083, -2691.2841428857023, -4619.77030274514, -3831.5807380176475, -2828.7250195413853, -3279.9620366051245, -2099.409949709171, -8227.721837487441, -15064.807541943497, 0.01, -0.106, 0.988, 192.0, 0.0, 0.0, 0.0, 0.0, 0.0, 0.0, 0.0, 0.0, 0.0, 1.645922897722877E9, 0.0, 2022-02-27 11:48:17.722
92.0, -665.4561359234019, -3177.613398744273, -2160.0949359053297, -9318.978705284442, 180.51268822105985, 395.15649022537355, -4739.977984425782, -1530.312184132598, -2404.824185946487, -4331.701020205142, -3578.46958380575, -2569.0871559485386, -3011.7411031414395, -1840.17441751652, -7956.662232477932, -14801.325178304336, 0.01, -0.106, 0.988, 192.0, 0.0, 0.0, 0.0, 0.0, 0.0, 0.0, 0.0, 0.0, 0.0, 1.64592289772992E9, 0.0, 2022-02-27 11:48:17.729
94.0, -895.5002898574221, -3404.3718462433635, -2415.6200785184, -9561.763353557988, -89.31757084340703, 149.77903959501262, -4996.128975883601, -1782.7751377552913, -2650.425154021401, -4531.570319124498, -3726.3487251220618, -2722.8895095455064, -3179.2003726006, -2001.0846258502754, -8119.785263512763, -15033.805672383985, 0.01, -0.106, 0.988, 192.0, 0.0, 0.0, 0.0, 0.0, 0.0, 0.0, 0.0, 0.0, 0.0, 1.645922897737995E9, 0.0, 2022-02-27 11:48:17.737
96.0, -626.9217284824525, -3143.102305305279, -2159.8267149718663, -9311.759091825377, 167.056938058965, 411.71913286675607, -4750.058621175125, -1529.35105912102, -2512.984277365718, -4496.858059985407, -3728.628603056503, -2735.0488585291932, -3189.0574919053906, -2005.487919507971, -8135.498539864843, -14926.09261585386, 0.012, -0.106, 0.99, 192.0, 0.0, 48.0, 126.0, 88.0, 15.0, 120.0, 0.0, 0.0, 0.0, 1.645922897744636E9, 0.0, 2022-02-27 11:48:17.744
98.0, -744.9836426953844, -3255.5092281710185, -2297.8710887278426, -9451.837474326787, 44.79289588843535, 250.80892453300055, -4883.2526663843, -1666.0543282096778, -2491.6830648998102, -4365.899189221763, -3575.51915353765, -2570.607074571499, -3031.947080129037, -1852.1549525445644, -7980.24332287828, -14895.85070560583, 0.012, -0.106, 0.99, 192.0, 0.0, 0.0, 0.0, 0.0, 0.0, 0.0, 0.0, 0.0, 0.0, 1.645922897752422E9, 0.0, 2022-02-27 11:48:17.752
100.0, -781.6852070909986, -3297.754025191549, -2337.0984002469063, -9487.577913710824, -13.522805395460773, 229.150084155808, -4890.204058909901, -1681.9017150284906, -2663.2103518498366, -4608.057988650559, -3816.6497727215024, -2821.438350848955, -3286.287580285976, -2115.1455778057075, -8228.861776454662, -15065.925129166262, 0.012, -0.106, 0.99, 192.0, 0.0, 0.0, 0.0, 0.0, 0.0, 0.0, 0.0, 0.0, 0.0, 1.645922897760647E9, 0.0, 2022-02-27 11:48:17.760
102.0, -576.0715098466289, -3104.9031740311593, -2146.415668298682, -9315.22361221595, 181.40675799927212, 395.2906006921054, -4746.124714150991, -1545.01963198419, -2367.3850139838473, -4324.794331168453, -3544.4055252558624, -2545.684879503832, -3004.633248404652, -1848.265749009341, -7957.24337783377, -14806.197858595593, 0.012, -0.106, 0.99, 192.0, 0.0, 0.0, 0.0, 0.0, 0.0, 0.0, 0.0, 0.0, 0.0, 1.645922897767157E9, 0.0, 2022-02-27 11:48:17.767
104.0, -826.8357308907189, -3337.4730750886292, -2407.819319703498, -9563.193865203128, -88.9375911876668, 145.04046977048753, -5034.484569368908, -1778.8412307311573, -2630.576804945088, -4530.2739179460905, -3703.9075736889336, -2705.902183759473, -3174.394747542709, -1997.0613118483202, -8124.143853681548, -15042.478149232646, 0.012, -0.106, 0.99, 192.0, 0.0, 0.0, 0.0, 0.0, 0.0, 0.0, 0.0, 0.0, 0.0, 1.64592289777537E9, 0.0, 2022-02-27 11:48:17.775
106.0, -564.1133265630397, -3082.3279121312994, -2155.468124803081, -9316.587068627723, 164.2406182575963, 397.2128507152618, -4753.143161909958, -1517.1470066484221, -2491.9512858332737, -4479.8483824549185, -3712.311829604129, -2728.0527625146824, -3187.4705180490637, -2020.3741813152053, -8143.835740546673, -14927.43372052118, 0.008, -0.11, 0.988, 192.0, 0.0, 32.0, 126.0, 72.0, 15.0, 112.0, 0.0, 0.0, 0.0, 1.645922897783251E9, 0.0, 2022-02-27 11:48:17.783
108.0, -678.6883686409436, -3188.364587827276, -2281.666073997745, -9455.659622628644, 37.21565451808626, 250.6524623218134, -4878.983483193336, -1691.2670959552643, -2478.2273147377155, -4361.048860674961, -3557.302481806574, -2554.916149963874, -3027.275565537878, -1860.872132882134, -7975.415346075934, -14905.506659210523, 0.008, -0.11, 0.988, 192.0, 0.0, 0.0, 0.0, 0.0, 0.0, 0.0, 0.0, 0.0, 0.0, 1.645922897796835E9, 0.0, 2022-02-27 11:48:17.796
110.0, -720.2179098389041, -3223.4791783665632, -2333.0303827560406, -9490.126012578728, -14.953317040600425, 224.88090096484436, -4904.889155017037, -1691.825889566647, -2633.773104402197, -4581.884095893395, -3791.816984631656, -2828.5909090746536, -3278.866801126814, -2112.08338881533, -8224.749055474884, -15074.910530437295, 0.008, -0.11, 0.988, 192.0, 0.0, 0.0, 0.0, 0.0, 0.0, 0.0, 0.0, 0.0, 0.0, 1.645922897804902E9, 0.0, 2022-02-27 11:48:17.804
112.0, -527.456465656336, -3056.981033918981, -2145.0075083979978, -9312.56375462577, 167.83924911490072, 390.7979000565887, -4751.422077586899, -1526.892367230936, -2358.1984470127163, -4305.795348381442, -3530.7933128825803, -2531.0444868856057, -3011.115254296691, -1839.8391413496902, -7957.533950511689, -14806.533134762423, 0.008, -0.11, 0.988, 192.0, 0.0, 0.0, 0.0, 0.0, 0.0, 0.0, 0.0, 0.0, 0.0, 1.645922897812958E9, 0.0, 2022-02-27 11:48:17.812
114.0, -785.6861693484985, -3295.6976647016604, -2405.539441769057, -9567.016013504985, -108.94240247516662, 153.62353964132544, -5019.486548839396, -1775.0190824292997, -2627.268746765703, -4519.2321561851695, -3693.625771239492, -2691.6641225414423, -3185.101233136801, -1986.6006954432364, -8130.000010728838, -15043.573384710955, 0.008, -0.11, 0.988, 192.0, 0.0, 0.0, 0.0, 0.0, 0.0, 0.0, 0.0, 0.0, 0.0, 1.645922897820177E9, 0.0, 2022-02-27 11:48:17.820
116.0, -524.3495731770483, -3039.949004644037, -2147.287386332439, -9312.966086025965, 167.25810375906275, 401.1914612283065, -4744.425981572388, -1520.991506694735, -2482.9211810733295, -4474.394556807823, -3705.203974867341, -2724.297669446191, -3190.1080238947898, -2030.1195418977193, -8143.433409146477, -14931.300572311948, 0.008, -0.108, 0.986, 192.0, 0.0, 32.0, 126.0, 80.0, 15.0, 104.0, 0.0, 0.0, 0.0, 1.645922897827526E9, 0.0, 2022-02-27 11:48:17.827
118.0, -644.8701792800641, -3157.8768083902373, -2276.7710419620325, -9444.282584700893, 32.72295388256954, 252.2394361781402, -4895.523774090263, -1674.95032250289, -2465.82209656502, -4351.169389625716, -3547.601824712971, -2548.79177198312, -3028.147283571635, -1859.553379959271, -7976.622340276521, -14900.030481818972, 0.008, -0.108, 0.986, 192.0, 0.0, 0.0, 0.0, 0.0, 0.0, 0.0, 0.0, 0.0, 0.0, 1.645922897835771E9, 0.0, 2022-02-27 11:48:17.835
120.0, -693.3734647480804, -3201.976800200558, -2326.995411753108, -9489.410756756159, -16.316773452374157, 222.31045035248405, -4926.145663994034, -1701.3253809601524, -2627.3805054879795, -4591.3835872869, -3786.139641540008, -2803.869879707084, -3279.3361877603757, -2111.9492783485985, -8229.91230844406, -15073.904701936806, 0.008, -0.108, 0.986, 192.0, 0.0, 0.0, 0.0, 0.0, 0.0, 0.0, 0.0, 0.0, 0.0, 1.645922897843488E9, 0.0, 2022-02-27 11:48:17.843
122.0, -484.719930257789, -3011.830510119261, -2126.7237814335563, -9301.969027753954, 183.41841500024975, 402.35375193998243, -4753.299624121145, -1537.1294661914667, -2341.412286926781, -4288.875077828775, -3518.7233708767144, -2521.9920303812064, -3002.6215914036743, -1840.9567285724556, -7958.137447611982, -14809.997655152996, 0.008, -0.108, 0.986, 192.0, 0.0, 0.0, 0.0, 0.0, 0.0, 0.0, 0.0, 0.0, 0.0, 1.645922897849617E9, 0.0, 2022-02-27 11:48:17.849
124.0, -743.7990002392531, -3254.9951380485463, -2389.2226683166828, -9556.957728500096, -93.25147786754107, 148.28147271650707, -4997.112452639634, -1770.1911056269535, -2599.843156319041, -4492.03008318306, -3674.3362157745623, -2667.703052485353, -3161.229570058533, -1987.807689643823, -8114.1749756544805, -15038.633649186331, 0.008, -0.108, 0.986, 192.0, 0.0, 0.0, 0.0, 0.0, 0.0, 0.0, 0.0, 0.0, 0.0, 1.645922897857282E9, 0.0, 2022-02-27 11:48:17.857
126.0, -492.7665582616995, -3011.9646205859926, -2141.2971188184165, -9310.686208091523, 163.927693835222, 402.80078682908857, -4751.265615375712, -1519.1586636493998, -2458.7142418282324, -4458.636576966832, -3690.6529892269364, -2707.5338611047105, -3174.6406167317173, -2017.4013993026495, -8140.773551556296, -14935.301534569448, 0.006, -0.098, 0.992, 192.0, 0.0, 24.0, 126.0, 120.0, 15.5, 0.0, 0.0, 0.0, 0.0, 1.645922897865251E9, 0.0, 2022-02-27 11:48:17.865
128.0, -609.5097195517683, -3128.2607469869554, -2259.604902220357, -9435.498349129957, 42.7141836540918, 271.8642678098998, -4893.690931044928, -1670.7034910563816, -2440.3858113748806, -4334.651450473243, -3527.708772147748, -2528.7422572067094, -3010.511757196398, -1835.9946413033774, -7974.521276297722, -14896.789478872954, 0.006, -0.098, 0.992, 192.0, 0.0, 0.0, 0.0, 0.0, 0.0, 0.0, 0.0, 0.0, 0.0, 1.64592289787324E9, 0.0, 2022-02-27 11:48:17.873
130.0, -669.3900429475359, -3174.5065062649855, -2322.3462489064036, -9483.845172386787, -22.262337477485833, 234.33568886943925, -4925.519815149286, -1701.9288780604456, -2610.974325057784, -4577.972540613716, -3771.566304155148, -2791.710530723397, -3265.4781061980852, -2092.615019394758, -8232.996849178893, -15077.16805662728, 0.006, -0.098, 0.992, 192.0, 0.0, 0.0, 0.0, 0.0, 0.0, 0.0, 0.0, 0.0, 0.0, 1.645922897879755E9, 0.0, 2022-02-27 11:48:17.879
132.0, -461.94350265783106, -2980.4486609040096, -2124.7568279214893, -9290.726100292934, 192.47087150464912, 413.5743276565466, -4754.707784021829, -1536.3695068799861, -2335.3102606904818, -4274.189981721638, -3515.258850486142, -2518.3263442905363, -2996.6983791230177, -1817.040362005277, -7967.905159938951, -14808.768309207953, 0.006, -0.098, 0.992, 192.0, 0.0, 0.0, 0.0, 0.0, 0.0, 0.0, 0.0, 0.0, 0.0, 1.645922897887783E9, 0.0, 2022-02-27 11:48:17.887
134.0, -723.5706715072002, -3226.094332467834, -2388.8426886609423, -9550.140446441228, -89.85401271033439, 160.86550484484493, -5005.851984721659, -1779.0870999201657, -2591.170679470382, -4478.954312676706, -3666.5131052152046, -2661.221046593314, -3154.8593228887707, -1967.0205673003875, -8121.349885624634, -15036.912564863273, 0.006, -0.098, 0.992, 192.0, 0.0, 0.0, 0.0, 0.0, 0.0, 0.0, 0.0, 0.0, 0.0, 1.645922897895834E9, 0.0, 2022-02-27 11:48:17.895
136.0, -475.9803981757639, -2986.885963307138, -2141.1630083516848, -9302.952504509987, 163.36890022383932, 415.40717070188174, -4766.375394627499, -1522.6902392733384, -2455.2273696932043, -4452.1992745637035, -3683.366320534506, -2706.975067493328, -3171.757241696983, -2002.5598409843258, -8147.65788884853, -14933.044008379462, 0.008, -0.10200000000000001, 0.986, 192.0, 0.0, 32.0, 126.0, 104.0, 15.0, 104.0, 0.0, 0.0, 0.0, 1.645922897902339E9, 0.0, 2022-02-27 11:48:17.902
138.0, -601.7536642257768, -3118.2248137265224, -2268.4561930246587, -9432.167939206116, 39.33907024134043, 277.60866613491373, -4891.075776943658, -1670.0552904671779, -2441.525750342101, -4322.3579910228245, -3523.998382568167, -2525.1212746049496, -3010.623515918674, -1828.3503446996624, -7975.750622242764, -14889.659272391711, 0.008, -0.10200000000000001, 0.986, 192.0, 0.0, 0.0, 0.0, 0.0, 0.0, 0.0, 0.0, 0.0, 0.0, 1.645922897910368E9, 0.0, 2022-02-27 11:48:17.910
140.0, -658.6165021200779, -3162.0565846033796, -2332.9633275226747, -9482.101736319273, -28.431418947150583, 237.28611913753977, -4933.409980942009, -1700.4313111819401, -2612.963630314306, -4567.288406764079, -3771.9686355553436, -2787.508402765799, -3271.8930568567584, -2090.0445687823976, -8231.409875322566, -15068.070896633972, 0.008, -0.10200000000000001, 0.986, 192.0, 0.0, 0.0, 0.0, 0.0, 0.0, 0.0, 0.0, 0.0, 0.0, 1.645922897925471E9, 0.0, 2022-02-27 11:48:17.925
142.0, -445.6043774610016, -2963.662500818074, -2129.651859957202, -9288.848553758688, 190.7944906705011, 419.3187259815605, -4756.2724061337, -1534.6931260458382, -2327.4871501311245, -4266.880961284753, -3513.738931863181, -2516.851129156486, -2994.574963399764, -1822.4494841634614, -7963.9041976814515, -14798.575913736335, 0.008, -0.10200000000000001, 0.986, 192.0, 0.0, 0.0, 0.0, 0.0, 0.0, 0.0, 0.0, 0.0, 0.0, 1.64592289793215E9, 0.0, 2022-02-27 11:48:17.932
144.0, -702.9623631194071, -3209.9787247155577, -2391.7707671845874, -9546.094780694817, -86.43419580867241, 173.51659220654872, -5012.557508058251, -1780.1152801651099, -2574.6750920623654, -4472.762879462585, -3653.1914655198416, -2660.036404137183, -3144.689279161606, -1962.9525498095215, -8111.93980120895, -15024.35088447939, 0.008, -0.10200000000000001, 0.986, 192.0, 0.0, 0.0, 0.0, 0.0, 0.0, 0.0, 0.0, 0.0, 0.0, 1.645922897939952E9, 0.0, 2022-02-27 11:48:17.939
146.0, -463.59753174752376, -2970.9491695105044, -2149.768429966978, -9302.12548996514, 163.0112723125544, 420.6151271599683, -4770.08578420708, -1529.060486443101, -2448.879474267897, -4437.78239939003, -3679.1865443213637, -2700.135433690004, -3181.748471468505, -1997.128367081686, -8154.117542996114, -14929.534784499978, 0.01, -0.1, 0.984, 192.0, 0.0, 40.0, 126.0, 112.0, 15.0, 96.0, 0.0, 0.0, 0.0, 1.645922897947959E9, 0.0, 2022-02-27 11:48:17.947
148.0, -567.7343091647994, -3082.4843743424863, -2251.9159021277314, -9417.10286344324, 47.609215689804046, 283.9789133046762, -4897.468375857875, -1673.7656800467587, -2419.6433925203555, -4299.514508189501, -3505.6923038592704, -2503.395378994391, -2999.7158646244843, -1819.364943428629, -7969.738002984286, -14880.763278098499, 0.01, -0.1, 0.984, 192.0, 0.0, 0.0, 0.0, 0.0, 0.0, 0.0, 0.0, 0.0, 0.0, 1.645922897955224E9, 0.0, 2022-02-27 11:48:17.955
150.0, -649.7875630602316, -3148.4220204856424, -2333.633879856334, -9484.046338086884, -43.74236389903592, 226.33376435443932, -4959.047431832246, -1715.4069799669958, -2596.915077795396, -4552.603310656942, -3754.7354405803017, -2771.3927950135226, -3260.6054259068283, -2084.0095977794645, -8230.58286077772, -15071.557768769, 0.01, -0.1, 0.984, 192.0, 0.0, 0.0, 0.0, 0.0, 0.0, 0.0, 0.0, 0.0, 0.0, 1.645922897962623E9, 0.0, 2022-02-27 11:48:17.962
152.0, -427.5888714300241, -2941.444866829499, -2123.795702909911, -9284.199390911985, 174.05303407347608, 418.1340835254292, -4799.500679910264, -1549.1770564528772, -2315.1489871917947, -4260.108382714794, -3503.0995015024546, -2512.581945965522, -3002.3533704702104, -1821.331896940696, -7979.595122289076, -14808.433033041125, 0.01, -0.1, 0.984, 192.0, 0.0, 0.0, 0.0, 0.0, 0.0, 0.0, 0.0, 0.0, 0.0, 1.645922897970725E9, 0.0, 2022-02-27 11:48:17.970
154.0, -696.2344880383597, -3196.075939664357, -2389.3791305278696, -9544.440751605123, -97.69947501414717, 160.53022867801533, -5022.191109918489, -1804.3445711546626, -2558.9618157102846, -4442.856245381385, -3638.752238601713, -2638.1093428265267, -3148.1314478077234, -1956.6940613620357, -8120.053484446226, -15032.241050272114, 0.011, -0.10400000000000001, 0.984, 192.0, 0.0, 48.0, 126.0, 80.0, 15.0, 96.0, 0.0, 0.0, 0.0, 1.645922897977767E9, 0.0, 2022-02-27 11:48:17.977
156.0, -446.9007786394094, -2953.6936227910073, -2143.062906630386, -9301.074957975741, 150.6284058843143, 403.06900776255225, -4783.9662175138255, -1556.0390420006565, -2444.945567243763, -4434.362582488368, -3676.794907664646, -2696.96148597735, -3185.2800470924435, -2010.0923788657642, -8156.933862797483, -14942.945831173163, 0.011, -0.10400000000000001, 0.984, 192.0, 0.0, 0.0, 0.0, 0.0, 0.0, 0.0, 0.0, 0.0, 0.0, 1.645922897984885E9, 0.0, 2022-02-27 11:48:17.984
158.0, -558.4359834713916, -3062.5019147994417, -2258.7108324421447, -9415.29237214236, 27.000907302010933, 286.3705499613941, -4918.3896086680425, -1694.7763198347475, -2411.2838400940705, -4286.125813260772, -3504.194736980765, -2497.360407991458, -3009.304762995811, -1818.850853306157, -7977.784630988197, -14885.412440945202, 0.011, -0.10400000000000001, 0.984, 192.0, 0.0, 0.0, 0.0, 0.0, 0.0, 0.0, 0.0, 0.0, 0.0, 1.645922897992297E9, 0.0, 2022-02-27 11:48:17.992
160.0, -625.0441819482068, -3119.3200492048322, -2330.0576007434847, -9480.671224674134, -50.87257038027887, 235.67679353675766, -4974.805411673237, -1743.3243087916744, -2590.5895341145438, -4527.189377211258, -3751.5391411231926, -2757.9146931069727, -3270.350786489342, -2074.308940685861, -8236.081389913725, -15071.781286213552, 0.011, -0.10400000000000001, 0.984, 192.0, 0.0, 0.0, 0.0, 0.0, 0.0, 0.0, 0.0, 0.0, 0.0, 1.645922898000232E9, 0.0, 2022-02-27 11:48:18.000
162.0, -402.75608334017795, -2912.9687443934376, -2120.353534263794, -9284.579370567724, 177.29403701949562, 421.9115283383761, -4791.677569350907, -1551.4122308984079, -2295.2782863710268, -4237.22019639256, -3493.421196153307, -2495.2593440126593, -2998.3077047238, -1816.7050858384475, -7974.72244199782, -14810.534097019923, 0.011, -0.10400000000000001, 0.984, 192.0, 0.0, 0.0, 0.0, 0.0, 0.0, 0.0, 0.0, 0.0, 0.0, 1.645922898008364E9, 0.0, 2022-02-27 11:48:18.008
164.0, -697.0391508387507, -3196.4782710645522, -2387.5462874825344, -9551.280385408449, -102.03571343847675, 154.7411268640908, -5049.482589898418, -1814.1793387149978, -2558.850056988008, -4439.704649413186, -3640.965061302789, -2636.9917556037612, -3155.172247311145, -1962.0584800313093, -8115.918411721995, -15034.878556117841, 0.0115, -0.10700000000000001, 0.986, 192.0, 0.0, 48.0, 126.0, 72.0, 15.0, 112.0, 0.0, 0.0, 0.0, 1.645922898014882E9, 0.0, 2022-02-27 11:48:18.014
166.0, -455.7297176992557, -2958.6557100600853, -2146.0356886429418, -9312.98843777042, 140.2348447125965, 400.2973914500942, -4820.064284809147, -1580.1118707790222, -2450.980538246696, -4445.40434424929, -3684.0592246126207, -2706.2151081818474, -3192.7008262516056, -2021.2011958600517, -8162.90177856705, -14953.093523155872, 0.0115, -0.10700000000000001, 0.986, 192.0, 0.0, 0.0, 0.0, 0.0, 0.0, 0.0, 0.0, 0.0, 0.0, 1.645922898024489E9, 0.0, 2022-02-27 11:48:18.024
168.0, -560.2017712833609, -3068.6933480135617, -2251.245349794072, -9420.455625111535, 36.74626788452481, 280.76026210311204, -4937.299184477232, -1682.1922877064096, -2404.555965013023, -4290.0150167959955, -3502.607763124438, -2501.9648673492516, -3008.0977687952245, -1821.8683388076233, -7980.511543811745, -14887.960539813108, 0.0115, -0.10700000000000001, 0.986, 192.0, 0.0, 0.0, 0.0, 0.0, 0.0, 0.0, 0.0, 0.0, 0.0, 1.645922898030974E9, 0.0, 2022-02-27 11:48:18.030
170.0, -643.484371123835, -3135.5027121904745, -2335.7349438351325, -9491.6906346906, -51.67723318066993, 223.56214804198123, -4979.4322227754865, -1738.2281110558642, -2599.485528407756, -4548.870569332907, -3759.4069551714606, -2772.778603169752, -3272.943588846158, -2090.6927693716016, -8237.86952947015, -15077.905664194306, 0.0115, -0.10700000000000001, 0.986, 192.0, 0.0, 0.0, 0.0, 0.0, 0.0, 0.0, 0.0, 0.0, 0.0, 1.645922898044608E9, 0.0, 2022-02-27 11:48:18.044
172.0, -409.528661910136, -2916.187395595002, -2117.5372144624253, -9282.679472289023, 175.50589746307105, 424.77255162865544, -4799.098348510069, -1552.4627628878075, -2306.275344643038, -4249.826580265353, -3504.507661403139, -2508.5586319635668, -3004.052103048814, -1826.1151702541317, -7983.260808379747, -14810.69055923111, 0.0115, -0.10700000000000001, 0.986, 192.0, 0.0, 0.0, 0.0, 0.0, 0.0, 0.0, 0.0, 0.0, 0.0, 1.645922898052709E9, 0.0, 2022-02-27 11:48:18.052
174.0, -678.8895343410414, -3171.3549102967872, -2380.5501914680235, -9542.74201902652, -95.5984110353483, 162.45247870117174, -5044.8781305406255, -1805.5515653552493, -2546.0872109040274, -4430.853358608885, -3632.9407850433336, -2634.488360224767, -3139.749543636983, -1945.4734856454713, -8116.723074522385, -15029.603544426387, 0.012750000000000001, -0.10650000000000001, 0.987, 192.0, 0.0, 56.0, 126.0, 88.0, 15.0, 112.0, 0.0, 0.0, 0.0, 1.645922898060649E9, 0.0, 2022-02-27 11:48:18.060
176.0, -442.27396753716084, -2941.958956951971, -2141.610043240791, -9305.478251633436, 141.30772844645125, 400.07387400554114, -4832.000116348281, -1575.0156730432122, -2442.7103927982325, -4426.539471929011, -3681.1534978334307, -2696.8497272550735, -3187.6046285157954, -2012.774588200401, -8170.747240870863, -14953.048819666961, 0.012750000000000001, -0.10650000000000001, 0.987, 192.0, 0.0, 0.0, 0.0, 0.0, 0.0, 0.0, 0.0, 0.0, 0.0, 1.645922898067168E9, 0.0, 2022-02-27 11:48:18.067
178.0, -542.6109483970342, -3045.2910715688554, -2244.1598468017396, -9414.890040742164, 41.37307898677337, 284.13537551586336, -4925.586870382652, -1697.8385088251246, -2394.1624038413056, -4276.425156167168, -3499.4561671562396, -2491.191326521793, -2996.944248312026, -1820.2143097179307, -7978.946921699873, -14888.496981680035, 0.012750000000000001, -0.10650000000000001, 0.987, 192.0, 0.0, 0.0, 0.0, 0.0, 0.0, 0.0, 0.0, 0.0, 0.0, 1.645922898075228E9, 0.0, 2022-02-27 11:48:18.075
180.0, -629.067495950162, -3122.4045899396647, -2330.7952083105097, -9492.49529749099, -53.97946285956655, 215.26965084906232, -4973.9113418950255, -1724.6382504270377, -2584.0851764780496, -4535.973612782194, -3753.1261149795196, -2762.5862076981316, -3260.314853228909, -2092.0338740389197, -8230.15817763307, -15077.41392581629, 0.012750000000000001, -0.10650000000000001, 0.987, 192.0, 0.0, 0.0, 0.0, 0.0, 0.0, 0.0, 0.0, 0.0, 0.0, 1.645922898083273E9, 0.0, 2022-02-27 11:48:18.083
182.0, -407.58406014252427, -2915.1368636056022, -2113.8491766272996, -9287.820373513743, 177.11522306385316, 413.239051489717, -4791.6552176064515, -1555.5473036226397, -2297.1334811608176, -4251.167684932671, -3502.8089288245355, -2508.78214940812, -2999.157071013102, -1828.5291586553049, -7978.142258899482, -14811.249352842493, 0.012750000000000001, -0.10650000000000001, 0.987, 192.0, 0.0, 0.0, 0.0, 0.0, 0.0, 0.0, 0.0, 0.0, 0.0, 1.645922898090396E9, 0.0, 2022-02-27 11:48:18.090
184.0, -676.5426011732342, -3171.1984480856, -2379.2984937785263, -9542.607908559788, -97.92299245870024, 156.70808037615782, -5043.492322384396, -1801.59530658666, -2545.0590306590834, -4436.262480767069, -3635.533587400149, -2634.130732313482, -3133.7816278674163, -1963.645453887636, -8112.453891331422, -15032.106939805382, 0.013375000000000001, -0.10425000000000001, 0.9875, 192.0, 0.0, 56.0, 126.0, 104.0, 15.0, 112.0, 0.0, 0.0, 0.0, 1.645922898096842E9, 0.0, 2022-02-27 11:48:18.096
186.0, -446.07376409456305, -2942.9647854524596, -2149.343746822327, -9308.629847601635, 133.32815567590663, 403.73956009621145, -4823.886433111004, -1567.5501903951397, -2447.6948318117657, -4439.3470215019015, -3686.9202479029, -2698.637866811498, -3194.131337896745, -2025.3139168398282, -8175.2175897619245, -14955.90984295724, 0.013375000000000001, -0.10425000000000001, 0.9875, 192.0, 0.0, 0.0, 0.0, 0.0, 0.0, 0.0, 0.0, 0.0, 0.0, 1.645922898104883E9, 0.0, 2022-02-27 11:48:18.104
188.0, -536.6877361163779, -3041.535978500364, -2239.510683955036, -9412.811328507822, 49.129134312764926, 286.3929017058494, -4924.938669793448, -1697.5702878916609, -2389.692054950244, -4275.061699755394, -3496.505736888139, -2493.0912248004943, -2997.480690178954, -1816.0121817603329, -7977.427003076912, -14886.731193868065, 0.013375000000000001, -0.10425000000000001, 0.9875, 192.0, 0.0, 0.0, 0.0, 0.0, 0.0, 0.0, 0.0, 0.0, 0.0, 1.645922898112951E9, 0.0, 2022-02-27 11:48:18.112
190.0, -625.7594377707766, -3120.1470637496786, -2325.766065808066, -9491.042434101395, -47.02807033396606, 221.17051138526338, -4998.967647429425, -1753.9413874079453, -2583.7722520556754, -4534.744266837152, -3745.593577098081, -2761.1780477974476, -3255.2857107264654, -2082.6908448566014, -8236.349610847188, -15083.359489841401, 0.013375000000000001, -0.10425000000000001, 0.9875, 192.0, 0.0, 0.0, 0.0, 0.0, 0.0, 0.0, 0.0, 0.0, 0.0, 1.645922898120003E9, 0.0, 2022-02-27 11:48:18.120
192.0, -399.8280048165327, -2910.1971280809794, -2103.1426910332075, -9283.305321133772, 186.19003131270784, 420.9056998378873, -4791.208182717345, -1571.6182078860054, -2289.153908390273, -4244.529216829445, -3494.672893842804, -2502.009570838162, -2992.2056784875012, -1828.7303243554027, -7982.120869412526, -14821.061768658374, 0.013375000000000001, -0.10425000000000001, 0.9875, 192.0, 0.0, 0.0, 0.0, 0.0, 0.0, 0.0, 0.0, 0.0, 0.0, 1.64592289812772E9, 0.0, 2022-02-27 11:48:18.127
194.0, -675.8273453506644, -3167.9797968840357, -2371.654197174811, -9541.6020800593, -97.7888819919684, 169.42622297122753, -5043.447618895486, -1781.0093499433221, -2547.0930394045163, -4435.077838310938, -3631.8455495650232, -2629.481569466778, -3136.0168023129468, -1960.1585817526081, -8113.415016343, -15034.83385262893, 0.0126875, -0.105125, 0.98775, 192.0, 0.0, 48.0, 126.0, 88.0, 15.0, 112.0, 0.0, 0.0, 0.0, 1.64592289813558E9, 0.0, 2022-02-27 11:48:18.135
196.0, -448.93478738484237, -2940.0814104177252, -2141.1630083516848, -9309.523917379847, 146.38157443780597, 404.94655429679807, -4811.995305060781, -1551.0322512426676, -2452.9027882698524, -4431.59096617591, -3686.0038263802326, -2696.357988877057, -3192.231439618044, -2019.25659409244, -8171.976586815905, -14957.72033425812, 0.0126875, -0.105125, 0.98775, 192.0, 0.0, 0.0, 0.0, 0.0, 0.0, 0.0, 0.0, 0.0, 0.0, 1.645922898142645E9, 0.0, 2022-02-27 11:48:18.142
198.0, -540.1522565069505, -3042.474751767487, -2232.335773984882, -9409.525622072892, 53.957111115111246, 293.3442942314499, -4898.585963080641, -1664.4897060978064, -2391.7484154401322, -4270.926627031163, -3497.4668618997175, -2489.202021265271, -2993.9714662994706, -1818.5155771393272, -7970.810886718141, -14883.065507777395, 0.0126875, -0.105125, 0.98775, 192.0, 0.0, 0.0, 0.0, 0.0, 0.0, 0.0, 0.0, 0.0, 0.0, 1.645922898150245E9, 0.0, 2022-02-27 11:48:18.150
200.0, -636.3541646425921, -3123.90215681817, -2325.2072721966833, -9491.6906346906, -46.31281451139623, 230.96057545668788, -4958.086306820668, -1720.9725643363672, -2587.326179424069, -4534.90072904834, -3753.014356257243, -2760.5969024416095, -3256.8279810938816, -2082.6237896232356, -8226.134863631114, -15076.184579871247, 0.0126875, -0.105125, 0.98775, 192.0, 0.0, 0.0, 0.0, 0.0, 0.0, 0.0, 0.0, 0.0, 0.0, 1.645922898158288E9, 0.0, 2022-02-27 11:48:18.158
202.0, -404.9689060412534, -2913.192261837991, -2099.968743320554, -9281.383071110615, 189.14046158080836, 431.7909993876218, -4775.561961598631, -1538.7387917922488, -2295.792376493499, -4249.580711076344, -3505.3570276924406, -2508.357466263469, -3001.9286873255596, -1828.1938824884753, -7979.818639733629, -14810.623503997746, 0.0126875, -0.105125, 0.98775, 192.0, 0.0, 0.0, 0.0, 0.0, 0.0, 0.0, 0.0, 0.0, 0.0, 1.645922898172373E9, 0.0, 2022-02-27 11:48:18.172
204.0, -672.9886738048403, -3166.549285238896, -2365.0380808160403, -9538.830463746843, -84.64605625224785, 170.76732763854596, -5018.234851149899, -1777.4330708304728, -2537.7947137111087, -4433.759085388075, -3628.2245669632634, -2628.811017133119, -3132.6416889001953, -1959.8009538413232, -8108.251763373824, -15028.821233370452, 0.01034375, -0.1045625, 0.986875, 192.0, 0.0, 32.0, 126.0, 96.0, 15.0, 104.0, 0.0, 0.0, 0.0, 1.645922898179768E9, 0.0, 2022-02-27 11:48:18.179
206.0, -446.78901991713286, -2941.86954997415, -2134.9492233931096, -9312.451995903491, 146.8062575824568, 390.2167547007507, -4795.477365908309, -1572.534629408673, -2447.918349256319, -4439.324669757446, -3683.5451344901485, -2702.862346513551, -3191.5385355399294, -2028.1525883856523, -8167.483886180388, -14960.491950570578, 0.01034375, -0.1045625, 0.986875, 192.0, 0.0, 0.0, 0.0, 0.0, 0.0, 0.0, 0.0, 0.0, 0.0, 1.64592289818794E9, 0.0, 2022-02-27 11:48:18.187
208.0, -530.5857098800791, -3030.762437672906, -2223.484483180581, -9403.401244092136, 59.1874193176531, 285.0070935496204, -4894.294428145222, -1660.2205229068427, -2375.588104198945, -4267.976196763062, -3486.983893750178, -2483.5023264291676, -2987.7129778519843, -1820.974269029411, -7963.613625003532, -14881.545589154433, 0.01034375, -0.1045625, 0.986875, 192.0, 0.0, 0.0, 0.0, 0.0, 0.0, 0.0, 0.0, 0.0, 0.0, 1.645922898195776E9, 0.0, 2022-02-27 11:48:18.195
210.0, -635.5718535866563, -3125.913813819148, -2324.782589052032, -9498.217344071549, -49.46441047959453, 206.17249085575236, -4961.50612372233, -1746.8558844156128, -2584.6663218338877, -4526.94350802225, -3743.604271841559, -2754.4501727163997, -3254.1681235037, -2088.547001903892, -8225.397256064089, -15078.151533383314, 0.01034375, -0.1045625, 0.986875, 192.0, 0.0, 0.0, 0.0, 0.0, 0.0, 0.0, 0.0, 0.0, 0.0, 1.64592289820231E9, 0.0, 2022-02-27 11:48:18.202
212.0, -414.5354526681248, -2923.3399538207, -2101.958048577076, -9281.673643788534, 184.02191210054303, 420.9056998378873, -4767.3588713835325, -1535.6095475685058, -2297.088777671907, -4264.221103694571, -3508.2627544716306, -2518.616916968455, -3003.2474402484227, -1849.808019376757, -7980.57859904511, -14817.083158145328, 0.01034375, -0.1045625, 0.986875, 192.0, 0.0, 0.0, 0.0, 0.0, 0.0, 0.0, 0.0, 0.0, 0.0, 1.645922898210534E9, 0.0, 2022-02-27 11:48:18.210
214.0, -673.1674877604828, -3169.097384106801, -2369.7095954071997, -9533.17547239965, -98.66060002572537, 175.75176665207943, -5050.421363165541, -1809.686638079481, -2535.6265944989436, -4434.586099932922, -3627.665773351881, -2629.2804037666806, -3126.874938830726, -1952.5589886378038, -8103.624952271575, -15021.534564678022, 0.009171875, -0.10528124999999999, 0.9874375, 192.0, 0.0, 32.0, 126.0, 88.0, 15.0, 112.0, 0.0, 0.0, 0.0, 1.645922898218444E9, 0.0, 2022-02-27 11:48:18.218
216.0, -455.79677293262165, -2951.503151834387, -2151.0201276564753, -9311.17794646954, 128.477827129105, 405.4606444192701, -4818.700828397373, -1561.3364054365643, -2454.8697417819194, -4439.883463368829, -3696.620904996503, -2706.2374599263026, -3202.1556141562005, -2010.4723585215045, -8176.066956051226, -14952.5794330334, 0.009171875, -0.10528124999999999, 0.9874375, 192.0, 0.0, 0.0, 0.0, 0.0, 0.0, 0.0, 0.0, 0.0, 0.0, 1.645922898225589E9, 0.0, 2022-02-27 11:48:18.225
218.0, -531.1668552359171, -3035.1210278416906, -2229.4300472056925, -9403.781223747877, 47.20688428960852, 297.7699396336007, -4933.342925708643, -1697.9726192918563, -2381.779537413065, -4269.183190963649, -3502.317190446519, -2489.87257359893, -2994.5526116553083, -1806.4009316445508, -7969.134505883993, -14879.80215308692, 0.009171875, -0.10528124999999999, 0.9874375, 192.0, 0.0, 0.0, 0.0, 0.0, 0.0, 0.0, 0.0, 0.0, 0.0, 1.645922898231969E9, 0.0, 2022-02-27 11:48:18.231
220.0, -642.389135645525, -3136.7320581355166, -2333.522121134057, -9502.128899351228, -66.94347464364465, 216.87897644984443, -4994.050263649257, -1732.7966371532248, -2583.03464448865, -4531.391505168856, -3748.9463387663773, -2755.7465738948076, -3249.1166292568005, -2071.31380692885, -8226.268974097846, -15081.236074118147, 0.009171875, -0.10528124999999999, 0.9874375, 192.0, 0.0, 0.0, 0.0, 0.0, 0.0, 0.0, 0.0, 0.0, 0.0, 1.645922898240083E9, 0.0, 2022-02-27 11:48:18.240
222.0, -408.5675368985578, -2926.4244945555324, -2107.121301546252, -9282.791231011299, 170.5661619384482, 430.7628191426777, -4793.219839718323, -1533.5531870786176, -2296.082949171418, -4262.388260649235, -3513.8283388410023, -2519.555690235578, -3002.442777448032, -1841.359059972651, -7983.953712457862, -14813.484527288025, 0.009171875, -0.10528124999999999, 0.9874375, 192.0, 0.0, 0.0, 0.0, 0.0, 0.0, 0.0, 0.0, 0.0, 0.0, 1.645922898247998E9, 0.0, 2022-02-27 11:48:18.247
224.0, -682.7563861318096, -3184.5424395254186, -2379.9243426232747, -9539.098684680306, -94.43612032367234, 166.8110688699566, -5017.676057538517, -1788.273666891297, -2537.7947137111087, -4431.099227797893, -3630.571500131071, -2626.039400820661, -3124.103322518268, -1953.4530584160161, -8102.037978415249, -15021.758082122575, 0.008, -0.1, 0.986, 192.0, 0.0, 32.0, 126.0, 112.0, 15.0, 104.0, 0.0, 0.0, 0.0, 1.645922898254648E9, 0.0, 2022-02-27 11:48:18.254
226.0, -500.6120205655123, -3004.4767861934647, -2189.7557007975224, -9349.42178123257, 106.23784139607447, 365.4063183553599, -4810.944773071382, -1588.471423205307, -2478.3837769489023, -4471.2206090951695, -3724.761751265735, -2732.679573616931, -3213.2197276615775, -2053.7006322980683, -8183.711252654941, -14973.59007282139, 0.008, -0.1, 0.986, 192.0, 0.0, 0.0, 0.0, 0.0, 0.0, 0.0, 0.0, 0.0, 0.0, 1.645922898262734E9, 0.0, 2022-02-27 11:48:18.262
228.0, -548.5565124221459, -3059.6185397647073, -2240.471808966614, -9410.732616273477, 51.990157603044224, 291.53380293057, -4865.863009198071, -1670.7481945452923, -2368.055566317507, -4274.435850910646, -3504.954696292245, -2495.728730646221, -2981.342730682222, -1824.6623068645367, -7950.627261474999, -14856.265766175482, 0.008, -0.1, 0.986, 192.0, 0.0, 0.0, 0.0, 0.0, 0.0, 0.0, 0.0, 0.0, 0.0, 1.645922898270691E9, 0.0, 2022-02-27 11:48:18.270
230.0, -641.584472845134, -3140.4200959706423, -2345.1003247619064, -9504.721701708044, -61.221428063086044, 218.44359856171593, -4955.672318419494, -1733.1542650645097, -2581.4476706323235, -4541.315679707012, -3755.7636208252457, -2761.0439373307154, -3245.294480954943, -2091.586839149814, -8215.830709437218, -15071.825989702464, 0.008, -0.1, 0.986, 192.0, 0.0, 0.0, 0.0, 0.0, 0.0, 0.0, 0.0, 0.0, 0.0, 1.645922898277875E9, 0.0, 2022-02-27 11:48:18.277
232.0, -406.0864932640187, -2915.8744711726276, -2112.709237660079, -9279.952559465475, 190.1686418257525, 425.75602838468893, -4757.457048589832, -1526.892367230936, -2293.177222392228, -4265.495153128523, -3527.641716914382, -2528.854015928986, -3007.248402505923, -1860.8274293932236, -7995.4872125968, -14826.537946049923, 0.008, -0.1, 0.986, 192.0, 0.0, 0.0, 0.0, 0.0, 0.0, 0.0, 0.0, 0.0, 0.0, 1.645922898292293E9, 0.0, 2022-02-27 11:48:18.292
234.0, -703.90113638653, -3202.200317645111, -2386.3839967708586, -9546.340649883825, -92.4021115782394, 155.99282455358798, -5014.055074936757, -1783.333931366674, -2539.8734259454523, -4429.869881852851, -3635.9359188003446, -2622.9548600858284, -3117.7330753485057, -1960.3820991971613, -8085.922370662973, -15013.465584929656, 0.008, -0.106, 0.992, 192.0, 0.0, 32.0, 126.0, 88.0, 15.5, 0.0, 0.0, 0.0, 0.0, 1.645922898300365E9, 0.0, 2022-02-27 11:48:18.300
236.0, -499.36032287601506, -3003.426254204065, -2184.6818548061674, -9346.203130031006, 113.77037927751294, 364.33343462150515, -4810.408331204454, -1587.3985394714523, -2473.198172235271, -4459.664757211775, -3712.892974959967, -2716.2733931867356, -3197.037064675935, -2042.5918153037805, -8167.461534435933, -14964.53761631699, 0.008, -0.106, 0.992, 192.0, 0.0, 0.0, 0.0, 0.0, 0.0, 0.0, 0.0, 0.0, 0.0, 1.645922898307552E9, 0.0, 2022-02-27 11:48:18.307
238.0, -549.3388234780817, -3058.724469986495, -2235.44266646417, -9403.758872003422, 64.97652113157763, 294.9983233211426, -4889.555858320697, -1657.7171275278483, -2378.2256100446716, -4281.677816114166, -3505.222917225709, -2494.8570126124637, -2979.241666703423, -1828.5068069108495, -7949.196749829859, -14861.585481355845, 0.008, -0.106, 0.992, 192.0, 0.0, 0.0, 0.0, 0.0, 0.0, 0.0, 0.0, 0.0, 0.0, 1.645922898314995E9, 0.0, 2022-02-27 11:48:18.314
240.0, -658.9741300313628, -3150.3889739977094, -2348.9895282971297, -9501.346588295291, -60.57322747388214, 216.32018283846176, -4969.306882537232, -1735.9705848658784, -2596.065711506094, -4541.561548896021, -3761.6421296169915, -2760.9545303528944, -3247.5296554004735, -2088.4352431816155, -8216.121282115137, -15074.17292287027, 0.008, -0.106, 0.992, 192.0, 0.0, 0.0, 0.0, 0.0, 0.0, 0.0, 0.0, 0.0, 0.0, 1.645922898322899E9, 0.0, 2022-02-27 11:48:18.322
242.0, -421.7774178716443, -2928.81613121225, -2114.9220603611543, -9273.269387873339, 180.13270856531963, 442.430429748348, -4752.852589232039, -1497.0304366386458, -2328.1800542092387, -4276.93924628964, -3546.663051445848, -2542.689745746821, -3023.0957893247355, -1864.291949783796, -7997.342407386591, -14817.329027334337, 0.008, -0.106, 0.992, 192.0, 0.0, 0.0, 0.0, 0.0, 0.0, 0.0, 0.0, 0.0, 0.0, 1.645922898330888E9, 0.0, 2022-02-27 11:48:18.330
244.0, -689.2160402793933, -3183.178983113645, -2380.013749601096, -9532.46021657708, -82.67910274018082, 178.88101087582243, -5033.389333890597, -1776.8295737301796, -2542.689745746821, -4415.117730512349, -3630.571500131071, -2613.254202992225, -3115.788473580894, -1946.2110932124965, -8084.849486929118, -15000.345110934391, 0.016, -0.106, 0.994, 192.0, 0.0, 64.0, 126.0, 88.0, 15.5, 8.0, 0.0, 0.0, 0.0, 1.645922898337538E9, 0.0, 2022-02-27 11:48:18.337
246.0, -499.85206125403187, -2993.278562221356, -2186.604104829324, -9338.692943894022, 106.0143239515214, 387.5121936216585, -4812.129415527513, -1558.475382146285, -2476.103899014461, -4447.818332650463, -3712.110663904031, -2716.608669353565, -3193.7066547520944, -2027.0126494184317, -8170.434316448488, -14953.294688855969, 0.016, -0.106, 0.994, 192.0, 0.0, 0.0, 0.0, 0.0, 0.0, 0.0, 0.0, 0.0, 0.0, 1.645922898344748E9, 0.0, 2022-02-27 11:48:18.344
248.0, -544.8237710981097, -3043.7040977125284, -2234.4144862192256, -9394.86287771021, 54.605311704315156, 312.9467741187542, -4861.929102173937, -1649.692851268393, -2383.7688426695877, -4254.654557067699, -3504.6864753587815, -2484.306989229559, -2984.270809205867, -1790.4417861034617, -7952.14718009796, -14844.59815556981, 0.016, -0.106, 0.994, 192.0, 0.0, 0.0, 0.0, 0.0, 0.0, 0.0, 0.0, 0.0, 0.0, 1.645922898352727E9, 0.0, 2022-02-27 11:48:18.352
250.0, -659.0188335202735, -3149.6066629417737, -2350.241225986627, -9506.867469175753, -68.50809675551615, 208.29590657900653, -4977.12999309659, -1741.1114860905989, -2601.7877580866525, -4536.1971302267475, -3761.9103505504554, -2756.1489052950033, -3250.614196135306, -2085.775385591434, -8222.513881029354, -15071.669527491276, 0.016, -0.106, 0.994, 192.0, 0.0, 0.0, 0.0, 0.0, 0.0, 0.0, 0.0, 0.0, 0.0, 1.645922898360534E9, 0.0, 2022-02-27 11:48:18.360
252.0, -416.658868391379, -2917.5955554956863, -2115.4585022280817, -9275.102230918674, 187.0617493464648, 442.69865068181167, -4750.3715455975, -1528.7252102762714, -2327.4871501311245, -4273.362967176791, -3546.663051445848, -2542.8238562135525, -3023.207548047012, -1868.0023393633771, -8007.825375536129, -14826.090911160818, 0.016, -0.106, 0.994, 192.0, 0.0, 0.0, 0.0, 0.0, 0.0, 0.0, 0.0, 0.0, 0.0, 1.645922898367147E9, 0.0, 2022-02-27 11:48:18.367
254.0, -675.7826418617537, -3163.4423927596085, -2380.8631158903977, -9533.354286355292, -87.28356209797408, 183.5972289558922, -5012.80337724726, -1773.4097568285176, -2539.8957776899074, -4378.840849261385, -3627.375200673962, -2605.475795921778, -3105.66313334264, -1921.1100841891866, -8084.938893906939, -15001.239180712604, 0.016, -0.106, 0.99, 192.0, 0.0, 64.0, 126.0, 88.0, 15.0, 120.0, 0.0, 0.0, 0.0, 1.645922898375216E9, 0.0, 2022-02-27 11:48:18.375
0.0, -479.4896220552471, -2971.3962043996103, -2187.8110990299106, -9334.312001980783, 104.80732975093481, 382.12542320792954, -4828.647354679984, -1577.3179027221088, -2468.526657644112, -4433.021477821049, -3703.30407658864, -2701.230669168314, -3190.4433000616195, -2039.5072745689483, -8175.329348484201, -14956.803912735453, 0.016, -0.106, 0.99, 192.0, 0.0, 0.0, 0.0, 0.0, 0.0, 0.0, 0.0, 0.0, 0.0, 1.645922898383137E9, 0.0, 2022-02-27 11:48:18.383
2.0, -521.041514997663, -3020.212414290001, -2232.1569600292396, -9389.409052063114, 61.17672457417543, 316.1654253203184, -4887.521849575263, -1655.0349181932115, -2368.346138995426, -4242.674022039655, -3489.286123429075, -2464.235122708693, -2970.4574311324873, -1806.6915043224699, -7952.482456264789, -14850.186091683638, 0.016, -0.106, 0.99, 192.0, 0.0, 0.0, 0.0, 0.0, 0.0, 0.0, 0.0, 0.0, 0.0, 1.645922898389746E9, 0.0, 2022-02-27 11:48:18.389
4.0, -643.9761095018517, -3130.42886619912, -2353.7728016105657, -9502.374768540236, -61.95903563011118, 210.0616943909758, -4975.766536684816, -1738.5186837337833, -2591.774176570675, -4508.570374079987, -3748.6110625995475, -2738.7592481087745, -3239.9971175190353, -2070.442088895093, -8222.312715329255, -15071.043678646527, 0.016, -0.106, 0.99, 192.0, 0.0, 0.0, 0.0, 0.0, 0.0, 0.0, 0.0, 0.0, 0.0, 1.645922898397873E9, 0.0, 2022-02-27 11:48:18.397
6.0, -395.6482286033903, -2894.305037773256, -2110.764635892467, -9269.201370382472, 185.27360979004024, 429.0640865640744, -4768.029423717192, -1535.3413266350422, -2318.501748860091, -4250.541836087923, -3538.147036808376, -2530.105713618483, -3018.1560538001127, -1870.3045690422737, -8007.199526691381, -14823.11812914826, 0.016, -0.106, 0.99, 192.0, 0.0, 0.0, 0.0, 0.0, 0.0, 0.0, 0.0, 0.0, 0.0, 1.645922898405796E9, 0.0, 2022-02-27 11:48:18.405
8.0, -661.9022085550081, -3146.8573983737706, -2375.6104559434007, -9528.481606064035, -88.19998362064167, 169.20270552667446, -5023.5769180747175, -1796.8567367621347, -2522.394361781402, -4385.211096431148, -3611.6172208329704, -2595.8868975504515, -3104.076159486313, -1938.9691280089771, -8088.716338719886, -15007.542372649, 0.016, -0.096, 0.984, 192.0, 0.0, 64.0, 126.5, 0.0, 15.0, 96.0, 0.0, 0.0, 0.0, 1.64592289841959E9, 0.0, 2022-02-27 11:48:18.419
10.0, -472.5382295296466, -2954.3641751246664, -2188.4369478746594, -9333.172063013562, 92.89384995625615, 379.1302894509184, -4844.67355545444, -1587.8455743605584, -2465.419765164824, -4426.4947684401, -3699.1690038644083, -2700.0236749677274, -3193.4831373075413, -2022.899928438655, -8180.917284598027, -14966.839845995886, 0.016, -0.096, 0.984, 192.0, 0.0, 0.0, 0.0, 0.0, 0.0, 0.0, 0.0, 0.0, 0.0, 1.645922898427517E9, 0.0, 2022-02-27 11:48:18.427
12.0, -510.5138433592133, -3003.2474402484227, -2227.351334971349, -9377.741441457443, 58.82979140636819, 321.082809100486, -4871.540352289719, -1646.1612756444545, -2363.6746244042665, -4226.133731142728, -3486.894486772357, -2463.564570375034, -2970.479782876943, -1791.984056470878, -7958.293909823169, -14847.07919920435, 0.016, -0.096, 0.984, 192.0, 0.0, 0.0, 0.0, 0.0, 0.0, 0.0, 0.0, 0.0, 0.0, 1.645922898435428E9, 0.0, 2022-02-27 11:48:18.435
14.0, -636.6894408094216, -3118.4706829155307, -2351.045888787018, -9493.076442846828, -66.60819847681505, 216.4766450496489, -4969.93273138198, -1737.8928348890347, -2585.850964290019, -4499.316751875491, -3743.69367881938, -2732.2325387278247, -3237.6278326067727, -2067.4022516491714, -8220.546927517287, -15069.814332701486, 0.016, -0.096, 0.984, 192.0, 0.0, 0.0, 0.0, 0.0, 0.0, 0.0, 0.0, 0.0, 0.0, 1.645922898442651E9, 0.0, 2022-02-27 11:48:18.442
16.0, -397.30225769308305, -2895.1991075514684, -2109.781159136434, -9261.624129012123, 184.02191210054303, 443.3915547599262, -4764.788420771172, -1524.9477654633245, -2311.8632807568647, -4252.397030877713, -3536.090676318488, -2526.663544972366, -3019.0948270672357, -1847.9528245869667, -8010.418177892945, -14821.866431458764, 0.016, -0.096, 0.984, 192.0, 0.0, 0.0, 0.0, 0.0, 0.0, 0.0, 0.0, 0.0, 0.0, 1.64592289845015E9, 0.0, 2022-02-27 11:48:18.450
18.0, -671.1334790150498, -3153.9876048550136, -2376.0574908325066, -9519.160928626172, -82.63439925127021, 186.03356910152067, -5026.169720431533, -1782.7080825219255, -2521.9249751478405, -4383.020625474528, -3610.6560958213922, -2591.7965283151307, -3098.04118848338, -1914.1586916635863, -8086.324702063168, -14999.182820222715, 0.014, -0.1, 0.984, 192.0, 0.0, 56.0, 126.0, 112.0, 15.0, 96.0, 0.0, 0.0, 0.0, 1.645922898458112E9, 0.0, 2022-02-27 11:48:18.458
20.0, -496.34283737454865, -2983.600256872208, -2190.582715342369, -9336.36836247067, 104.53910881747113, 376.42572837182627, -4822.81354937715, -1581.922362079902, -2472.4382129237906, -4432.261518509569, -3707.059169657132, -2698.347294133579, -3194.8018902304043, -2018.8542626922444, -8180.358490986645, -14961.497779071067, 0.014, -0.1, 0.984, 192.0, 0.0, 0.0, 0.0, 0.0, 0.0, 0.0, 0.0, 0.0, 0.0, 1.645922898466202E9, 0.0, 2022-02-27 11:48:18.466
22.0, -559.8217916276207, -3048.7108884705176, -2224.445608192159, -9385.452793294526, 74.14073635825353, 316.12072183140776, -4880.279884371744, -1655.8619327380577, -2365.8427436164316, -4244.529216829445, -3491.1413182188653, -2474.9639600472406, -2966.791745041817, -1797.9296204959894, -7954.561168499133, -14847.615641071277, 0.014, -0.1, 0.984, 192.0, 0.0, 0.0, 0.0, 0.0, 0.0, 0.0, 0.0, 0.0, 0.0, 1.645922898472253E9, 0.0, 2022-02-27 11:48:18.472
24.0, -731.5055407888342, -3211.096311938323, -2359.8301243579535, -9509.482623277025, -67.21169557710834, 206.75363621159033, -4977.331158796687, -1751.1921228399424, -2614.1259210259823, -4532.509092391621, -3761.4186121724383, -2758.249969273802, -3241.9193675421916, -2073.1466499741855, -8219.474043783432, -15075.402268815313, 0.014, -0.1, 0.984, 192.0, 0.0, 0.0, 0.0, 0.0, 0.0, 0.0, 0.0, 0.0, 0.0, 1.645922898479788E9, 0.0, 2022-02-27 11:48:18.479
26.0, -532.3514976920483, -3025.0850945812576, -2119.2359470410283, -9275.772783252332, 191.5097464930709, 438.9435576133201, -4757.4346968453765, -1513.2130996242881, -2357.662005145789, -4299.04512155594, -3570.1770866128313, -2565.399118113413, -3030.091885339247, -1865.6330544511145, -8009.233535436814, -14826.157966394183, 0.014, -0.1, 0.984, 192.0, 0.0, 0.0, 0.0, 0.0, 0.0, 0.0, 0.0, 0.0, 0.0, 1.645922898487752E9, 0.0, 2022-02-27 11:48:18.487
28.0, -852.3837748031349, -3323.4361795706964, -2386.607514215412, -9533.577803799844, -72.08437586836527, 183.77604291153466, -4999.8617172076365, -1770.369919582596, -2577.6255223304656, -4436.150722044793, -3653.4596864533055, -2635.382430002979, -3101.528060618408, -1926.1168749471756, -8072.801896667707, -14995.204209709671, 0.012, -0.106, 0.99, 192.0, 0.0, 48.0, 126.0, 88.0, 15.0, 120.0, 0.0, 0.0, 0.0, 1.645922898495015E9, 0.0, 2022-02-27 11:48:18.495
30.0, -710.6737149564881, -3179.91562842317, -2205.3348666828715, -9354.450923735014, 125.16976894971955, 377.34214989449384, -4795.700883352863, -1567.8407630730585, -2547.160094637882, -4498.713254775197, -3767.4088796864608, -2764.6202164435645, -3201.8426897338263, -2037.965004201532, -8172.200104260458, -14963.867063983329, 0.012, -0.106, 0.99, 192.0, 0.0, 0.0, 0.0, 0.0, 0.0, 0.0, 0.0, 0.0, 0.0, 1.645922898502351E9, 0.0, 2022-02-27 11:48:18.502
32.0, -760.0710702027167, -3246.7696960889934, -2235.7555908865443, -9397.567438789301, 89.47403305459417, 328.4812365151926, -4860.945625417903, -1629.2186533473318, -2437.2342154066823, -4307.628191426777, -3553.390926526896, -2535.9395189213183, -2973.6090271006856, -1804.8139577882241, -7944.435828260878, -14838.049094444406, 0.012, -0.106, 0.99, 192.0, 0.0, 0.0, 0.0, 0.0, 0.0, 0.0, 0.0, 0.0, 0.0, 1.645922898510395E9, 0.0, 2022-02-27 11:48:18.510
34.0, -915.147473233637, -3387.5409826685172, -2375.0293105875626, -9527.006390929984, -55.208808804608445, 207.71476122316852, -4967.5187429808075, -1735.2776807877638, -2680.4882503137887, -4596.122157111426, -3819.5107960117816, -2817.571499058187, -3246.523826899985, -2081.863830311755, -8216.3895030486, -15069.188483856737, 0.012, -0.106, 0.99, 192.0, 0.0, 0.0, 0.0, 0.0, 0.0, 0.0, 0.0, 0.0, 0.0, 1.645922898520104E9, 0.0, 2022-02-27 11:48:18.520
36.0, -668.4065661915024, -3150.7913053979046, -2131.4847030025367, -9289.36264388116, 201.56803149795908, 440.64229019192345, -4747.935205451871, -1515.9623641922908, -2423.532596055579, -4352.197569870659, -3628.895119296923, -2621.457293207323, -3046.632176236174, -1880.5416680028045, -8010.082901726116, -14824.570992537856, 0.012, -0.106, 0.991, 192.0, 0.0, 48.0, 126.0, 88.0, 15.5, 0.0, 0.0, 0.0, 0.0, 1.645922898524983E9, 0.0, 2022-02-27 11:48:18.524
38.0, -915.862729056207, -3387.5409826685172, -2386.205182815216, -9543.479626593546, -67.94930314413347, 186.12297607934192, -5004.5555835432515, -1779.2882656202635, -2616.159929771415, -4460.715289201175, -3686.7637856917127, -2666.585465262588, -3113.9109270466483, -1931.8165697832787, -8074.411222268489, -14996.791183565998, 0.012, -0.106, 0.991, 192.0, 0.0, 0.0, 0.0, 0.0, 0.0, 0.0, 0.0, 0.0, 0.0, 1.645922898539971E9, 0.0, 2022-02-27 11:48:18.539
40.0, -734.0536396567393, -3208.548213070418, -2203.1220439817957, -9367.61610121919, 119.17950143569726, 372.11184169195195, -4790.671740850418, -1565.180905482877, -2559.1182779214714, -4522.204938197725, -3776.1260600240303, -2784.4015102865114, -3208.9505444706137, -2039.2614053799398, -8177.09513629617, -14968.940909974684, 0.012, -0.106, 0.991, 192.0, 0.0, 0.0, 0.0, 0.0, 0.0, 0.0, 0.0, 0.0, 0.0, 1.645922898548135E9, 0.0, 2022-02-27 11:48:18.548
42.0, -743.6648897725213, -3226.4743121235747, -2230.5252826840024, -9398.506212056423, 97.09597791385389, 328.92827140429875, -4843.131285087024, -1615.9193653964242, -2438.0612299515283, -4310.556269950423, -3552.787429426602, -2541.5721585240553, -2977.073547491258, -1813.3076206812407, -7941.328935781591, -14838.22790840005, 0.012, -0.106, 0.991, 192.0, 0.0, 0.0, 0.0, 0.0, 0.0, 0.0, 0.0, 0.0, 0.0, 1.645922898554545E9, 0.0, 2022-02-27 11:48:18.554
44.0, -871.0474814233162, -3342.8151420134477, -2373.7329094091547, -9530.806187487387, -59.88032339576762, 206.50776702258196, -4966.557617969229, -1733.176616808965, -2678.6554072684535, -4580.47593599271, -3817.6779529664464, -2809.949554198927, -3257.1409055162558, -2067.089327226797, -8210.57804949022, -15065.880425677351, 0.012, -0.106, 0.991, 192.0, 0.0, 0.0, 0.0, 0.0, 0.0, 0.0, 0.0, 0.0, 0.0, 1.645922898562629E9, 0.0, 2022-02-27 11:48:18.562
46.0, -597.7750537127321, -3090.396891879665, -2118.7665604074673, -9288.446222358492, 198.0811593629312, 430.31578425357156, -4740.134446636969, -1529.0828381875563, -2399.4597672772134, -4328.5717759814, -3612.086607466532, -2601.94422029784, -3045.671051224596, -1878.5747144907373, -8014.195622705892, -14830.337742607326, 0.013000000000000001, -0.10500000000000001, 0.9895, 192.0, 0.0, 56.0, 126.0, 96.0, 15.0, 112.0, 0.0, 0.0, 0.0, 1.64592289857066E9, 0.0, 2022-02-27 11:48:18.570
48.0, -833.0718675937495, -3320.217528369132, -2372.078880319462, -9533.644859033211, -62.406070519217316, 182.8819731333224, -4983.299074566255, -1736.663488943993, -2577.402004885913, -4444.286757026524, -3646.8435700945342, -2632.5661102016106, -3093.0343977253915, -1921.288898144829, -8050.07017255666, -14977.993366479084, 0.013000000000000001, -0.10500000000000001, 0.9895, 192.0, 0.0, 0.0, 0.0, 0.0, 0.0, 0.0, 0.0, 0.0, 0.0, 1.64592289857777E9, 0.0, 2022-02-27 11:48:18.577
50.0, -635.9965367313072, -3120.9293748056148, -2186.8276222738773, -9343.163292785084, 117.97250723511068, 375.9786934827201, -4803.881621823504, -1555.1896757113548, -2564.013309957184, -4524.887147532362, -3770.538123910204, -2776.287827049235, -3226.6754778236723, -2054.393536376183, -8192.51783997033, -14987.045822983484, 0.013000000000000001, -0.10500000000000001, 0.9895, 192.0, 0.0, 0.0, 0.0, 0.0, 0.0, 0.0, 0.0, 0.0, 0.0, 1.645922898585286E9, 0.0, 2022-02-27 11:48:18.585
52.0, -666.7301853573543, -3157.094497334301, -2234.950928086153, -9396.293389355349, 74.25249508053007, 307.7164659162123, -4877.620026781563, -1644.9319296994126, -2439.8270177634977, -4295.602952909822, -3538.5493682085717, -2522.327306548036, -2990.7975185868168, -1811.7653503138247, -7956.416363288923, -14861.65253658921, 0.013000000000000001, -0.10500000000000001, 0.9895, 192.0, 0.0, 0.0, 0.0, 0.0, 0.0, 0.0, 0.0, 0.0, 0.0, 1.645922898592132E9, 0.0, 2022-02-27 11:48:18.592
54.0, -814.3187539957469, -3297.8210804249147, -2386.607514215412, -9544.440751605123, -80.93566667266687, 174.0977375623867, -5000.241696863377, -1776.9413324524562, -2664.19382860587, -4583.269904049624, -3791.772281142745, -2788.7153969663855, -3254.4139926927082, -2082.802603578878, -8216.858889682162, -15083.717117752687, 0.013000000000000001, -0.10500000000000001, 0.9895, 192.0, 0.0, 0.0, 0.0, 0.0, 0.0, 0.0, 0.0, 0.0, 0.0, 1.645922898600265E9, 0.0, 2022-02-27 11:48:18.600
56.0, -529.6916401018668, -3028.8625393942048, -2117.447807484604, -9289.340292136705, 189.9227726367441, 425.0184208176638, -4757.077068934092, -1527.473512586774, -2384.975836870174, -4340.731124965087, -3599.7931480161133, -2602.905345309418, -3054.0976588842464, -1893.0586448977763, -8025.460901911367, -14840.328972378848, 0.0115, -0.10850000000000001, 0.98675, 192.0, 0.0, 40.0, 126.0, 64.0, 15.0, 96.0, 0.0, 0.0, 0.0, 1.645922898607351E9, 0.0, 2022-02-27 11:48:18.607
58.0, -774.510297120845, -3267.3109492434205, -2375.878676876864, -9541.400914359203, -73.44783228013901, 169.9850165826102, -4998.341798584676, -1761.8092014562133, -2558.939463965829, -4434.899024355295, -3636.1594362448977, -2629.4368659778675, -3107.4289211546093, -1931.101313960709, -8065.694041930919, -14987.470506128135, 0.0115, -0.10850000000000001, 0.98675, 192.0, 0.0, 0.0, 0.0, 0.0, 0.0, 0.0, 0.0, 0.0, 0.0, 1.645922898614917E9, 0.0, 2022-02-27 11:48:18.614
60.0, -593.617629244045, -3086.440633111076, -2201.7138840811117, -9360.999984860418, 100.6275535377924, 356.9573589512538, -4817.04679930768, -1579.8436498455585, -2517.2758123011367, -4492.164193649793, -3739.7821235397014, -2746.3141377346683, -3217.332448641354, -2045.7210595275235, -8181.6772439095075, -14970.885511742295, 0.0115, -0.10850000000000001, 0.98675, 192.0, 0.0, 0.0, 0.0, 0.0, 0.0, 0.0, 0.0, 0.0, 0.0, 1.645922898622891E9, 0.0, 2022-02-27 11:48:18.622
62.0, -597.4621292903578, -3098.9576100060476, -2213.381494686782, -9379.373118802681, 89.09405339885396, 332.5045505171479, -4858.621043994552, -1627.7210864688261, -2387.300418293526, -4273.005339265506, -3509.2015277387536, -2498.679160914321, -2982.236800460434, -1799.3154286522185, -7948.19092132937, -14837.065617688373, 0.0115, -0.10850000000000001, 0.98675, 192.0, 0.0, 0.0, 0.0, 0.0, 0.0, 0.0, 0.0, 0.0, 0.0, 1.645922898630042E9, 0.0, 2022-02-27 11:48:18.630
64.0, -723.4365610404684, -3212.68328579465, -2349.525970164057, -9510.60021049979, -49.10678256830962, 215.76138922707906, -4967.786963914271, -1749.3816315390625, -2628.90042411094, -4548.4235344438, -3762.1562197394637, -2764.9107891214835, -3245.316832699398, -2059.1544579451634, -8207.202936077469, -15073.725887981163, 0.0115, -0.10850000000000001, 0.98675, 192.0, 0.0, 0.0, 0.0, 0.0, 0.0, 0.0, 0.0, 0.0, 0.0, 1.645922898637644E9, 0.0, 2022-02-27 11:48:18.637
66.0, -476.6062470205125, -2979.576942870253, -2112.8433481268107, -9277.337405364206, 204.25024083259595, 444.5761972160575, -4758.75344976824, -1516.2305851257545, -2350.6882608757332, -4289.679740629165, -3551.1334003369097, -2551.652795273399, -3023.6769346805736, -1842.9236820845226, -7990.078090438616, -14822.514632047967, 0.01175, -0.10725000000000001, 0.984375, 192.0, 0.0, 48.0, 126.0, 88.0, 15.0, 88.0, 0.0, 0.0, 0.0, 1.645922898645444E9, 0.0, 2022-02-27 11:48:18.645
68.0, -722.609546495622, -3214.8290532623596, -2368.1226215508727, -9532.661382277178, -55.65584369371459, 187.62054295784748, -4984.930751911492, -1783.848021489146, -2574.7197955512756, -4429.825178363941, -3633.3878199324395, -2622.396066474446, -3103.7632350639387, -1928.7543807929017, -8069.158562321492, -15006.78241333752, 0.01175, -0.10725000000000001, 0.984375, 192.0, 0.0, 0.0, 0.0, 0.0, 0.0, 0.0, 0.0, 0.0, 0.0, 1.645922898653551E9, 0.0, 2022-02-27 11:48:18.653
70.0, -534.6090238820343, -3031.6118039622074, -2191.7450060540446, -9350.13703705514, 124.45451312714972, 379.5102691066586, -4800.148880499468, -1562.8563240595252, -2521.7014577032874, -4490.0631296709935, -3735.781161282201, -2742.6260998995426, -3208.4364543481415, -2048.7608967734454, -8185.387633489089, -14995.628892854322, 0.01175, -0.10725000000000001, 0.984375, 192.0, 0.0, 0.0, 0.0, 0.0, 0.0, 0.0, 0.0, 0.0, 0.0, 1.645922898667158E9, 0.0, 2022-02-27 11:48:18.667
72.0, -552.6692334019224, -3057.5174757859086, -2221.405770946237, -9387.24093285095, 90.54691678844891, 325.2625853136284, -4876.413032580976, -1625.9105951679464, -2387.725101438177, -4271.12779273126, -3501.020789268111, -2484.262285740648, -2968.8034020427945, -1799.4718908634056, -7947.43096201789, -14853.337687651836, 0.01175, -0.10725000000000001, 0.984375, 192.0, 0.0, 0.0, 0.0, 0.0, 0.0, 0.0, 0.0, 0.0, 0.0, 1.645922898675345E9, 0.0, 2022-02-27 11:48:18.675
74.0, -704.2140608089043, -3192.320846595865, -2371.9000663638194, -9532.16964389916, -77.33703581536244, 186.92763887973297, -4998.945295684969, -1745.112448348099, -2620.1832437733706, -4521.668496330797, -3751.650899845469, -2748.705774391386, -3231.1234749702785, -2062.8201440358334, -8213.90845941406, -15082.577178785466, 0.01175, -0.10725000000000001, 0.984375, 192.0, 0.0, 0.0, 0.0, 0.0, 0.0, 0.0, 0.0, 0.0, 0.0, 1.645922898683276E9, 0.0, 2022-02-27 11:48:18.683
76.0, -438.18359830183965, -2944.7082215199734, -2109.3117725028724, -9283.640597300602, 185.74299642360168, 431.075743565052, -4740.715591992806, -1516.7446752482267, -2337.5901386249234, -4285.0305777824615, -3546.4171822568396, -2555.564350553078, -3023.7439899139395, -1871.84683940969, -8009.233535436814, -14832.304696119392, 0.008875000000000001, -0.10462500000000001, 0.9861875, 192.0, 0.0, 24.0, 126.0, 104.0, 15.0, 112.0, 0.0, 0.0, 0.0, 1.645922898689864E9, 0.0, 2022-02-27 11:48:18.689
78.0, -689.9759995908737, -3187.8281459603486, -2360.0759935469623, -9535.36594335627, -68.28457931096308, 177.13757480830847, -4978.98518788638, -1771.9568934389226, -2542.8015044690974, -4424.974849817139, -3612.7124563112807, -2605.9898860442504, -3091.2239064245114, -1924.6640115575806, -8068.420954754467, -15009.509326161067, 0.008875000000000001, -0.10462500000000001, 0.9861875, 192.0, 0.0, 0.0, 0.0, 0.0, 0.0, 0.0, 0.0, 0.0, 0.0, 1.64592289869784E9, 0.0, 2022-02-27 11:48:18.697
80.0, -504.4341688673698, -3002.9121640815933, -2185.3300553953713, -9352.081638822752, 111.69166704316939, 360.26541713063926, -4802.920496811927, -1588.8737546055027, -2502.166033049349, -4494.824051239973, -3724.5158820767265, -2733.2830707172243, -3200.8592129777926, -2057.4333736221047, -8184.806488133251, -15002.602637124377, 0.008875000000000001, -0.10462500000000001, 0.9861875, 192.0, 0.0, 0.0, 0.0, 0.0, 0.0, 0.0, 0.0, 0.0, 0.0, 1.645922898705717E9, 0.0, 2022-02-27 11:48:18.705
82.0, -525.4224569109031, -3026.4261992485763, -2216.689552866167, -9377.00383389042, 79.86278293881213, 322.26745155661723, -4870.132192389035, -1653.626758292527, -2358.667833646278, -4254.922778001163, -3481.574771591994, -2470.4042041783578, -2954.0736024467474, -1794.107472194132, -7942.424171259901, -14860.93728076664, 0.008875000000000001, -0.10462500000000001, 0.9861875, 192.0, 0.0, 0.0, 0.0, 0.0, 0.0, 0.0, 0.0, 0.0, 0.0, 1.645922898712988E9, 0.0, 2022-02-27 11:48:18.712
84.0, -689.4619094684017, -3181.7037679795944, -2384.5064502366126, -9528.593364786311, -94.9502104461444, 181.25029578808497, -4997.268914850822, -1751.8403234291463, -2608.426226189879, -4529.759827823618, -3744.543045108682, -2745.196550511903, -3233.0904284823455, -2063.8259725363223, -8213.304962313767, -15085.102925908915, 0.008875000000000001, -0.10462500000000001, 0.9861875, 192.0, 0.0, 0.0, 0.0, 0.0, 0.0, 0.0, 0.0, 0.0, 0.0, 1.645922898719351E9, 0.0, 2022-02-27 11:48:18.719
86.0, -418.4917114367141, -2927.3185643337447, -2117.648973184702, -9273.492905317891, 185.1394993233084, 425.53251094013586, -4740.447371059343, -1534.089628945545, -2331.666926344267, -4294.060682542406, -3550.3510892809736, -2545.461362059279, -3026.135626570657, -1861.6320921936147, -8012.005151749272, -14832.617620541767, 0.0064375000000000005, -0.1043125, 0.98709375, 192.0, 0.0, 16.0, 126.0, 96.0, 15.0, 112.0, 0.0, 0.0, 0.0, 1.645922898727549E9, 0.0, 2022-02-27 11:48:18.727
88.0, -671.4687551818795, -3169.6338259737286, -2370.022519829574, -9526.335838596326, -74.87834392527866, 180.87031613234475, -5000.50991779684, -1759.305806077219, -2530.4409897853125, -4407.048750763983, -3609.0691219650653, -2592.6235428599766, -3090.2180779240225, -1915.7680172643684, -8074.053594357204, -15007.542372649, 0.0064375000000000005, -0.1043125, 0.98709375, 192.0, 0.0, 0.0, 0.0, 0.0, 0.0, 0.0, 0.0, 0.0, 0.0, 1.645922898735767E9, 0.0, 2022-02-27 11:48:18.735
90.0, -497.5721833195905, -2998.732387868451, -2192.281447920972, -9357.088429580741, 106.50606232953815, 359.5278095636141, -4812.151767271968, -1584.8504406035472, -2495.1922887792934, -4486.218629624681, -3722.794797753668, -2736.2111492408694, -3212.482120094552, -2056.4946003549817, -8200.162136574047, -14999.473392900634, 0.0064375000000000005, -0.1043125, 0.98709375, 192.0, 0.0, 0.0, 0.0, 0.0, 0.0, 0.0, 0.0, 0.0, 0.0, 1.645922898742967E9, 0.0, 2022-02-27 11:48:18.742
92.0, -526.2941749446601, -3032.1929493180455, -2220.0423145344635, -9391.24189510845, 83.26024809601881, 314.533747975081, -4875.2507418693, -1652.7103367698596, -2361.238284258638, -4254.967481490074, -3488.347350161952, -2482.5635531620446, -2963.4836868624316, -1803.5399083542716, -7947.498017251256, -14861.473722633567, 0.0064375000000000005, -0.1043125, 0.98709375, 192.0, 0.0, 0.0, 0.0, 0.0, 0.0, 0.0, 0.0, 0.0, 0.0, 1.645922898750872E9, 0.0, 2022-02-27 11:48:18.750
94.0, -700.771892162787, -3192.4549570625973, -2388.6638747053, -9540.88682423673, -93.3408848453623, 186.88293539082235, -4988.03764439078, -1742.2961285467302, -2612.4718919362895, -4532.643202858353, -3755.2271789583183, -2760.9098268639837, -3234.1633122162, -2068.6986528275793, -8211.42741577952, -15085.751126498119, 0.0064375000000000005, -0.1043125, 0.98709375, 192.0, 0.0, 0.0, 0.0, 0.0, 0.0, 0.0, 0.0, 0.0, 0.0, 1.645922898757393E9, 0.0, 2022-02-27 11:48:18.757
96.0, -429.64523191991236, -2936.8404074717055, -2125.0026971104976, -9285.40638511257, 184.24542954509613, 432.39449648791515, -4735.440580301354, -1506.3287623320537, -2340.115885748373, -4314.914860119207, -3568.2324848452195, -2575.7256240517645, -3036.6409464646517, -1874.7972696777904, -8016.922535529439, -14830.024818184951, 0.00721875, -0.10615625000000001, 0.9845468749999999, 192.0, 0.0, 32.0, 126.0, 80.0, 15.0, 88.0, 0.0, 0.0, 0.0, 1.645922898765509E9, 0.0, 2022-02-27 11:48:18.765
98.0, -667.8924760690303, -3163.1518200816895, -2370.7824791410544, -9531.186167143127, -71.41382353470607, 183.44076674470506, -4988.216458346422, -1765.0949078911435, -2528.205815339782, -4416.816463090952, -3613.1594912003866, -2601.1842609863593, -3087.781737778394, -1920.260717899885, -8067.281015787246, -14995.360671920858, 0.00721875, -0.10615625000000001, 0.9845468749999999, 192.0, 0.0, 0.0, 0.0, 0.0, 0.0, 0.0, 0.0, 0.0, 0.0, 1.64592289877339E9, 0.0, 2022-02-27 11:48:18.773
100.0, -504.8365002675653, -3000.721693124973, -2199.8586892913213, -9358.317775525782, 98.68295177018068, 363.0817369320079, -4809.983648059803, -1575.5297631656842, -2498.1203673029386, -4481.055376655505, -3729.589728068081, -2740.7262016208415, -3209.9563729711026, -2058.8862370116994, -8200.944447629983, -14999.831020811918, 0.00721875, -0.10615625000000001, 0.9845468749999999, 192.0, 0.0, 0.0, 0.0, 0.0, 0.0, 0.0, 0.0, 0.0, 0.0, 1.645922898786979E9, 0.0, 2022-02-27 11:48:18.786
102.0, -525.9588987778305, -3030.136588828157, -2222.9480413136534, -9390.616046263702, 79.37104456079538, 328.3024225595501, -4851.736706702317, -1619.8756241650135, -2370.2907407630373, -4263.751717061009, -3495.052873498544, -2480.976579305718, -2967.574056097753, -1806.6915043224699, -7951.566034742122, -14851.169568439671, 0.00721875, -0.10615625000000001, 0.9845468749999999, 192.0, 0.0, 0.0, 0.0, 0.0, 0.0, 0.0, 0.0, 0.0, 0.0, 1.64592289879513E9, 0.0, 2022-02-27 11:48:18.795
104.0, -685.9526855889185, -3176.6075702437843, -2387.2557148046153, -9540.238623647527, -88.33409408737351, 176.10939456336433, -4985.288379822777, -1757.629425243071, -2605.3416854550464, -4541.002755284638, -3744.9006730199667, -2745.6212336565536, -3229.424742391675, -2067.7151760715456, -8214.444901280987, -15083.672414263776, 0.00721875, -0.10615625000000001, 0.9845468749999999, 192.0, 0.0, 0.0, 0.0, 0.0, 0.0, 0.0, 0.0, 0.0, 0.0, 1.645922898803071E9, 0.0, 2022-02-27 11:48:18.803
106.0, -417.4411794473147, -2922.535291020309, -2120.264127285973, -9283.394728111592, 190.57097322594802, 426.56069118508, -4746.437638573366, -1516.8564339705033, -2330.571690865957, -4302.487290202056, -3552.8768364044236, -2559.6770715328544, -3024.7498184144283, -1870.7292521869247, -8014.687361083908, -14834.070483931362, 0.012, -0.108, 0.988, 192.0, 0.0, 48.0, 126.0, 80.0, 15.0, 112.0, 0.0, 0.0, 0.0, 1.64592289880964E9, 0.0, 2022-02-27 11:48:18.809
108.0, -673.7486331163208, -3164.358814282276, -2376.6386361883447, -9529.532138053435, -82.9249719291892, 171.34847299438394, -5005.181432388, -1776.0919661631544, -2538.621728255955, -4409.820367076441, -3610.8572615214903, -2598.882031307463, -3093.213211681034, -1920.6406975556254, -8073.248931556814, -15003.988445280605, 0.012, -0.108, 0.988, 192.0, 0.0, 0.0, 0.0, 0.0, 0.0, 0.0, 0.0, 0.0, 0.0, 1.645922898818494E9, 0.0, 2022-02-27 11:48:18.818
110.0, -505.50705260122453, -2997.570097156775, -2213.9179365537093, -9358.116609825684, 85.40601556372829, 361.80768749805543, -4825.473406967331, -1579.2401527452653, -2517.7451989346982, -4487.827955225463, -3736.8987485049665, -2743.3413557221124, -3230.944661014636, -2067.6034173492694, -8214.735473958906, -15005.508363903567, 0.012, -0.108, 0.988, 192.0, 0.0, 0.0, 0.0, 0.0, 0.0, 0.0, 0.0, 0.0, 0.0, 1.645922898825583E9, 0.0, 2022-02-27 11:48:18.825
112.0, -509.8209392810988, -3013.21631827549, -2221.4281226906924, -9379.149601358129, 79.03576839396577, 334.98559415168694, -4879.475221571353, -1641.9144441979463, -2371.0283483300627, -4253.246397167015, -3488.1014809729436, -2473.7569658466537, -2977.967617269471, -1798.7789867852912, -7957.1539708559485, -14847.615641071277, 0.012, -0.108, 0.988, 192.0, 0.0, 0.0, 0.0, 0.0, 0.0, 0.0, 0.0, 0.0, 0.0, 1.645922898832749E9, 0.0, 2022-02-27 11:48:18.832
114.0, -678.2636854962929, -3168.426831773142, -2390.943752639741, -9542.294984137414, -105.79080650696832, 169.3368159934063, -5026.214423920444, -1769.0958701486434, -2606.392217444446, -4537.828807571985, -3734.5965188260698, -2738.06634403066, -3232.2187104485884, -2057.8133532778447, -8222.737398473906, -15083.717117752687, 0.012, -0.108, 0.988, 192.0, 0.0, 0.0, 0.0, 0.0, 0.0, 0.0, 0.0, 0.0, 0.0, 1.645922898839396E9, 0.0, 2022-02-27 11:48:18.839
116.0, -413.5966794010019, -2917.5955554956863, -2125.5614907218805, -9288.446222358492, 176.46702247464927, 417.4188277028594, -4758.641691045963, -1539.5211028481845, -2344.005089283596, -4303.381359980269, -3556.5872259840044, -2565.421469857868, -3044.8440366797495, -1880.3852057916172, -8031.898204314495, -14841.22304215706, 0.01, -0.108, 0.99, 192.0, 0.0, 40.0, 126.0, 80.0, 15.0, 120.0, 0.0, 0.0, 0.0, 1.645922898847277E9, 0.0, 2022-02-27 11:48:18.847
118.0, -665.679653367955, -3155.2616542889664, -2373.6435024313337, -9532.683734021633, -84.93662893016683, 165.73818513610186, -4996.061920650234, -1782.5516203107381, -2536.8335886995305, -4404.925335040729, -3606.6551335638924, -2598.65851386291, -3097.795319294372, -1928.8884912596336, -8073.405393768, -15005.575419136932, 0.01, -0.108, 0.99, 192.0, 0.0, 0.0, 0.0, 0.0, 0.0, 0.0, 0.0, 0.0, 0.0, 1.645922898855242E9, 0.0, 2022-02-27 11:48:18.855
120.0, -505.3729421344927, -2994.6867221220405, -2217.918898811209, -9368.823095419777, 77.22527709308591, 337.48898953068135, -4823.797026133183, -1599.088501821578, -2521.232071069726, -4498.266219886091, -3741.4361526293937, -2748.683422646931, -3234.811512805404, -2077.8405163098, -8213.059093124759, -15010.202230239182, 0.01, -0.108, 0.99, 192.0, 0.0, 0.0, 0.0, 0.0, 0.0, 0.0, 0.0, 0.0, 0.0, 1.645922898862384E9, 0.0, 2022-02-27 11:48:18.862
122.0, -501.2155176658056, -3003.4486059485207, -2220.86932907931, -9378.389642046648, 85.00368416353275, 316.2324805536843, -4860.163314361967, -1647.5247320562282, -2362.400574970314, -4257.2026559356045, -3490.4931176296614, -2476.6626926258436, -2972.245570688912, -1812.4582543919391, -7953.28711906518, -14849.873167261263, 0.01, -0.108, 0.99, 192.0, 0.0, 0.0, 0.0, 0.0, 0.0, 0.0, 0.0, 0.0, 0.0, 1.645922898870104E9, 0.0, 2022-02-27 11:48:18.870
124.0, -667.9818830468515, -3156.2227793005445, -2386.272238048582, -9541.758542270487, -92.02213192249917, 164.08415604640913, -5007.215441133433, -1780.0929284206545, -2601.877165064474, -4531.011525513116, -3736.3846583824943, -2735.384134696023, -3231.034067992457, -2070.9785307620205, -8215.540136759299, -15090.065013177993, 0.01, -0.108, 0.99, 192.0, 0.0, 0.0, 0.0, 0.0, 0.0, 0.0, 0.0, 0.0, 0.0, 1.645922898877955E9, 0.0, 2022-02-27 11:48:18.877
126.0, -395.4023594143819, -2897.4342819969993, -2110.9210981036545, -9286.680434546523, 191.1744703262413, 419.49753993720293, -4757.9040834789375, -1532.8602830005032, -2328.1800542092387, -4299.067473300394, -3547.735935179703, -2557.7101180207874, -3035.992745875448, -1895.3161710877623, -8026.489082156311, -14846.430998615146, 0.014, -0.10400000000000001, 0.992, 192.0, 0.0, 56.0, 126.0, 96.0, 15.5, 0.0, 0.0, 0.0, 0.0, 1.645922898885839E9, 0.0, 2022-02-27 11:48:18.885
128.0, -644.0208129907624, -3134.630994156718, -2361.6406156588337, -9532.236699132527, -68.44104152215023, 172.55546719497053, -5006.7237027554165, -1780.271742376297, -2517.6334402124216, -4396.834003547908, -3591.701816523292, -2589.136670724949, -3081.0315109528915, -1930.0284302268542, -8066.766925664774, -15009.263456972058, 0.014, -0.10400000000000001, 0.992, 192.0, 0.0, 0.0, 0.0, 0.0, 0.0, 0.0, 0.0, 0.0, 0.0, 1.645922898893131E9, 0.0, 2022-02-27 11:48:18.893
130.0, -493.1018344285291, -2985.0978237507134, -2211.861576063821, -9369.538351242347, 85.4283673081836, 344.99917566766453, -4839.19737806289, -1602.7318361677928, -2507.3739895074355, -4492.678283772264, -3731.6907920468802, -2744.3248324781457, -3225.8261115343707, -2075.3371209308057, -8212.075616368726, -15016.63953264231, 0.014, -0.10400000000000001, 0.992, 192.0, 0.0, 0.0, 0.0, 0.0, 0.0, 0.0, 0.0, 0.0, 0.0, 1.645922898900601E9, 0.0, 2022-02-27 11:48:18.900
132.0, -489.5032035712247, -2991.8256988317607, -2216.7119046106227, -9378.568456002291, 85.16014637471991, 322.64743121235745, -4875.004872680292, -1641.2885953531977, -2354.018670799574, -4249.737173287532, -3488.9731990067007, -2473.2875792130926, -2969.4292508875433, -1804.9704199994112, -7955.298776066158, -14853.047114973917, 0.014, -0.10400000000000001, 0.992, 192.0, 0.0, 0.0, 0.0, 0.0, 0.0, 0.0, 0.0, 0.0, 0.0, 1.645922898915563E9, 0.0, 2022-02-27 11:48:18.915
134.0, -660.5611038876896, -3145.985680340014, -2386.1157758373947, -9540.350382369803, -90.8374894663679, 179.26099053156264, -5013.116301669634, -1770.1911056269535, -2596.937429539851, -4520.215632941203, -3736.116437449031, -2728.186872981414, -3225.3343731563536, -2066.865809782244, -8213.416721036045, -15088.858018977407, 0.014, -0.10400000000000001, 0.992, 192.0, 0.0, 0.0, 0.0, 0.0, 0.0, 0.0, 0.0, 0.0, 0.0, 1.645922898922175E9, 0.0, 2022-02-27 11:48:18.922
136.0, -387.55689711056914, -2886.6607411695413, -2112.441016726615, -9278.142068164596, 192.44851976019382, 430.27108076466095, -4754.819542744105, -1518.1975386378217, -2324.447312885203, -4285.768185349487, -3552.9885951267, -2552.4127545848796, -3031.2988795398333, -1882.2404005814078, -8029.0595327686715, -14843.838196258332, 0.016, -0.1, 0.99, 192.0, 0.0, 64.0, 126.0, 112.0, 15.0, 120.0, 0.0, 0.0, 0.0, 1.645922898930231E9, 0.0, 2022-02-27 11:48:18.930
138.0, -630.1403796840167, -3120.95172655007, -2359.1148685353837, -9523.877146706242, -54.47120123758331, 186.30179003498438, -4990.98807465888, -1794.107472194132, -2508.044541841095, -4379.91373299524, -3588.438461832817, -2578.1843159418486, -3071.822592237305, -1913.8904707301226, -8061.626024440054, -15002.4908784021, 0.016, -0.1, 0.99, 192.0, 0.0, 0.0, 0.0, 0.0, 0.0, 0.0, 0.0, 0.0, 0.0, 1.645922898938323E9, 0.0, 2022-02-27 11:48:18.938
140.0, -492.56539256160175, -2979.4651841479763, -2219.9082040677317, -9374.120458855685, 84.71311148561377, 336.55021626355847, -4841.343145530599, -1605.3693420135191, -2505.071759828539, -4487.760899992097, -3732.562510080637, -2743.9895563113164, -3217.8241870193706, -2074.5324581304144, -8210.220421578935, -15024.932029835229, 0.016, -0.1, 0.99, 192.0, 0.0, 0.0, 0.0, 0.0, 0.0, 0.0, 0.0, 0.0, 0.0, 1.645922898944849E9, 0.0, 2022-02-27 11:48:18.944
142.0, -480.92013370038677, -2979.1522597256017, -2213.984991787075, -9373.293444310839, 86.94828593114447, 325.84373066946637, -4858.174009105445, -1602.1283390674996, -2351.5152754205797, -4242.897539484208, -3490.7389868186697, -2473.533448402101, -2965.696509563507, -1813.4864346368831, -7951.767200442219, -14847.593289326822, 0.016, -0.1, 0.99, 192.0, 0.0, 0.0, 0.0, 0.0, 0.0, 0.0, 0.0, 0.0, 0.0, 1.645922898952835E9, 0.0, 2022-02-27 11:48:18.952
144.0, -657.2753974527595, -3138.9672325810475, -2395.168232341794, -9541.535024825935, -96.24661162455222, 168.80037412647894, -5020.268859895332, -1765.139611380054, -2596.624505117477, -4513.4654061157, -3734.0600769591424, -2726.555195636177, -3224.3508964003204, -2067.536362115903, -8210.399235534578, -15083.001861930117, 0.016, -0.1, 0.99, 192.0, 0.0, 0.0, 0.0, 0.0, 0.0, 0.0, 0.0, 0.0, 0.0, 1.645922898960895E9, 0.0, 2022-02-27 11:48:18.960
146.0, -386.0593302320636, -2882.123337045114, -2117.2689935289613, -9274.07405067373, 188.84988890288938, 431.23220577623914, -4770.845743518561, -1519.605698538506, -2326.1236937193507, -4285.835240582853, -3561.2587405751638, -2553.910321463385, -3041.044240122347, -1890.7564152188797, -8036.100332272093, -14844.039361958428, 0.014, -0.10200000000000001, 0.988, 192.0, 0.0, 56.0, 126.0, 104.0, 15.0, 112.0, 0.0, 0.0, 0.0, 1.64592289896808E9, 0.0, 2022-02-27 11:48:18.968
148.0, -644.8701792800641, -3129.8253690988267, -2363.0040720706074, -9522.6478007612, -65.80353567642399, 177.07051957494255, -4985.534249011785, -1779.3553208536293, -2511.0843790870167, -4379.734919039598, -3598.608505559982, -2576.195010685326, -3076.359996361732, -1918.6066888101923, -8059.927291861451, -14995.606541109866, 0.014, -0.10200000000000001, 0.988, 192.0, 0.0, 0.0, 0.0, 0.0, 0.0, 0.0, 0.0, 0.0, 0.0, 1.645922898974372E9, 0.0, 2022-02-27 11:48:18.974
150.0, -491.44780533883636, -2978.504059136398, -2213.113273753318, -9372.868761166186, 81.47210853959425, 344.8427134564774, -4832.111875070557, -1609.9290978824017, -2511.017323853651, -4488.677321514764, -3741.7937805406787, -2744.9506813228945, -3225.2896696674434, -2074.0854232413085, -8211.114491357148, -15020.34992222189, 0.014, -0.10200000000000001, 0.988, 192.0, 0.0, 0.0, 0.0, 0.0, 0.0, 0.0, 0.0, 0.0, 0.0, 1.645922898982519E9, 0.0, 2022-02-27 11:48:18.982
152.0, -484.1164331574957, -2980.023977759359, -2211.2357272190725, -9377.294406568339, 90.99395167755505, 334.1362278623853, -4851.96022414687, -1624.9718219008234, -2344.295661961515, -4241.623490050255, -3489.800213551547, -2471.4770879122125, -2961.4943816059094, -1807.4067601450397, -7946.38043002849, -14849.85081551681, 0.014, -0.10200000000000001, 0.988, 192.0, 0.0, 0.0, 0.0, 0.0, 0.0, 0.0, 0.0, 0.0, 0.0, 1.645922898990511E9, 0.0, 2022-02-27 11:48:18.990
154.0, -657.0071765192959, -3137.6931831470947, -2389.0662061054954, -9545.066600449873, -91.61980052230365, 170.99084508309903, -5015.910269726547, -1793.526326838294, -2590.9471620258287, -4511.2525834146245, -3738.1727979389193, -2728.7456665927966, -3218.1594631862004, -2063.0883649692973, -8201.547944730275, -15089.50621956661, 0.014, -0.10200000000000001, 0.988, 192.0, 0.0, 0.0, 0.0, 0.0, 0.0, 0.0, 0.0, 0.0, 0.0, 1.645922898997463E9, 0.0, 2022-02-27 11:48:18.997
156.0, -385.5005366206809, -2881.698653900463, -2120.6217551972577, -9280.466649587948, 189.16281332526367, 429.8240458755548, -4746.482342062276, -1520.410361338897, -2317.7864930375213, -4284.89646731573, -3563.9185981653454, -2550.4681528172678, -3034.7857516748613, -1888.4765372844383, -8029.171291490948, -14851.41543762868, 0.016, -0.108, 0.988, 192.0, 0.0, 64.0, 126.0, 80.0, 15.0, 112.0, 0.0, 0.0, 0.0, 1.645922899005103E9, 0.0, 2022-02-27 11:48:19.005
158.0, -638.5446355992121, -3125.489130674497, -2366.401537227814, -9519.83148095983, -63.43425076416144, 190.1462900812972, -4998.967647429425, -1754.3437188081407, -2514.7724169221424, -4381.076023706916, -3608.823252776057, -2578.4972403642228, -3082.439670853576, -1918.6737440435584, -8058.765001149774, -14992.454945141668, 0.016, -0.108, 0.988, 192.0, 0.0, 0.0, 0.0, 0.0, 0.0, 0.0, 0.0, 0.0, 0.0, 1.64592289901316E9, 0.0, 2022-02-27 11:48:19.013
160.0, -496.02991295217436, -2980.7168818374735, -2220.6905151236674, -9368.174894830572, 77.04646313744344, 344.4850855451925, -4826.501587212275, -1593.344103496564, -2515.331210533525, -4489.638446526343, -3752.9025975349664, -2745.062440045171, -3225.5355388564517, -2077.0805569983195, -8211.896802413083, -15013.107957018372, 0.016, -0.108, 0.988, 192.0, 0.0, 0.0, 0.0, 0.0, 0.0, 0.0, 0.0, 0.0, 0.0, 1.645922899021153E9, 0.0, 2022-02-27 11:48:19.021
162.0, -480.9648371892974, -2979.1746114700572, -2209.894622551754, -9368.487819252947, 95.46430056861647, 329.84469292696633, -4853.122514858546, -1630.7162202258373, -2346.150856751306, -4234.426228335647, -3497.958600277734, -2464.3468814309695, -2963.6177973291633, -1803.6963705654587, -7941.999488115251, -14841.066579945873, 0.016, -0.108, 0.988, 192.0, 0.0, 0.0, 0.0, 0.0, 0.0, 0.0, 0.0, 0.0, 0.0, 1.645922899034868E9, 0.0, 2022-02-27 11:48:19.034
164.0, -662.1033742551058, -3149.137276308212, -2385.177002570272, -9547.324126639858, -91.19511737765282, 169.91796134924428, -5015.0609034372455, -1798.4660623629168, -2594.5681446275885, -4516.952278250727, -3742.8666642745334, -2726.4657886583555, -3222.3392393993427, -2062.6636818246466, -8200.609171463153, -15089.550923055522, 0.016, -0.108, 0.988, 192.0, 0.0, 0.0, 0.0, 0.0, 0.0, 0.0, 0.0, 0.0, 0.0, 1.645922899042831E9, 0.0, 2022-02-27 11:48:19.042
166.0, -390.7979000565887, -2893.120395317125, -2113.9385836051206, -9286.613379313158, 189.2745720475402, 423.5208539391582, -4757.859379990027, -1516.2305851257545, -2324.3132024184706, -4300.699150645632, -3576.4579268047723, -2566.784926269642, -3039.949004644037, -1898.7359879894243, -8025.237384466814, -14853.56120509639, 0.012, -0.106, 0.988, 192.0, 0.0, 48.0, 126.0, 88.0, 15.0, 112.0, 0.0, 0.0, 0.0, 1.645922899050768E9, 0.0, 2022-02-27 11:48:19.050
168.0, -641.0480309782066, -3131.7923226108937, -2365.6192261718784, -9525.21825137356, -62.0260908634771, 196.5165372510597, -4984.550772255751, -1750.7674396952916, -2515.599431466989, -4385.658131320254, -3617.115749968976, -2586.7897375571415, -3078.4387085960757, -1917.9361364765332, -8052.1265330465485, -14995.718299832142, 0.012, -0.106, 0.988, 192.0, 0.0, 0.0, 0.0, 0.0, 0.0, 0.0, 0.0, 0.0, 0.0, 1.645922899057525E9, 0.0, 2022-02-27 11:48:19.057
170.0, -504.7247415452888, -2996.1395855116352, -2226.3231547264045, -9381.049499636829, 77.22527709308591, 345.8708937014215, -4829.206148291368, -1594.8416703750695, -2526.8423589280083, -4501.931905976761, -3768.5711703981365, -2755.478352961344, -3235.929100028169, -2075.895914542188, -8211.650933224075, -15020.238163499615, 0.012, -0.106, 0.988, 192.0, 0.0, 0.0, 0.0, 0.0, 0.0, 0.0, 0.0, 0.0, 0.0, 1.645922899065398E9, 0.0, 2022-02-27 11:48:19.065
172.0, -476.69565399833374, -2979.7110533369846, -2209.179366729184, -9370.700641954023, 104.49440532856052, 342.56283552203604, -4838.705639684873, -1624.144807355977, -2347.6484236298115, -4241.087048183328, -3507.927478304801, -2472.7511373461653, -2961.2038089279904, -1799.9412774969671, -7940.747790425753, -14841.647725301711, 0.012, -0.106, 0.988, 192.0, 0.0, 0.0, 0.0, 0.0, 0.0, 0.0, 0.0, 0.0, 0.0, 1.64592289907336E9, 0.0, 2022-02-27 11:48:19.073
174.0, -661.8798568105527, -3148.4890757190083, -2395.6823224642662, -9543.971364971563, -93.09501565635392, 177.33874050840623, -5005.159080643544, -1764.334948579663, -2596.5350981396555, -4510.112644447404, -3751.069754489631, -2722.4424746564, -3213.711466039594, -2050.7502020299676, -8200.273895296323, -15081.37018458488, 0.014, -0.107, 0.988, 192.0, 0.0, 64.0, 126.0, 80.0, 15.0, 112.0, 0.0, 0.0, 0.0, 1.645922899080028E9, 0.0, 2022-02-27 11:48:19.080
176.0, -379.2196964287396, -2879.061148054737, -2116.7549034064896, -9273.805829740266, 194.77310118354575, 444.5985489605128, -4752.405554342932, -1516.4541025703077, -2332.0245542555517, -4292.0713772858835, -3587.4549850767835, -2564.5274000796558, -3043.2347110789674, -1894.846784454201, -8038.02258229525, -14843.659382302689, 0.014, -0.107, 0.988, 192.0, 0.0, 0.0, 0.0, 0.0, 0.0, 0.0, 0.0, 0.0, 0.0, 1.645922899087119E9, 0.0, 2022-02-27 11:48:19.087
178.0, -622.7196005248547, -3113.9332787911035, -2356.0973830339176, -9512.433053545124, -60.39441351823968, 200.9421826532105, -4984.036682133279, -1752.242654829342, -2495.1922887792934, -4362.859351975841, -3600.28488639413, -2563.678033790354, -3063.7759642333945, -1899.071264156254, -8053.892320858517, -14981.882570014308, 0.014, -0.107, 0.988, 192.0, 0.0, 0.0, 0.0, 0.0, 0.0, 0.0, 0.0, 0.0, 0.0, 1.64592289909517E9, 0.0, 2022-02-27 11:48:19.095
180.0, -497.2145554083056, -2986.505983651398, -2224.758532614533, -9379.194304847038, 76.44296603715016, 346.1838181237958, -4831.731895414817, -1603.0224088457119, -2516.0464663560947, -4487.291513358536, -3762.133867995008, -2742.156713265981, -3227.7930650464377, -2068.0057487494646, -8214.735473958906, -15019.701721632688, 0.014, -0.107, 0.988, 192.0, 0.0, 0.0, 0.0, 0.0, 0.0, 0.0, 0.0, 0.0, 0.0, 1.645922899103077E9, 0.0, 2022-02-27 11:48:19.103
182.0, -475.24279060873874, -2975.5312771238423, -2204.641962604757, -9369.583054731256, 98.21356513661924, 350.81062922604434, -4839.532654229719, -1610.018504860223, -2338.46185665868, -4232.638088779222, -3506.9216498043124, -2467.2302564657043, -2959.8403525162166, -1796.7673297843135, -7942.0665433486165, -14836.663286288178, 0.014, -0.107, 0.988, 192.0, 0.0, 0.0, 0.0, 0.0, 0.0, 0.0, 0.0, 0.0, 0.0, 1.645922899109729E9, 0.0, 2022-02-27 11:48:19.109
184.0, -668.160697002494, -3151.5065612204744, -2396.5763922424785, -9549.581652829846, -97.7888819919684, 176.44467073019396, -5009.092987667678, -1781.59049529916, -2595.8868975504515, -4511.163176436803, -3753.6402051019913, -2723.582413623621, -3214.449073606619, -2054.795867776378, -8196.854078394661, -15082.778344485563, 0.015, -0.10550000000000001, 0.988, 192.0, 0.0, 64.0, 126.0, 96.0, 15.0, 112.0, 0.0, 0.0, 0.0, 1.645922899117767E9, 0.0, 2022-02-27 11:48:19.117
186.0, -388.36155991096024, -2885.3419882466783, -2116.4866824730257, -9279.192600153996, 193.11907209385302, 441.35754601449327, -4746.012955428714, -1524.6124892964947, -2332.181016466739, -4296.921705832685, -3593.4229008463503, -2567.656644303399, -3047.2580250809224, -1895.1597088765752, -8039.2742799847465, -14850.789588783931, 0.015, -0.10550000000000001, 0.988, 192.0, 0.0, 0.0, 0.0, 0.0, 0.0, 0.0, 0.0, 0.0, 0.0, 1.645922899125733E9, 0.0, 2022-02-27 11:48:19.125
188.0, -630.1627314284721, -3118.113055004246, -2358.1537435238056, -9518.669190248154, -56.3263960273738, 197.8352901739228, -4992.306827581743, -1761.3845183115625, -2502.3895504939023, -4369.609578801344, -3612.33247665554, -2571.2776269051587, -3068.9392172025705, -1908.5484038053041, -8052.484160957833, -14990.10801197386, 0.015, -0.10550000000000001, 0.988, 192.0, 0.0, 0.0, 0.0, 0.0, 0.0, 0.0, 0.0, 0.0, 0.0, 1.645922899132765E9, 0.0, 2022-02-27 11:48:19.132
190.0, -509.37390439199265, -2997.7712628568725, -2229.9441373281643, -9386.19040086155, 63.411899019706134, 337.42193429731543, -4842.639546709007, -1611.1584438274438, -2521.008553625173, -4494.578182050966, -3771.0522140326757, -2751.4550389593887, -3236.130265728267, -2080.5897808778027, -8219.474043783432, -15025.043788557505, 0.015, -0.10550000000000001, 0.988, 192.0, 0.0, 0.0, 0.0, 0.0, 0.0, 0.0, 0.0, 0.0, 0.0, 1.645922899140387E9, 0.0, 2022-02-27 11:48:19.140
192.0, -479.64608426643423, -2980.403957415099, -2203.5243753819914, -9369.627758220167, 91.53039354448242, 342.92046343332095, -4848.383945034021, -1620.210900331843, -2340.9652520376744, -4239.723591771554, -3514.0295045411, -2476.6850443702992, -2961.382622883633, -1807.4738153784056, -7946.849816662052, -14841.31244913488, 0.015, -0.10550000000000001, 0.988, 192.0, 0.0, 0.0, 0.0, 0.0, 0.0, 0.0, 0.0, 0.0, 0.0, 1.645922899149717E9, 0.0, 2022-02-27 11:48:19.149
194.0, -675.4473656949241, -3161.00605261398, -2396.5540404980234, -9551.570958086368, -106.3272483738957, 176.48937421910458, -5006.477833566408, -1781.9928266993556, -2598.949086540829, -4512.906612504317, -3759.8986935494777, -2731.3608206940676, -3219.7240852980717, -2053.7229840425234, -8202.039683108293, -15079.246768861625, 0.014499999999999999, -0.10575000000000001, 0.989, 192.0, 0.0, 56.0, 126.0, 88.0, 15.0, 120.0, 0.0, 0.0, 0.0, 1.645922899162542E9, 0.0, 2022-02-27 11:48:19.162
196.0, -395.3800076699266, -2894.282686028801, -2117.89484237371, -9278.343233864694, 197.27649656254013, 453.29337755362724, -4728.533891264665, -1499.0197418951682, -2340.8311415709427, -4303.068435557894, -3606.789244030624, -2575.0550717181054, -3053.2929960838555, -1895.9196681880558, -8033.239308981813, -14847.570937582368, 0.014499999999999999, -0.10575000000000001, 0.989, 192.0, 0.0, 0.0, 0.0, 0.0, 0.0, 0.0, 0.0, 0.0, 0.0, 1.645922899170132E9, 0.0, 2022-02-27 11:48:19.170
198.0, -630.4980075953016, -3120.8623195722485, -2356.298548734015, -9511.203707600083, -56.99694836103301, 206.91009842277748, -4983.74610945536, -1761.4068700560179, -2507.0610650850613, -4366.145058410771, -3618.0768749805543, -2569.8024117711084, -3068.916865458115, -1894.6903222430137, -8042.627041653042, -14977.591035078889, 0.014499999999999999, -0.10575000000000001, 0.989, 192.0, 0.0, 0.0, 0.0, 0.0, 0.0, 0.0, 0.0, 0.0, 0.0, 1.64592289917797E9, 0.0, 2022-02-27 11:48:19.177
200.0, -516.7052765733333, -3004.365027471188, -2237.3872682317815, -9389.409052063114, 48.86091337930124, 337.5560447640473, -4864.588959764119, -1626.0447056346782, -2530.9997833966954, -4492.924152961273, -3777.9365513249104, -2753.891379105017, -3240.9805942750686, -2072.699615085079, -8218.512918771854, -15025.043788557505, 0.014499999999999999, -0.10575000000000001, 0.989, 192.0, 0.0, 0.0, 0.0, 0.0, 0.0, 0.0, 0.0, 0.0, 0.0, 1.645922899185329E9, 0.0, 2022-02-27 11:48:19.185
202.0, -477.2767993541717, -2979.01814925887, -2198.3611224128153, -9365.112705840196, 97.49830931404941, 356.1526961508627, -4843.377154276032, -1619.048609620167, -2342.284004960538, -4234.582690546834, -3516.4658446867284, -2477.467355426235, -2964.1765909405462, -1795.9626669839224, -7943.899386393951, -14837.400893855203, 0.014499999999999999, -0.10575000000000001, 0.989, 192.0, 0.0, 0.0, 0.0, 0.0, 0.0, 0.0, 0.0, 0.0, 0.0, 1.645922899192668E9, 0.0, 2022-02-27 11:48:19.192
204.0, -679.0012930633179, -3164.4482212600974, -2396.375226542381, -9550.855702263798, -105.34377161786219, 182.68080743322463, -5008.310676611743, -1761.786849711758, -2597.7867958291527, -4509.777368280575, -3755.271882447229, -2726.801064825185, -3208.9281927261586, -2046.7268880280124, -8188.986264346393, -15075.402268815313, 0.01625, -0.10487500000000001, 0.9875, 192.0, 0.0, 72.0, 126.0, 96.0, 15.0, 104.0, 0.0, 0.0, 0.0, 1.645922899200626E9, 0.0, 2022-02-27 11:48:19.200
206.0, -394.84356580299925, -2894.372093006622, -2111.055208570386, -9276.108059419163, 189.65455170328042, 452.68988045333396, -4744.738905994762, -1527.5852713090505, -2342.2169497271716, -4305.884755359263, -3605.604601574493, -2581.7605950546977, -3052.018946649903, -1896.4784617994383, -8038.402561950989, -14847.41447537118, 0.01625, -0.10487500000000001, 0.9875, 192.0, 0.0, 0.0, 0.0, 0.0, 0.0, 0.0, 0.0, 0.0, 0.0, 1.645922899208615E9, 0.0, 2022-02-27 11:48:19.208
208.0, -631.7497052847988, -3123.7456946069833, -2346.150856751306, -9504.520536007945, -54.27003553748555, 223.89742420881083, -4988.462327535431, -1750.5886257396492, -2495.169937034838, -4360.199494385659, -3606.5210230971607, -2567.1425541809267, -3052.5777402612857, -1881.6592552255697, -8037.553195661688, -14976.205226922659, 0.01625, -0.10487500000000001, 0.9875, 192.0, 0.0, 0.0, 0.0, 0.0, 0.0, 0.0, 0.0, 0.0, 0.0, 1.645922899214654E9, 0.0, 2022-02-27 11:48:19.214
210.0, -507.16108169091723, -2995.1114052666912, -2224.512663425525, -9373.584016988756, 64.01539611999942, 362.0312049426085, -4921.697666847428, -1649.536389057206, -2528.272870573148, -4495.069920428982, -3776.2154670018517, -2751.1644662814697, -3223.7921027889374, -2061.188466690596, -8217.954125160471, -15018.628837898832, 0.01625, -0.10487500000000001, 0.9875, 192.0, 0.0, 0.0, 0.0, 0.0, 0.0, 0.0, 0.0, 0.0, 0.0, 1.645922899222304E9, 0.0, 2022-02-27 11:48:19.222
212.0, -483.91526745739793, -2984.49432665042, -2195.790671800455, -9357.401354003114, 100.15816690423095, 363.26055088765037, -4812.621153905529, -1593.0088273297345, -2329.8787867878423, -4218.712951983565, -3503.770053836114, -2455.67440458231, -2940.304927862278, -1775.2202481293975, -7944.3017177941465, -14832.662324030678, 0.01625, -0.10487500000000001, 0.9875, 192.0, 0.0, 0.0, 0.0, 0.0, 0.0, 0.0, 0.0, 0.0, 0.0, 1.645922899230353E9, 0.0, 2022-02-27 11:48:19.230
214.0, -697.7320549168653, -3180.7426429680163, -2402.924287667786, -9554.677850565655, -108.04833269695435, 178.05399633097605, -4977.912304152525, -1720.1679015359762, -2615.3105634821136, -4524.5742231099875, -3767.297120964184, -2732.6348701280203, -3213.085617194846, -2051.219588663529, -8176.603397918153, -15064.539321010034, 0.015125, -0.1054375, 0.98875, 192.0, 0.0, 56.0, 126.0, 88.0, 15.0, 120.0, 0.0, 0.0, 0.0, 1.645922899238229E9, 0.0, 2022-02-27 11:48:19.238
216.0, -412.5684991560578, -2910.666514714541, -2123.3039645318945, -9276.97977745292, 173.87422011783363, 447.6607379508898, -4712.261821301201, -1479.5960759635063, -2362.0429470590293, -4320.972182866595, -3620.9155465263784, -2590.6565893479096, -3060.2443886094557, -1907.229650882441, -8037.709657872875, -14838.69729503361, 0.015125, -0.1054375, 0.98875, 192.0, 0.0, 0.0, 0.0, 0.0, 0.0, 0.0, 0.0, 0.0, 0.0, 1.645922899244757E9, 0.0, 2022-02-27 11:48:19.244
218.0, -638.5669873436675, -3128.9089475761593, -2349.7047841196995, -9504.632294730221, -54.82882914886822, 215.29200259351762, -4945.3905159700535, -1732.1931400529315, -2513.8336436550194, -4362.837000231386, -3616.9369360133337, -2572.551676339111, -3056.757516474428, -1889.7952902073016, -8032.0546665256825, -14962.77182850502, 0.015125, -0.1054375, 0.98875, 192.0, 0.0, 0.0, 0.0, 0.0, 0.0, 0.0, 0.0, 0.0, 0.0, 1.645922899252811E9, 0.0, 2022-02-27 11:48:19.252
220.0, -524.9754220217969, -3015.40678923211, -2232.8722158518094, -9388.738499729456, 65.4906112540497, 340.61823375442435, -4827.775636646228, -1594.0817110635892, -2539.2028736117927, -4502.513051332599, -3775.723728623835, -2759.188742540925, -3220.908727754203, -2072.990187762998, -8211.472119268432, -15018.4947274321, 0.015125, -0.1054375, 0.98875, 192.0, 0.0, 0.0, 0.0, 0.0, 0.0, 0.0, 0.0, 0.0, 0.0, 1.645922899260985E9, 0.0, 2022-02-27 11:48:19.260
222.0, -478.461441810303, -2978.437003903032, -2189.24161067505, -9353.690964423533, 112.58573682138167, 356.71148976224544, -4821.047761565181, -1601.6813041783935, -2340.5629206374792, -4237.197844648104, -3505.4911381591724, -2475.6121606364445, -2936.8180557272503, -1794.0180652163108, -7934.779874656186, -14822.335818092326, 0.015125, -0.1054375, 0.98875, 192.0, 0.0, 0.0, 0.0, 0.0, 0.0, 0.0, 0.0, 0.0, 0.0, 1.645922899267923E9, 0.0, 2022-02-27 11:48:19.267
224.0, -687.7855286342536, -3168.3821282842314, -2396.2411160756487, -9546.564167328379, -108.00362920804373, 170.99084508309903, -5001.806318975248, -1773.4544603174284, -2604.0452842766385, -4508.79389152454, -3745.16889395343, -2719.804968810674, -3191.069148906368, -2038.7473152574678, -8185.4323369779995, -15072.98828041414, 0.0125625, -0.10371875, 0.989375, 192.0, 0.0, 40.0, 126.0, 104.0, 15.0, 120.0, 0.0, 0.0, 0.0, 1.645922899282488E9, 0.0, 2022-02-27 11:48:19.282
226.0, -398.91158329386514, -2898.3507035196667, -2114.1621010496738, -9268.083783159707, 185.56418246795923, 448.3312902845491, -4749.343365352555, -1508.474529799763, -2353.7728016105657, -4312.813796140408, -3606.0292847191436, -2586.610923601499, -3041.401868033632, -1903.6310200251366, -8046.583300421632, -14847.861510260287, 0.0125625, -0.10371875, 0.989375, 192.0, 0.0, 0.0, 0.0, 0.0, 0.0, 0.0, 0.0, 0.0, 0.0, 1.645922899290613E9, 0.0, 2022-02-27 11:48:19.290
228.0, -641.4727141228574, -3131.5017499329747, -2351.6270341428562, -9500.988960384007, -61.37789027427319, 219.53883404002596, -4970.64798720455, -1729.466227229384, -2503.0153993386507, -4354.969186183118, -3597.4462148483058, -2558.64889128791, -3039.0549348658246, -1879.7593569468686, -8042.180006763936, -14967.175122162715, 0.0125625, -0.10371875, 0.989375, 192.0, 0.0, 0.0, 0.0, 0.0, 0.0, 0.0, 0.0, 0.0, 0.0, 1.645922899297167E9, 0.0, 2022-02-27 11:48:19.297
230.0, -540.3757739515036, -3025.3309637702664, -2245.5233032135134, -9389.498459040935, 51.252550036019095, 338.09248663097463, -4840.717296685851, -1597.568583198617, -2553.7985627411085, -4511.185528181259, -3779.5682286701476, -2763.055594331693, -3230.1623499587004, -2074.3983476636827, -8221.977439162427, -15017.667712887254, 0.0125625, -0.10371875, 0.989375, 192.0, 0.0, 0.0, 0.0, 0.0, 0.0, 0.0, 0.0, 0.0, 0.0, 1.645922899304994E9, 0.0, 2022-02-27 11:48:19.304
232.0, -487.8938779704426, -2985.701320851007, -2196.1035962228293, -9351.656955678101, 109.5235478310046, 365.4957253331811, -4825.5851656896075, -1591.3995017289521, -2349.078935274951, -4237.287251625926, -3508.6427341273707, -2472.7511373461653, -2941.4001633405883, -1792.0958151931543, -7939.496092736255, -14820.614733769267, 0.0125625, -0.10371875, 0.989375, 192.0, 0.0, 0.0, 0.0, 0.0, 0.0, 0.0, 0.0, 0.0, 0.0, 1.645922899313236E9, 0.0, 2022-02-27 11:48:19.313
234.0, -701.1071683296167, -3184.9671226700693, -2408.6686859927995, -9552.21915867557, -113.59156532187049, 176.80229864147887, -5014.479758081407, -1755.9977478978335, -2614.192976259348, -4515.253545672124, -3748.432248643905, -2721.995439767294, -3193.7290064965496, -2043.4858850819928, -8188.516877712832, -15068.339117567435, 0.01428125, -0.104859375, 0.9916875, 192.0, 0.0, 64.0, 126.0, 88.0, 15.5, 8.0, 0.0, 0.0, 0.0, 1.645922899320237E9, 0.0, 2022-02-27 11:48:19.320
236.0, -411.8979468223985, -2908.856023413661, -2125.025048854953, -9279.058489687264, 180.13270856531963, 455.1038688545071, -4725.359943552011, -1491.1295761024448, -2366.3568337389033, -4326.850691658341, -3612.1313109554426, -2594.165813227393, -3049.314385570811, -1910.9623922064773, -8049.667841156464, -14847.995620727019, 0.01428125, -0.104859375, 0.9916875, 192.0, 0.0, 0.0, 0.0, 0.0, 0.0, 0.0, 0.0, 0.0, 0.0, 1.645922899327657E9, 0.0, 2022-02-27 11:48:19.327
238.0, -633.1131616965725, -3125.2209097410337, -2350.9117783202864, -9504.788756941409, -56.21463730509726, 214.77791247104557, -4959.516818465808, -1735.2776807877638, -2505.6082016954665, -4364.356918854346, -3598.697912537803, -2564.415641357379, -3038.6078999767187, -1891.4046158080837, -8036.592070650109, -14965.454037839656, 0.01428125, -0.104859375, 0.9916875, 192.0, 0.0, 0.0, 0.0, 0.0, 0.0, 0.0, 0.0, 0.0, 0.0, 1.645922899334762E9, 0.0, 2022-02-27 11:48:19.334
240.0, -541.2474919852605, -3027.6555451936183, -2246.238559036083, -9391.91244744211, 45.35168949981803, 335.4773325297037, -4853.033107880725, -1598.6638186769271, -2548.0541644160944, -4509.173871180281, -3770.8734000770332, -2757.199437284403, -3215.6337160627504, -2079.583952377314, -8218.937601916505, -15020.372273966346, 0.01428125, -0.104859375, 0.9916875, 192.0, 0.0, 0.0, 0.0, 0.0, 0.0, 0.0, 0.0, 0.0, 0.0, 1.645922899342792E9, 0.0, 2022-02-27 11:48:19.342
242.0, -487.5138983147023, -2986.215410973479, -2196.3941689007484, -9351.90282486711, 106.68487628518061, 362.92527472082077, -4816.912688840948, -1590.2372110172762, -2350.7106126201884, -4237.577824303845, -3506.2958009595636, -2472.2817507126038, -2938.270919116845, -1795.6720943060036, -7940.434866003378, -14818.804242468386, 0.01428125, -0.104859375, 0.9916875, 192.0, 0.0, 0.0, 0.0, 0.0, 0.0, 0.0, 0.0, 0.0, 0.0, 1.645922899349815E9, 0.0, 2022-02-27 11:48:19.349
244.0, -694.9604386044072, -3178.462765033575, -2404.3100958240148, -9551.995641231018, -107.22131815210798, 171.571990438937, -4994.944333427469, -1771.7333759943697, -2612.3824849584685, -4505.4634816007, -3743.6489753304695, -2716.7204280758415, -3183.2460383470107, -2044.6258240492136, -8180.336139242189, -15070.93191992425, 0.014, -0.106, 0.994, 192.0, 0.0, 56.0, 126.0, 88.0, 15.5, 8.0, 0.0, 0.0, 0.0, 1.645922899357346E9, 0.0, 2022-02-27 11:48:19.357
246.0, -407.27113572014997, -2907.090235601692, -2116.6207929397574, -9276.17511465253, 193.47670000513793, 448.4206972623703, -4724.465873773798, -1503.378332063953, -2363.18288602625, -4316.770054908998, -3609.449101620806, -2593.0258742601723, -3040.9995366334365, -1918.070246943265, -8048.840826611618, -14854.634088830244, 0.014, -0.106, 0.994, 192.0, 0.0, 0.0, 0.0, 0.0, 0.0, 0.0, 0.0, 0.0, 0.0, 1.645922899365494E9, 0.0, 2022-02-27 11:48:19.365
248.0, -633.6719553079553, -3127.1878632531007, -2341.2334729711383, -9499.938428394607, -37.640337662737096, 222.71278175267958, -4958.354527754132, -1720.0561428136998, -2501.584887693511, -4361.384136841791, -3591.7465200122024, -2560.884065733441, -3028.4155045050984, -1888.4765372844383, -8028.232518223825, -14958.100313913861, 0.014, -0.106, 0.994, 192.0, 0.0, 0.0, 0.0, 0.0, 0.0, 0.0, 0.0, 0.0, 0.0, 1.645922899373334E9, 0.0, 2022-02-27 11:48:19.373
250.0, -546.9695385658191, -3033.7128679410066, -2248.7866579039883, -9400.33905510176, 43.45179122111693, 340.95350992125395, -4847.020488622247, -1598.4850047212847, -2553.7985627411085, -4508.592725824443, -3770.98515879931, -2763.614387943076, -3217.041875963435, -2084.166059990652, -8219.317581572244, -15021.825137355941, 0.014, -0.106, 0.994, 192.0, 0.0, 0.0, 0.0, 0.0, 0.0, 0.0, 0.0, 0.0, 0.0, 1.645922899379925E9, 0.0, 2022-02-27 11:48:19.379
