%OpenBCI Raw EEG Data
%Number of channels = 16
%Sample Rate = 125 Hz
%Board = OpenBCI_GUI$BoardCytonSerialDaisy
Sample Index, EXG Channel 0, EXG Channel 1, EXG Channel 2, EXG Channel 3, EXG Channel 4, EXG Channel 5, EXG Channel 6, EXG Channel 7, EXG Channel 8, EXG Channel 9, EXG Channel 10, EXG Channel 11, EXG Channel 12, EXG Channel 13, EXG Channel 14, EXG Channel 15, Accel Channel 0, Accel Channel 1, Accel Channel 2, Other, Other, Other, Other, Other, Other, Other, Analog Channel 0, Analog Channel 1, Analog Channel 2, Timestamp, Other, Timestamp (Formatted)
0.0, -559.7994398831654, -1856.3794322466174, -928.0444297843493, -4704.282248530656, 24.3634014562847, 97.34184710286226, -2395.1235288528837, -768.2294569289037, -567.1755155534167, -2178.892752992243, -1841.9849088173996, -1362.3611762954208, -1572.2664084752093, -926.8821390726732, -4097.030055168874, -7299.722111192002, 0.006, -0.054, 0.493, 192.0, 0.0, 48.0, 126.0, 80.0, 15.0, 104.0, 0.0, 0.0, 0.0, 1.645922477655543E9, 0.0, 2022-02-27 11:41:17.655
2.0, -1529.3287073765646, -4028.9913450469194, -2118.297173773906, -9697.773718568531, -301.45797746872637, 1.095235478310046, -4806.720293369329, -1518.3763525934642, -2854.9436157874607, -4948.922091593992, -3826.5739472596583, -2878.7705753768178, -3245.719164099594, -2030.521873297915, -8573.995062589058, -15415.953447336371, 0.006, -0.054, 0.493, 192.0, 0.0, 0.0, 0.0, 0.0, 0.0, 0.0, 0.0, 0.0, 0.0, 1.645922477662565E9, 0.0, 2022-02-27 11:41:17.662
4.0, -892.0357694668496, -3507.346332948963, -1623.921289911424, -9152.994650959332, 299.22280302319564, 435.2778715226497, -4486.688016258242, -1150.8242667703948, -1717.2174712678757, -4129.2389189289715, -3489.599047851449, -2655.3425378015686, -2920.367171808144, -1701.2583257267866, -8229.666439255052, -14589.296530401294, 0.006, -0.054, 0.493, 192.0, 0.0, 0.0, 0.0, 0.0, 0.0, 0.0, 0.0, 0.0, 0.0, 1.645922477670577E9, 0.0, 2022-02-27 11:41:17.670
6.0, -1383.5059265501413, -3925.1004368186523, -2044.3352513712946, -9612.546516960445, -177.65166493078053, 41.216616775586225, -4858.621043994552, -1613.9971153732677, -4008.4724436369474, -5060.9043313150805, -3616.311087168585, -2844.3935924045554, -2973.8772480341495, -1845.941167585989, -8619.972600933625, -15692.48922973743, 0.006, -0.054, 0.493, 192.0, 0.0, 0.0, 0.0, 0.0, 0.0, 0.0, 0.0, 0.0, 0.0, 1.645922477677696E9, 0.0, 2022-02-27 11:41:17.677
8.0, -1234.777418944528, -3781.915161837955, -1873.5455719882932, -9429.843357782765, -9.164215226675896, 232.10051442390855, -4601.575982758521, -1258.6937855117067, -1420.6768775793169, -4329.734066693076, -3717.8997657179557, -2749.130457536037, -3167.465706761564, -1919.52311033286, -8301.706111634507, -14696.674310764589, 0.008, -0.108, 0.988, 192.0, 0.0, 32.0, 126.0, 80.0, 15.0, 112.0, 0.0, 0.0, 0.0, 1.645922477685276E9, 0.0, 2022-02-27 11:41:17.685
10.0, -923.7528948489303, -3545.2995950340746, -1679.018339993756, -9218.48526221338, 262.11890722738593, 366.5686090670358, -4625.939384214805, -1350.4029930118315, -3122.7622178509496, -4525.200071954736, -3432.9820791461566, -2704.9187070034395, -2808.69785650943, -1650.9445489578902, -8395.717548813529, -15128.331199685479, 0.008, -0.108, 0.988, 192.0, 0.0, 0.0, 0.0, 0.0, 0.0, 0.0, 0.0, 0.0, 0.0, 1.645922477692313E9, 0.0, 2022-02-27 11:41:17.692
12.0, -1528.0993614315225, -4029.03604853583, -2114.60913593878, -9701.372349425836, -299.7815966345783, 3.0845407348323746, -4802.495813667276, -1524.3666201074864, -2879.351720732656, -4955.471152719397, -3828.362086816083, -2876.7812701202956, -3243.1487134872336, -2034.0087454329428, -8572.519847455007, -15433.38780801151, 0.008, -0.108, 0.988, 192.0, 0.0, 0.0, 0.0, 0.0, 0.0, 0.0, 0.0, 0.0, 0.0, 1.645922477700198E9, 0.0, 2022-02-27 11:41:17.700
14.0, -890.8287752662629, -3509.5815073944937, -1618.758036942248, -9163.00823247531, 308.7446461611565, 436.7083831677894, -4481.390652822334, -1128.0031356815261, -1688.2049069648872, -4112.877441987686, -3490.537821118572, -2654.582578490088, -2927.117398633647, -1705.214584495376, -8223.430302552022, -14584.468553598948, 0.008, -0.108, 0.988, 192.0, 0.0, 0.0, 0.0, 0.0, 0.0, 0.0, 0.0, 0.0, 0.0, 1.645922477706714E9, 0.0, 2022-02-27 11:41:17.706
16.0, -1366.6527112308397, -3909.744788377856, -2032.3100128543394, -9612.546516960445, -173.24837127308504, 50.470238980083344, -4851.915520657959, -1621.1273218545107, -4002.191603445006, -5054.958767289969, -3600.508403838683, -2840.6608510805195, -2965.607102585686, -1834.0947430246763, -8615.993990420578, -15687.81771514627, 0.008, -0.108, 0.988, 192.0, 0.0, 0.0, 0.0, 0.0, 0.0, 0.0, 0.0, 0.0, 0.0, 1.645922477714853E9, 0.0, 2022-02-27 11:41:17.714
18.0, -1234.9562329001706, -3789.55945844167, -1875.1325458446202, -9439.968698021019, -13.589860628826694, 233.53102606904818, -4584.611008716942, -1252.5023522975866, -1430.8916247953923, -4348.509532035534, -3719.6432017854695, -2747.901111590995, -3175.0205963874578, -1915.8574242421896, -8305.237687258445, -14711.895848738654, 0.014, -0.11, 0.988, 192.0, 0.0, 56.0, 126.0, 72.0, 15.0, 112.0, 0.0, 0.0, 0.0, 1.645922477722779E9, 0.0, 2022-02-27 11:41:17.722
20.0, -917.5167581458996, -3551.669842203837, -1677.2972556706973, -9227.53771871778, 264.3317299284613, 363.6628822878459, -4620.10557891197, -1332.4098387253093, -3104.433787397598, -4536.3759441823895, -3434.613756491394, -2707.444454126889, -2811.6259350330756, -1658.6782525394265, -8395.874011024716, -15126.744225829152, 0.014, -0.11, 0.988, 192.0, 0.0, 0.0, 0.0, 0.0, 0.0, 0.0, 0.0, 0.0, 0.0, 1.645922477730186E9, 0.0, 2022-02-27 11:41:17.730
22.0, -1527.1605881643998, -4034.2216532494613, -2118.8559673852883, -9712.928201309229, -292.33846573096105, -3.8221483018575078, -4799.90301131046, -1532.0109167112014, -2886.861906869639, -4978.314635552721, -3831.200758361907, -2888.0018458368595, -3241.8970157977365, -2047.4421438505822, -8580.030033591991, -15442.350857538087, 0.014, -0.11, 0.988, 192.0, 0.0, 0.0, 0.0, 0.0, 0.0, 0.0, 0.0, 0.0, 0.0, 1.645922477737464E9, 0.0, 2022-02-27 11:41:17.737
24.0, -894.9861997349501, -3519.3715714659184, -1625.5082637677508, -9174.519380869791, 305.72716065969, 430.4498947203034, -4485.972760435672, -1146.912711490716, -1670.2788079117308, -4138.112561477728, -3488.950847262245, -2659.8575901815407, -2927.3409160782003, -1710.8248723536578, -8231.164006133558, -14591.531704846824, 0.014, -0.11, 0.988, 192.0, 0.0, 0.0, 0.0, 0.0, 0.0, 0.0, 0.0, 0.0, 0.0, 1.645922477745639E9, 0.0, 2022-02-27 11:41:17.745
26.0, -1363.5905222404626, -3913.7681023798114, -2034.6569460221467, -9615.273429783992, -173.85186837337832, 48.7268029125694, -4846.059363610669, -1611.98545837229, -3999.3082284102716, -5058.71386035846, -3599.8378515050235, -2841.3314034141786, -2967.909332264582, -1838.1627605155422, -8620.173766633721, -15692.891561137625, 0.013000000000000001, -0.109, 0.988, 192.0, 0.0, 48.0, 126.0, 80.0, 15.0, 112.0, 0.0, 0.0, 0.0, 1.645922477752498E9, 0.0, 2022-02-27 11:41:17.752
28.0, -1239.6277474913297, -3793.985103843821, -1884.7884994493127, -9444.640212612177, -20.16127349868697, 221.66224976328013, -4603.051197892571, -1273.8706199968601, -1434.512607397152, -4351.4152588147235, -3721.207823897341, -2750.1139342920706, -3183.4472040471082, -1933.8505785287118, -8312.233783272957, -14721.417691876613, 0.013000000000000001, -0.109, 0.988, 192.0, 0.0, 0.0, 0.0, 0.0, 0.0, 0.0, 0.0, 0.0, 0.0, 1.645922477766976E9, 0.0, 2022-02-27 11:41:17.766
30.0, -912.8452435547405, -3545.0760775895214, -1682.3263981731413, -9219.424035480504, 263.79528806153394, 357.06911767353034, -4620.351448100978, -1338.6236236838847, -3082.0149877089248, -4525.311830677013, -3430.277518067064, -2706.483329115311, -2819.0467141922372, -1666.9260462434347, -8397.170412203122, -15119.770481559097, 0.013000000000000001, -0.109, 0.988, 192.0, 0.0, 0.0, 0.0, 0.0, 0.0, 0.0, 0.0, 0.0, 0.0, 1.645922477775602E9, 0.0, 2022-02-27 11:41:17.775
32.0, -1524.5230823186735, -4033.126417771151, -2129.405990768193, -9710.536564652512, -305.6601054263241, -8.851290804301597, -4813.291706239189, -1551.8816175319694, -2942.0483639297922, -4990.429281047497, -3827.535072271237, -2888.4935842148766, -3245.361536188309, -2050.325518885317, -8586.199115061656, -15462.355668825589, 0.013000000000000001, -0.109, 0.988, 192.0, 0.0, 0.0, 0.0, 0.0, 0.0, 0.0, 0.0, 0.0, 0.0, 1.645922477782197E9, 0.0, 2022-02-27 11:41:17.782
34.0, -896.215545679992, -3519.572737166016, -1637.2876330956976, -9170.876046523577, 289.72331162969016, 423.67731615034535, -4498.802661753019, -1164.9952727550594, -1644.3507843435748, -4134.022192242407, -3496.6174956104155, -2653.8226191786075, -2949.1562186665797, -1724.370029493574, -8232.48275905642, -14585.586140821713, 0.013000000000000001, -0.109, 0.988, 192.0, 0.0, 0.0, 0.0, 0.0, 0.0, 0.0, 0.0, 0.0, 0.0, 1.645922477789723E9, 0.0, 2022-02-27 11:41:17.789
36.0, -1351.9899668681583, -3904.8274045976887, -2031.2371291204847, -9599.38133947627, -162.47483044562705, 54.426497748672695, -4856.140000360012, -1626.469388779329, -4008.740664570411, -5048.186188720011, -3598.1838224153307, -2837.889234768061, -2971.1950386995127, -1839.168589016031, -8621.023132923023, -15693.048023348812, 0.0125, -0.1085, 0.989, 192.0, 0.0, 48.0, 126.0, 80.0, 15.0, 120.0, 0.0, 0.0, 0.0, 1.645922477797743E9, 0.0, 2022-02-27 11:41:17.797
38.0, -1266.9862827046256, -3817.4097320329824, -1906.5814502932371, -9466.92490183412, -41.55189294241583, 198.63995297431387, -4619.211509133757, -1269.064994938969, -1482.5465062316068, -4384.920523753229, -3736.988155482788, -2759.7251844078523, -3196.724140253561, -1949.1838752250524, -8327.254155546923, -14750.005573034952, 0.0125, -0.1085, 0.989, 192.0, 0.0, 0.0, 0.0, 0.0, 0.0, 0.0, 0.0, 0.0, 0.0, 1.645922477805753E9, 0.0, 2022-02-27 11:41:17.805
40.0, -910.0959789867377, -3541.611557198949, -1679.018339993756, -9216.853584868144, 266.61160786290264, 372.24595215868385, -4615.76934048764, -1327.8277311119714, -3035.880987153171, -4509.062112458005, -3427.282384310053, -2701.320076146135, -2819.2255281478797, -1668.6471305664934, -8390.71075805554, -15097.932827226261, 0.0125, -0.1085, 0.989, 192.0, 0.0, 0.0, 0.0, 0.0, 0.0, 0.0, 0.0, 0.0, 0.0, 1.645922477812274E9, 0.0, 2022-02-27 11:41:17.812
42.0, -1534.022573712179, -4038.289670740327, -2131.305889046894, -9713.978733298629, -304.9895530926649, 0.9387732671228967, -4818.611421419552, -1543.119733705489, -2968.2893119203227, -4992.79856595976, -3825.277546081251, -2888.8959156150718, -3242.9922512760463, -2042.3012426258617, -8589.864801152326, -15466.401334571998, 0.0125, -0.1085, 0.989, 192.0, 0.0, 0.0, 0.0, 0.0, 0.0, 0.0, 0.0, 0.0, 0.0, 1.645922477819286E9, 0.0, 2022-02-27 11:41:17.819
44.0, -916.0415430118494, -3535.3307170070075, -1645.3342610996083, -9174.608787847614, 289.1868697627628, 428.818217375066, -4489.4149290817895, -1130.0818479158697, -1631.4091243039518, -4136.257366687938, -3501.4007689238515, -2661.9586541603394, -2943.72474476394, -1724.3253260046633, -8231.856910211673, -14580.042908196798, 0.0125, -0.1085, 0.989, 192.0, 0.0, 0.0, 0.0, 0.0, 0.0, 0.0, 0.0, 0.0, 0.0, 1.645922477827388E9, 0.0, 2022-02-27 11:41:17.827
46.0, -1369.7596037101275, -3917.3443814926604, -2045.095210682775, -9602.242362766548, -168.80037412647894, 60.10384084032069, -4844.382982776521, -1584.1798882698881, -4010.7523215713886, -5050.108438743167, -3602.0730259505544, -2839.0738772241925, -2972.6255503446523, -1829.9596703004445, -8618.56444103294, -15679.43581097553, 0.01425, -0.10625000000000001, 0.9884999999999999, 192.0, 0.0, 64.0, 126.0, 96.0, 15.0, 112.0, 0.0, 0.0, 0.0, 1.645922477835384E9, 0.0, 2022-02-27 11:41:17.835
48.0, -1268.4838495831311, -3819.331982056139, -1901.4852525574272, -9454.16205575014, -31.22538700406397, 213.54856652600367, -4607.432139805811, -1258.5149715560642, -1467.4143752353639, -4375.5998463153655, -3730.9755362243104, -2757.3335477511346, -3196.0312361754463, -1943.9312152780553, -8317.240574030946, -14733.19706120456, 0.01425, -0.10625000000000001, 0.9884999999999999, 192.0, 0.0, 0.0, 0.0, 0.0, 0.0, 0.0, 0.0, 0.0, 0.0, 1.645922477841853E9, 0.0, 2022-02-27 11:41:17.841
50.0, -913.5381476328549, -3548.6747084468257, -1678.012511493267, -9211.355055732138, 273.0042067771205, 372.3353591365051, -4604.906392682361, -1317.2106524957005, -3042.430048278576, -4516.907574761817, -3426.3659627873853, -2700.940096490395, -2818.1973479029357, -1672.9610172463676, -8385.65926380864, -15096.345853369934, 0.01425, -0.10625000000000001, 0.9884999999999999, 192.0, 0.0, 0.0, 0.0, 0.0, 0.0, 0.0, 0.0, 0.0, 0.0, 1.645922477850018E9, 0.0, 2022-02-27 11:41:17.850
52.0, -1549.3111669196091, -4059.814400650788, -2138.480799017048, -9723.165300269759, -305.7048089152347, -14.193357729119985, -4816.845633607582, -1532.7485242782266, -2993.21150698799, -5016.983153460402, -3831.2231101063626, -2897.501337230365, -3245.1380187437558, -2060.5179143569367, -8584.008644105035, -15476.884302721537, 0.01425, -0.10625000000000001, 0.9884999999999999, 192.0, 0.0, 0.0, 0.0, 0.0, 0.0, 0.0, 0.0, 0.0, 0.0, 1.645922477858111E9, 0.0, 2022-02-27 11:41:17.858
54.0, -930.7042873745307, -3550.6640137033482, -1649.9163687129462, -9182.990692018353, 287.84576509544434, 428.7288103972448, -4480.720100488675, -1124.717429246596, -1632.3478975710748, -4152.037698273385, -3512.4648824292285, -2675.839087467085, -2949.603253555686, -1737.2893377887415, -8221.82097695124, -14575.192579649995, 0.01425, -0.10625000000000001, 0.9884999999999999, 192.0, 0.0, 0.0, 0.0, 0.0, 0.0, 0.0, 0.0, 0.0, 0.0, 1.64592247786507E9, 0.0, 2022-02-27 11:41:17.865
56.0, -1358.9413593937588, -3907.5319656767806, -2028.6890302525796, -9589.725385871576, -146.2251122266188, 68.61985547779268, -4831.933061114915, -1592.8970686074579, -4011.3781704161374, -5058.870322569647, -3600.731921283236, -2846.5617116167205, -2966.1435444526132, -1839.0121268048438, -8607.2321065941, -15673.534950439329, 0.012125, -0.106125, 0.98825, 192.0, 0.0, 40.0, 126.0, 88.0, 15.0, 112.0, 0.0, 0.0, 0.0, 1.645922477872578E9, 0.0, 2022-02-27 11:41:17.872
58.0, -1274.4294136082428, -3822.170653601963, -1915.5444998198152, -9466.500218689469, -45.15052379972027, 197.1647378402636, -4624.86650048095, -1286.4323003807426, -1503.5347942751403, -4395.783471558509, -3742.553739852159, -2763.726146665352, -3203.9884572015358, -1948.5133228913933, -8326.829472402273, -14761.337907473793, 0.012125, -0.106125, 0.98825, 192.0, 0.0, 0.0, 0.0, 0.0, 0.0, 0.0, 0.0, 0.0, 0.0, 1.645922477887596E9, 0.0, 2022-02-27 11:41:17.887
60.0, -914.3875139221566, -3547.7135834352475, -1676.5149446147616, -9208.359921975127, 278.94977080223214, 376.626894071924, -4602.917087425839, -1304.7830825785497, -2986.371873184666, -4491.784213994052, -3423.482587752651, -2690.9488667188725, -2817.727961269374, -1665.5849415761163, -8377.210304404534, -15070.015498401583, 0.012125, -0.106125, 0.98825, 192.0, 0.0, 0.0, 0.0, 0.0, 0.0, 0.0, 0.0, 0.0, 0.0, 1.645922477894694E9, 0.0, 2022-02-27 11:41:17.894
62.0, -1551.3675274094974, -4060.5743599622683, -2144.336956064338, -9723.411169458768, -306.55417520453636, -10.639430360726163, -4818.8349388641045, -1530.2227771547768, -2994.954943055504, -5016.178490660011, -3830.2172816058737, -2893.701540672963, -3245.2050739771216, -2056.092268954786, -8592.41290002023, -15474.850293976104, 0.012125, -0.106125, 0.98825, 192.0, 0.0, 0.0, 0.0, 0.0, 0.0, 0.0, 0.0, 0.0, 0.0, 1.645922477902336E9, 0.0, 2022-02-27 11:41:17.902
64.0, -931.665412386109, -3555.648452716882, -1656.174857160432, -9189.316235699205, 296.20531752172917, 414.11076952347395, -4473.612245751888, -1158.557970351931, -1631.6549934929603, -4156.262177975438, -3514.543594663572, -2669.222971108314, -2956.219369914457, -1742.4302390134621, -8228.258279354368, -14578.03125119582, 0.012125, -0.106125, 0.98825, 192.0, 0.0, 0.0, 0.0, 0.0, 0.0, 0.0, 0.0, 0.0, 0.0, 1.645922477910203E9, 0.0, 2022-02-27 11:41:17.910
66.0, -1364.9092751633257, -3915.3103727472276, -2041.0271931919092, -9595.022749307484, -161.15607752276392, 69.69273921164742, -4879.29640761571, -1591.019522073212, -4015.580298373735, -5057.484514413419, -3601.4918805947163, -2841.286699925268, -2969.54100960982, -1839.6156239051372, -8616.977467176614, -15678.921720853057, 0.0110625, -0.1040625, 0.9901249999999999, 192.0, 0.0, 40.0, 126.0, 104.0, 15.5, 0.0, 0.0, 0.0, 0.0, 1.645922477917297E9, 0.0, 2022-02-27 11:41:17.917
68.0, -1274.518820586064, -3823.8917379250215, -1910.9400404620221, -9463.147457021172, -35.025183561466164, 207.84887168990036, -4607.879174694917, -1306.5935738794296, -1488.4473667678078, -4382.215962674137, -3741.1902834403854, -2756.1042018060925, -3207.497681081019, -1940.6902123320358, -8334.920803895093, -14749.15620674565, 0.0110625, -0.1040625, 0.9901249999999999, 192.0, 0.0, 0.0, 0.0, 0.0, 0.0, 0.0, 0.0, 0.0, 0.0, 1.645922477924937E9, 0.0, 2022-02-27 11:41:17.924
70.0, -921.1377407476593, -3553.1897608267977, -1685.5450493747055, -9209.410453964527, 271.46193640970426, 380.51609760714746, -4600.033712391104, -1277.8268787654495, -3006.1084635387024, -4498.17681290827, -3431.4621605231955, -2695.978009221317, -2831.5636910872095, -1672.469278868351, -8383.401737618655, -15083.65006251932, 0.0110625, -0.1040625, 0.9901249999999999, 192.0, 0.0, 0.0, 0.0, 0.0, 0.0, 0.0, 0.0, 0.0, 0.0, 1.64592247793297E9, 0.0, 2022-02-27 11:41:17.932
72.0, -1563.7503938377374, -4069.850333911221, -2153.501171291014, -9730.474320706644, -312.8797188853883, -19.602479887304295, -4776.433679632388, -1520.4550648278075, -3038.2279203209782, -5030.1483309445775, -3839.2473863658174, -2898.842441897684, -3265.3216439868984, -2062.1719434466295, -8594.536315743484, -15480.393526601021, 0.0110625, -0.1040625, 0.9901249999999999, 192.0, 0.0, 0.0, 0.0, 0.0, 0.0, 0.0, 0.0, 0.0, 0.0, 1.645922477939831E9, 0.0, 2022-02-27 11:41:17.939
74.0, -938.505046189433, -3554.6873277053032, -1661.248703151787, -9187.505744398326, 272.93715154375457, 419.98927831521974, -4480.407176066301, -1142.978804466582, -1622.244909077276, -4146.315651692826, -3517.896356331868, -2670.38526181999, -2966.9705589974596, -1747.1688088379872, -8220.01048565036, -14573.739716260401, 0.0110625, -0.1040625, 0.9901249999999999, 192.0, 0.0, 0.0, 0.0, 0.0, 0.0, 0.0, 0.0, 0.0, 0.0, 1.645922477947031E9, 0.0, 2022-02-27 11:41:17.947
76.0, -1354.2027895692338, -3903.4415964414593, -2028.6890302525796, -9588.250170737527, -133.9093010317446, 69.49157351154966, -4818.3655522305435, -1576.602646899539, -4013.6356966061235, -5041.7712380613375, -3598.541450326616, -2839.5209121132984, -2969.250436931901, -1841.336708228196, -8604.169917603722, -15669.198712014999, 0.01453125, -0.10403125, 0.9900625, 192.0, 0.0, 72.0, 126.0, 96.0, 15.0, 120.0, 0.0, 0.0, 0.0, 1.645922477955023E9, 0.0, 2022-02-27 11:41:17.955
78.0, -1308.1358442468459, -3852.010232449798, -1933.5376541063374, -9473.295149003881, -48.25741627900795, 208.02768564554285, -4604.325247326523, -1277.8268787654495, -1519.9856781942462, -4410.625029876832, -3753.595501613081, -2770.856353146595, -3207.9894194590356, -1952.067250259787, -8323.700228178528, -14767.462285454547, 0.01453125, -0.10403125, 0.9900625, 192.0, 0.0, 0.0, 0.0, 0.0, 0.0, 0.0, 0.0, 0.0, 0.0, 1.6459224779625E9, 0.0, 2022-02-27 11:41:17.962
80.0, -921.3389064477572, -3547.959452624256, -1685.7685668192587, -9199.508631170826, 283.42011969329354, 382.86303077495467, -4589.394282030378, -1312.0473995265245, -2973.8325445452388, -4488.766728492586, -3444.381468818363, -2699.4648813563444, -2828.769723030296, -1659.1923426618985, -8377.031490448891, -15061.879463419851, 0.01453125, -0.10403125, 0.9900625, 192.0, 0.0, 0.0, 0.0, 0.0, 0.0, 0.0, 0.0, 0.0, 0.0, 1.645922477970556E9, 0.0, 2022-02-27 11:41:17.970
82.0, -1558.028347257179, -4050.1360953016397, -2159.334976593849, -9715.342189710402, -313.6396781968687, -12.829901317346254, -4825.361648245054, -1537.8223702695811, -3061.8984176991485, -5017.698409282972, -3832.452456051404, -2887.1971830364687, -3244.422762921186, -2045.6316525497023, -8598.246705323065, -15500.286579166244, 0.01453125, -0.10403125, 0.9900625, 192.0, 0.0, 0.0, 0.0, 0.0, 0.0, 0.0, 0.0, 0.0, 0.0, 1.645922477977121E9, 0.0, 2022-02-27 11:41:17.977
84.0, -947.8033718828407, -3557.950682395778, -1672.826906779636, -9190.72439559989, 279.4862126691595, 417.1282550249404, -4467.152591604304, -1125.231519369068, -1598.1944320433656, -4143.633442358189, -3532.559100694549, -2671.525200787211, -2975.7100910794848, -1749.1581140945095, -8225.53136653082, -14564.106114400163, 0.01453125, -0.10403125, 0.9900625, 192.0, 0.0, 0.0, 0.0, 0.0, 0.0, 0.0, 0.0, 0.0, 0.0, 1.64592247798526E9, 0.0, 2022-02-27 11:41:17.985
86.0, -1362.9870251401694, -3913.4328262129816, -2043.0388501928867, -9586.640845136744, -132.3223271754178, 70.29623631194072, -4810.743607371283, -1589.7231208948042, -4002.83980403421, -5026.102665198167, -3602.0953776950096, -2836.972813245394, -2964.981253740937, -1836.8216558482238, -8601.17478384671, -15658.872206076647, 0.016265625000000002, -0.107015625, 0.9880312499999999, 192.0, 0.0, 72.0, 126.0, 72.0, 15.0, 104.0, 0.0, 0.0, 0.0, 1.645922477993207E9, 0.0, 2022-02-27 11:41:17.993
88.0, -1301.87735579936, -3850.758534760301, -1937.3374506637397, -9473.518666448435, -48.7268029125694, 200.74101695311273, -4601.732444969707, -1261.7559745020837, -1515.5153293031847, -4417.531718913522, -3762.715013350846, -2771.7280711803523, -3220.4840446095523, -1959.6891951190466, -8326.091864835247, -14759.169788261628, 0.016265625000000002, -0.107015625, 0.9880312499999999, 192.0, 0.0, 0.0, 0.0, 0.0, 0.0, 0.0, 0.0, 0.0, 0.0, 1.645922478000338E9, 0.0, 2022-02-27 11:41:18.000
90.0, -915.9521360340282, -3548.250025302175, -1683.9804272628342, -9199.642741637557, 293.76897737610074, 381.2537051741726, -4579.604217958953, -1292.5119748725863, -2966.4117653860767, -4488.900838959317, -3445.923739185779, -2702.415311624445, -2834.5588248442205, -1678.660712082471, -8372.89641772466, -15058.571405240466, 0.016265625000000002, -0.107015625, 0.9880312499999999, 192.0, 0.0, 0.0, 0.0, 0.0, 0.0, 0.0, 0.0, 0.0, 0.0, 1.645922478014779E9, 0.0, 2022-02-27 11:41:18.014
92.0, -1562.2304752147766, -4062.1166303296845, -2160.2290463720615, -9721.287753735514, -299.6921896567571, -15.512110651983102, -4807.994342803281, -1530.4909980882405, -3067.3745950906987, -5025.253298908866, -3836.4087148199937, -2896.3837500075997, -3244.422762921186, -2054.3711846317274, -8599.185478590189, -15497.425555875965, 0.016265625000000002, -0.107015625, 0.9880312499999999, 192.0, 0.0, 0.0, 0.0, 0.0, 0.0, 0.0, 0.0, 0.0, 0.0, 1.645922478022828E9, 0.0, 2022-02-27 11:41:18.022
94.0, -952.0278515848937, -3563.248045831686, -1676.7161103148594, -9192.557238645226, 281.40846269231594, 414.915432323865, -4481.971798178172, -1131.8476357278391, -1591.60066742905, -4132.971660253008, -3530.4356849712954, -2675.459107811345, -2970.9715212549595, -1749.0016518833224, -8229.375866577133, -14562.832064966211, 0.016265625000000002, -0.107015625, 0.9880312499999999, 192.0, 0.0, 0.0, 0.0, 0.0, 0.0, 0.0, 0.0, 0.0, 0.0, 1.645922478030087E9, 0.0, 2022-02-27 11:41:18.030
96.0, -1351.0511936010355, -3913.3881227240713, -2029.2701756084175, -9578.348347943826, -114.2621176555297, 74.11838461379821, -4830.636659936507, -1583.956370825335, -4003.488004623414, -5034.171644946533, -3599.279057893641, -2839.8785400245833, -2959.706242049485, -1829.4232284335171, -8608.059121138946, -15658.738095609915, 0.014, -0.112, 0.986, 192.0, 0.0, 56.0, 126.0, 64.0, 15.0, 104.0, 0.0, 0.0, 0.0, 1.645922478037537E9, 0.0, 2022-02-27 11:41:18.037
98.0, -1318.3952949518318, -3866.1588866900074, -1945.38407866765, -9491.869448646243, -56.6393204497481, 182.68080743322463, -4623.145416157891, -1294.7695010625723, -1549.1547047084218, -4433.40145747679, -3771.298083221684, -2788.5812864996537, -3220.7522655430157, -1980.096337806742, -8345.60493774473, -14788.025890353429, 0.014, -0.112, 0.986, 192.0, 0.0, 0.0, 0.0, 0.0, 0.0, 0.0, 0.0, 0.0, 0.0, 1.645922478045435E9, 0.0, 2022-02-27 11:41:18.045
100.0, -926.1445315056482, -3568.1430778673985, -1683.466337140362, -9202.950799816943, 293.3219424869946, 384.3605976534603, -4582.532296482599, -1286.1864311917343, -2917.439093284499, -4489.861963970896, -3448.583596775961, -2717.2792216872244, -2828.479150352377, -1678.5489533601944, -8370.616539790219, -15042.947535866206, 0.014, -0.112, 0.986, 192.0, 0.0, 0.0, 0.0, 0.0, 0.0, 0.0, 0.0, 0.0, 0.0, 1.645922478052599E9, 0.0, 2022-02-27 11:41:18.052
102.0, -1571.9534840528352, -4080.0427293828407, -2167.1357354087518, -9725.31106773747, -304.4978147146481, -21.23415723254171, -4823.931136599915, -1550.4958093757402, -3097.7729675499163, -5049.281424198321, -3844.52239805727, -2912.6111164821527, -3245.294480954943, -2054.102963698264, -8604.304028070454, -15507.774413558773, 0.014, -0.112, 0.986, 192.0, 0.0, 0.0, 0.0, 0.0, 0.0, 0.0, 0.0, 0.0, 0.0, 1.645922478060402E9, 0.0, 2022-02-27 11:41:18.060
104.0, -955.0453370863602, -3571.1605633688646, -1680.918238272457, -9191.551410144737, 280.33557895846116, 411.8755950779432, -4487.827955225463, -1140.7659817655065, -1579.6201324010053, -4132.546977108357, -3533.252004772664, -2675.3697008335234, -2970.9044660215936, -1759.2834543327635, -8230.716971244452, -14566.475399312425, 0.014, -0.112, 0.986, 192.0, 0.0, 0.0, 0.0, 0.0, 0.0, 0.0, 0.0, 0.0, 0.0, 1.645922478067122E9, 0.0, 2022-02-27 11:41:18.067
106.0, -1356.8626471594152, -3911.7340936343785, -2033.673469266113, -9581.6117026343, -122.84518752636761, 70.27388456748541, -4828.334430257611, -1590.5501354396506, -3999.129414454629, -5024.247470408377, -3594.2275636467416, -2840.4373336359663, -2957.15814318158, -1836.6875453814919, -8605.958057160147, -15656.078238019734, 0.01, -0.106, 0.988, 192.0, 0.0, 40.0, 126.0, 88.0, 15.0, 112.0, 0.0, 0.0, 0.0, 1.645922478075127E9, 0.0, 2022-02-27 11:41:18.075
108.0, -1320.6528211418179, -3867.075308212675, -1945.1382094786418, -9492.338835279803, -50.6267011912705, 186.10062433488662, -4618.138625399903, -1295.0600737404911, -1542.2256639272766, -4442.409210492278, -3768.2582459757623, -2788.827155688662, -3220.7746172874713, -1979.738709895457, -8340.665202220107, -14787.087117086307, 0.01, -0.106, 0.988, 192.0, 0.0, 0.0, 0.0, 0.0, 0.0, 0.0, 0.0, 0.0, 0.0, 1.645922478082306E9, 0.0, 2022-02-27 11:41:18.082
110.0, -924.5575576493213, -3552.7203741932362, -1684.7403865743145, -9203.643703895057, 301.1450530463521, 379.2196964287396, -4578.196058058269, -1298.2116697086894, -2926.7374189779066, -4472.785231207041, -3445.6555182523157, -2721.2131287113584, -2833.754162043829, -1684.1592412184766, -8373.634025291685, -15046.389704512323, 0.01, -0.106, 0.988, 192.0, 0.0, 0.0, 0.0, 0.0, 0.0, 0.0, 0.0, 0.0, 0.0, 1.645922478089752E9, 0.0, 2022-02-27 11:41:18.089
112.0, -1576.3344259660753, -4078.90279041562, -2167.672177275679, -9729.557899183977, -301.3015152575392, -23.111703766787503, -4817.113854541047, -1564.8009258271368, -3117.4872061594974, -5046.778028819326, -3834.6652787524795, -2926.3350875777114, -3239.0136407630016, -2072.1855249626074, -8604.438138537185, -15521.610143376607, 0.01, -0.106, 0.988, 192.0, 0.0, 0.0, 0.0, 0.0, 0.0, 0.0, 0.0, 0.0, 0.0, 1.645922478097668E9, 0.0, 2022-02-27 11:41:18.097
114.0, -964.8354011577846, -3584.638665275415, -1683.0416539957112, -9194.39008169056, 282.2354772371623, 410.62389738844604, -4487.3585685919015, -1148.723202791596, -1568.7124811068156, -4149.623709872211, -3531.2626995161418, -2678.4989450572666, -2969.697471821007, -1757.629425243071, -8221.10572112867, -14564.821370222733, 0.01, -0.106, 0.988, 192.0, 0.0, 0.0, 0.0, 0.0, 0.0, 0.0, 0.0, 0.0, 0.0, 1.6459224781058E9, 0.0, 2022-02-27 11:41:18.105
116.0, -1342.6692894302953, -3910.616506411613, -2025.649193006658, -9566.457219893602, -115.60322232284813, 80.15335561673113, -4841.298442041689, -1596.8086238871365, -3989.384053872115, -5020.715894784438, -3585.4880315647165, -2823.092379938648, -2945.0658494312584, -1826.5622051432379, -8595.363330288332, -15650.222080972444, 0.012, -0.10400000000000001, 0.986, 192.0, 0.0, 48.0, 126.0, 96.0, 15.0, 104.0, 0.0, 0.0, 0.0, 1.645922478112436E9, 0.0, 2022-02-27 11:41:18.112
118.0, -1321.8151118534938, -3868.014081479798, -1952.1566572376082, -9489.880143389719, -61.26613155199666, 174.58947594040347, -4625.492349325699, -1299.262201698089, -1554.3626611665084, -4432.261518509569, -3764.4137459294498, -2781.7640044407854, -3218.7406085420384, -1980.6551314181247, -8339.681725464074, -14795.26785555695, 0.012, -0.10400000000000001, 0.986, 192.0, 0.0, 0.0, 0.0, 0.0, 0.0, 0.0, 0.0, 0.0, 0.0, 1.645922478120368E9, 0.0, 2022-02-27 11:41:18.120
120.0, -908.7548743194193, -3550.574606725527, -1678.660712082471, -9188.802145576734, 298.7087129007236, 379.95730399576473, -4584.879229650406, -1294.7024458292062, -2888.672398170519, -4449.762934418075, -3434.6584599803045, -2704.516375603244, -2830.535510842265, -1687.4002441644961, -8363.285167608878, -15032.241050272114, 0.012, -0.10400000000000001, 0.986, 192.0, 0.0, 0.0, 0.0, 0.0, 0.0, 0.0, 0.0, 0.0, 0.0, 1.645922478134658E9, 0.0, 2022-02-27 11:41:18.134
122.0, -1564.2868357046648, -4082.52377301738, -2171.1590494107068, -9722.874727591841, -314.533747975081, -27.805570102401987, -4832.268337281745, -1563.6386351154608, -3137.8943488471928, -5051.404839921575, -3827.646830993513, -2907.604325724164, -3235.035030249957, -2057.992167233487, -8604.304028070454, -15526.013437034302, 0.012, -0.10400000000000001, 0.986, 192.0, 0.0, 0.0, 0.0, 0.0, 0.0, 0.0, 0.0, 0.0, 0.0, 1.645922478142021E9, 0.0, 2022-02-27 11:41:18.142
124.0, -958.1745813101031, -3581.464717562761, -1681.4099766504737, -9192.780756089778, 273.7865178330562, 399.96211528326455, -4497.819184996985, -1155.875761017294, -1554.7202890777933, -4140.1018667342505, -3530.7486093936695, -2673.3803955770013, -2980.0686812482695, -1757.6741287319815, -8225.19609036399, -14559.255785853362, 0.012, -0.10400000000000001, 0.986, 192.0, 0.0, 0.0, 0.0, 0.0, 0.0, 0.0, 0.0, 0.0, 0.0, 1.645922478149904E9, 0.0, 2022-02-27 11:41:18.149
126.0, -1335.1143998044015, -3896.1772794934845, -2014.1156928677194, -9556.868321522275, -109.36708561981746, 75.70535847012502, -4831.754247159272, -1592.762958140726, -3984.801946258777, -5011.104644668656, -3577.9331419388227, -2828.9708887303937, -2941.958956951971, -1821.5107108963384, -8592.971693631613, -15642.063694246257, 0.01, -0.10200000000000001, 0.986, 192.0, 0.0, 40.0, 126.0, 104.0, 15.0, 104.0, 0.0, 0.0, 0.0, 1.645922478157987E9, 0.0, 2022-02-27 11:41:18.157
128.0, -1319.7363996191502, -3867.745860546334, -1941.584282110248, -9481.609997941256, -62.16020133020894, 178.61278994235875, -4623.503044069176, -1297.9658005196811, -1567.21491422831, -4430.987469075617, -3763.452620917871, -2782.7474811968186, -3219.4111608756975, -1976.4977069494375, -8340.911071409115, -14796.720718946544, 0.01, -0.10200000000000001, 0.986, 192.0, 0.0, 0.0, 0.0, 0.0, 0.0, 0.0, 0.0, 0.0, 0.0, 1.645922478164514E9, 0.0, 2022-02-27 11:41:18.164
130.0, -929.407886196123, -3569.9088656793674, -1668.9377032444124, -9184.778831574778, 298.7534163896342, 386.95340001027586, -4572.541066711076, -1296.579992363452, -2880.916342844527, -4456.401402521301, -3435.5972332474275, -2695.262753398747, -2829.9767172308825, -1677.5207731152504, -8360.446496063054, -15022.383930967324, 0.01, -0.10200000000000001, 0.986, 192.0, 0.0, 0.0, 0.0, 0.0, 0.0, 0.0, 0.0, 0.0, 0.0, 1.645922478172711E9, 0.0, 2022-02-27 11:41:18.172
132.0, -1633.8231127051251, -4136.190311454572, -2167.5827702978577, -9729.02145731705, -311.0915793289637, -23.916366567178557, -4822.47827321032, -1562.051661259134, -3178.6639307336727, -5060.9043313150805, -3841.527264300259, -2912.253488570868, -3236.487893639552, -2055.064088709842, -8600.951266402159, -15530.237916736356, 0.01, -0.10200000000000001, 0.986, 192.0, 0.0, 0.0, 0.0, 0.0, 0.0, 0.0, 0.0, 0.0, 0.0, 1.645922478180563E9, 0.0, 2022-02-27 11:41:18.180
134.0, -1091.7709579194734, -3694.765710206713, -1690.4400814104179, -9206.236506251873, 274.0323870220646, 407.3158392090606, -4479.446051054722, -1131.914690961205, -1581.9447138243574, -4165.918131580131, -3573.440441303306, -2707.444454126889, -2986.751852840406, -1762.725622978881, -8217.417683293545, -14552.59496600568, 0.01, -0.10200000000000001, 0.986, 192.0, 0.0, 0.0, 0.0, 0.0, 0.0, 0.0, 0.0, 0.0, 0.0, 1.645922478187618E9, 0.0, 2022-02-27 11:41:18.187
136.0, -1500.0032186512017, -4047.677403411556, -2016.037942890876, -9559.394068645724, -91.35157958883997, 96.40307383573936, -4811.9058980829595, -1562.9010275484356, -4039.6978306410115, -5053.930587045024, -3630.7726658311685, -2871.886238084583, -2948.5750733107416, -1821.466007407428, -8584.276865038499, -15630.32902840722, 0.012, -0.108, 0.99, 192.0, 0.0, 48.0, 126.0, 80.0, 15.0, 120.0, 0.0, 0.0, 0.0, 1.645922478194257E9, 0.0, 2022-02-27 11:41:18.194
138.0, -1559.21298971331, -4080.1544881051173, -1966.5735324112813, -9505.392254041702, -60.99791061853298, 186.10062433488662, -4606.739235727696, -1287.5722393479634, -1661.248703151787, -4507.564545579498, -3834.8887961970327, -2838.537435357265, -3234.520940127485, -1979.3363784952617, -8340.396981286643, -14808.723605719044, 0.012, -0.108, 0.99, 192.0, 0.0, 0.0, 0.0, 0.0, 0.0, 0.0, 0.0, 0.0, 0.0, 1.64592247820227E9, 0.0, 2022-02-27 11:41:18.202
140.0, -1156.9709964956041, -3759.8986935494777, -1678.9289330159347, -9191.05967176672, 322.4015620233491, 414.0213625456527, -4547.797685599052, -1258.5373233005196, -2929.5537387792756, -4491.918324460784, -3516.8234725980133, -2754.0701930606597, -2842.4042871480333, -1663.9085607419684, -8344.040315632858, -14996.522962632533, 0.012, -0.108, 0.99, 192.0, 0.0, 0.0, 0.0, 0.0, 0.0, 0.0, 0.0, 0.0, 0.0, 1.645922478210752E9, 0.0, 2022-02-27 11:41:18.210
142.0, -1830.2278912339082, -4314.579583952378, -2183.05017746093, -9737.515120210066, -298.373436733894, -18.77546534245793, -4807.167328258434, -1556.217855956299, -3274.999949336046, -5079.568037935262, -3905.430901697982, -2978.5264108808533, -3243.1487134872336, -2047.3750886172163, -8597.88907741178, -15531.511966170308, 0.012, -0.108, 0.99, 192.0, 0.0, 0.0, 0.0, 0.0, 0.0, 0.0, 0.0, 0.0, 0.0, 1.645922478217317E9, 0.0, 2022-02-27 11:41:18.217
144.0, -1227.6025089743746, -3829.3232118276615, -1702.2641542272752, -9209.231640008884, 274.9488085447322, 410.33332471052705, -4482.843516211929, -1134.5969002958418, -1629.1068946250552, -4182.726643410521, -3621.5860988600375, -2756.0594983171823, -2997.3242279677665, -1763.8655619461015, -8215.115453614648, -14546.73880895839, 0.012, -0.108, 0.99, 192.0, 0.0, 0.0, 0.0, 0.0, 0.0, 0.0, 0.0, 0.0, 0.0, 1.645922478224835E9, 0.0, 2022-02-27 11:41:18.224
146.0, -1561.3587571810197, -4104.652000028133, -2019.323649325806, -9556.734211055544, -85.92010568620034, 96.98421919157734, -4811.682380638406, -1572.6240363864943, -4069.5597612333017, -5071.499058186896, -3652.2526922527186, -2882.95035158996, -2953.4924570909093, -1824.7964173312687, -8586.869667395315, -15624.42816787102, 0.014, -0.11, 0.99, 192.0, 0.0, 56.0, 126.0, 72.0, 15.0, 120.0, 0.0, 0.0, 0.0, 1.645922478232868E9, 0.0, 2022-02-27 11:41:18.232
148.0, -1544.5949488395393, -4074.6559589691115, -1959.2868637188512, -9498.038530115906, -58.248646050530205, 183.97720861163242, -4616.462244565755, -1302.1232249883683, -1670.5246771007392, -4496.120452418381, -3837.4145433204826, -2829.574385830687, -3241.047649508435, -1982.8232506302895, -8343.548577254842, -14808.656550485677, 0.014, -0.11, 0.99, 192.0, 0.0, 0.0, 0.0, 0.0, 0.0, 0.0, 0.0, 0.0, 0.0, 1.645922478240026E9, 0.0, 2022-02-27 11:41:18.240
150.0, -1087.6135334507865, -3710.993076681266, -1662.2321799078204, -9178.63210184957, 326.76015219213394, 408.38872294291536, -4556.090182791971, -1281.9172480007708, -2902.798700666273, -4472.092327128927, -3491.208373452231, -2739.0721725311487, -2840.7055545694298, -1668.6471305664934, -8350.209397102522, -15000.836849312407, 0.014, -0.11, 0.99, 192.0, 0.0, 0.0, 0.0, 0.0, 0.0, 0.0, 0.0, 0.0, 0.0, 1.645922478246522E9, 0.0, 2022-02-27 11:41:18.246
152.0, -1751.594454240138, -4255.45921986809, -2168.2980261204275, -9726.83098636043, -306.2636025266174, -16.249718219008233, -4822.388866232499, -1548.0147657412012, -3268.9873300775685, -5098.030578855345, -3874.71960481639, -2943.411820341566, -3237.180797717667, -2043.195312404074, -8606.047464137968, -15539.31272498521, 0.014, -0.11, 0.99, 192.0, 0.0, 0.0, 0.0, 0.0, 0.0, 0.0, 0.0, 0.0, 0.0, 1.645922478262574E9, 0.0, 2022-02-27 11:41:18.262
154.0, -1132.27231887249, -3742.7549055522572, -1689.3224941876524, -9202.123785272097, 271.953674787721, 413.0378857896192, -4483.491716801133, -1130.752400249529, -1581.922362079902, -4172.735413638999, -3593.7134735242694, -2712.2053756958694, -2999.6488093911184, -1759.4846200328614, -8224.793758963795, -14542.871957167621, 0.014, -0.11, 0.99, 192.0, 0.0, 0.0, 0.0, 0.0, 0.0, 0.0, 0.0, 0.0, 0.0, 1.645922478269654E9, 0.0, 2022-02-27 11:41:18.269
156.0, -1455.6797093963278, -4009.992362259908, -1998.3353612822727, -9543.121998682262, -82.99202716255512, 102.77332100550187, -4812.442339949887, -1573.987492798268, -4019.670667609056, -5016.513766826841, -3617.0486947356103, -2854.2060082204353, -2940.6402040291077, -1812.4806061363945, -8589.060138351935, -15616.962685222947, 0.016, -0.11, 0.988, 192.0, 0.0, 64.0, 126.0, 72.0, 15.0, 112.0, 0.0, 0.0, 0.0, 1.645922478277136E9, 0.0, 2022-02-27 11:41:18.277
158.0, -1460.4406309653082, -3994.592010330202, -1950.681442103558, -9496.943294637596, -65.42355602068378, 178.61278994235875, -4625.805273748073, -1309.3204867029772, -1643.65788026546, -4472.561713762488, -3810.65950520748, -2820.991315959849, -3232.5092831265074, -1994.7367304249683, -8356.333775083278, -14820.391216324713, 0.016, -0.11, 0.988, 192.0, 0.0, 0.0, 0.0, 0.0, 0.0, 0.0, 0.0, 0.0, 0.0, 1.645922478285248E9, 0.0, 2022-02-27 11:41:18.285
160.0, -1006.1190731667368, -3643.2002357483193, -1650.6763280244265, -9171.34543315714, 326.51428300312557, 405.17007174135114, -4557.319528737013, -1267.6121315493742, -2847.098153483648, -4450.053507095994, -3467.4931725851507, -2723.649468856987, -2836.972813245394, -1671.686967812415, -8353.517455281908, -14988.498686373077, 0.016, -0.11, 0.988, 192.0, 0.0, 0.0, 0.0, 0.0, 0.0, 0.0, 0.0, 0.0, 0.0, 1.645922478293101E9, 0.0, 2022-02-27 11:41:18.293
162.0, -1664.7355752868148, -4166.901608336164, -2152.160066623696, -9719.63372464582, -297.88169835587723, -19.513072909483064, -4826.456883723365, -1574.4345276873742, -3259.331376472876, -5074.158915777078, -3845.483523068848, -2927.117398633647, -3227.010753990502, -2043.6423472931801, -8615.65871425375, -15550.846225124149, 0.016, -0.11, 0.988, 192.0, 0.0, 0.0, 0.0, 0.0, 0.0, 0.0, 0.0, 0.0, 0.0, 1.645922478299747E9, 0.0, 2022-02-27 11:41:18.299
164.0, -1058.3103964698787, -3663.987358091755, -1672.1340027015215, -9197.586381147668, 273.3841864328607, 412.45674043378125, -4488.654969770309, -1169.6220838573079, -1537.2635766581986, -4125.640288071667, -3566.958435411267, -2691.5747155636213, -2991.5127744093866, -1768.268855603797, -8222.446825795987, -14548.102265370164, 0.015, -0.111, 0.986, 192.0, 0.0, 56.0, 126.0, 64.0, 15.0, 96.0, 0.0, 0.0, 0.0, 1.645922478307817E9, 0.0, 2022-02-27 11:41:18.307
166.0, -1381.158993382334, -3943.5629777387358, -1983.940837853055, -9533.398989844203, -80.13100387227583, 102.39334134976166, -4822.254755765767, -1571.3052834636312, -3980.711577023456, -4995.234906105388, -3586.9408949543117, -2843.7453918153515, -2930.3584015796664, -1807.2279461893972, -8587.249647051054, -15622.327103892221, 0.015, -0.111, 0.986, 192.0, 0.0, 0.0, 0.0, 0.0, 0.0, 0.0, 0.0, 0.0, 0.0, 1.645922478314689E9, 0.0, 2022-02-27 11:41:18.314
168.0, -1408.606935573451, -3947.9215679075205, -1953.743631093935, -9500.586628983812, -83.48376554057188, 164.71000489115775, -4645.050125724092, -1296.356474918899, -1632.5043597822619, -4480.407176066301, -3801.3835312585275, -2811.245955377335, -3242.5899198758507, -1996.8601461482224, -8361.429972819087, -14826.157966394183, 0.015, -0.111, 0.986, 192.0, 0.0, 0.0, 0.0, 0.0, 0.0, 0.0, 0.0, 0.0, 0.0, 1.645922478322759E9, 0.0, 2022-02-27 11:41:18.322
170.0, -946.66343291562, -3576.5920372715045, -1649.4916855682952, -9161.018927218787, 312.25387004063964, 409.68512412132316, -4573.725709167208, -1274.362358374877, -2808.831966976162, -4421.711495126664, -3460.4076695928184, -2711.579526851121, -2846.807580805729, -1681.7005493283928, -8356.89256869466, -14977.211055423148, 0.015, -0.111, 0.986, 192.0, 0.0, 0.0, 0.0, 0.0, 0.0, 0.0, 0.0, 0.0, 0.0, 1.645922478330872E9, 0.0, 2022-02-27 11:41:18.330
172.0, -1607.9174408814242, -4102.975619193986, -2152.025956156964, -9715.699817621688, -304.87779437038836, -17.12143625276521, -4846.014660121758, -1580.0895190345668, -3273.0553475684346, -5058.7362121029155, -3831.2231101063626, -2911.3370670482004, -3224.820283033882, -2040.8930827251772, -8623.124196901823, -15560.457475239931, 0.015, -0.111, 0.986, 192.0, 0.0, 0.0, 0.0, 0.0, 0.0, 0.0, 0.0, 0.0, 0.0, 1.645922478337942E9, 0.0, 2022-02-27 11:41:18.337
174.0, -1011.7293610250189, -3614.7241133122584, -1677.1631452039655, -9202.861392839122, 263.16943921678535, 410.914470066365, -4483.044681912027, -1141.1906649101575, -1485.5639917330734, -4117.683067045577, -3562.7563074536693, -2684.131584660004, -2993.9714662994706, -1770.8393062161574, -8224.682000241519, -14542.313163556239, 0.014499999999999999, -0.1085, 0.988, 192.0, 0.0, 56.0, 126.0, 88.0, 15.0, 120.0, 0.0, 0.0, 0.0, 1.645922478345476E9, 0.0, 2022-02-27 11:41:18.345
176.0, -1306.034780268047, -3869.489296613848, -1958.7504218519239, -9512.723626223044, -49.17383780167554, 124.47686487160503, -4790.4258716614095, -1573.473402675796, -3941.1266375931073, -4947.938614837959, -3567.450173789284, -2821.5501095712316, -2916.6791339730185, -1806.847966533657, -8573.369213744309, -15603.2834176163, 0.014499999999999999, -0.1085, 0.988, 192.0, 0.0, 0.0, 0.0, 0.0, 0.0, 0.0, 0.0, 0.0, 0.0, 1.645922478352746E9, 0.0, 2022-02-27 11:41:18.352
178.0, -1366.3621385529207, -3899.3512272061384, -1953.6095206272032, -9504.051149374383, -85.58482951937074, 172.68957766170237, -4646.4359338803215, -1302.614963366385, -1641.0427261641892, -4456.714326943676, -3784.664426405958, -2800.226545360869, -3232.621041848784, -1994.8708408917, -8361.36291758572, -14847.79445502692, 0.014499999999999999, -0.1085, 0.988, 192.0, 0.0, 0.0, 0.0, 0.0, 0.0, 0.0, 0.0, 0.0, 0.0, 1.645922478360225E9, 0.0, 2022-02-27 11:41:18.360
180.0, -899.7024178150199, -3531.1732925383203, -1630.5150545257395, -9151.251214891818, 331.94575690576517, 422.55972892758, -4552.916235079317, -1242.265253337056, -2716.1169309755483, -4379.332587639402, -3434.1443698578323, -2690.166555662937, -2821.281888637768, -1670.5246771007392, -8337.424199274088, -14949.651354509755, 0.014499999999999999, -0.1085, 0.988, 192.0, 0.0, 0.0, 0.0, 0.0, 0.0, 0.0, 0.0, 0.0, 0.0, 1.645922478368081E9, 0.0, 2022-02-27 11:41:18.368
182.0, -1564.8009258271368, -4068.553932732813, -2137.4973222610142, -9711.363579197357, -293.12077678689684, -1.095235478310046, -4824.914613355949, -1554.2061989553213, -3266.0592515539233, -5036.7197438144385, -3809.8101389181784, -2903.2010320664685, -3207.1177014252785, -2024.5316057838925, -8613.825871208415, -15557.395286249553, 0.014499999999999999, -0.1085, 0.988, 192.0, 0.0, 0.0, 0.0, 0.0, 0.0, 0.0, 0.0, 0.0, 0.0, 1.645922478381731E9, 0.0, 2022-02-27 11:41:18.381
184.0, -968.9481221375612, -3575.6756157488367, -1658.655900794971, -9190.545581644248, 277.36279694590536, 419.4081329593817, -4491.136013404848, -1145.9292347346825, -1440.346412699987, -4111.8716134871975, -3537.431780985806, -2668.038328652183, -2982.952056283004, -1763.2844165902636, -8215.96481990395, -14534.40064601906, 0.014249999999999999, -0.10725, 0.988, 192.0, 0.0, 56.0, 126.0, 88.0, 15.0, 112.0, 0.0, 0.0, 0.0, 1.645922478389772E9, 0.0, 2022-02-27 11:41:18.389
186.0, -1274.7646897750724, -3842.488389311837, -1949.6756136030692, -9504.40877728567, -48.36917500128448, 130.28831842998486, -4795.94675254187, -1558.855361802025, -3906.0567505427302, -4935.019306542791, -3541.276281032119, -2799.9136209384947, -2899.7812151648063, -1790.4641378479168, -8567.378946230287, -15595.236789612389, 0.014249999999999999, -0.10725, 0.988, 192.0, 0.0, 0.0, 0.0, 0.0, 0.0, 0.0, 0.0, 0.0, 0.0, 1.645922478397665E9, 0.0, 2022-02-27 11:41:18.397
188.0, -1320.0493240415244, -3859.4757150978703, -1930.6095755826923, -9481.386480496703, -64.52948624247149, 184.60305745638104, -4637.6293465649305, -1310.7957018370273, -1595.6239814310052, -4437.357716245379, -3760.1222109940304, -2769.1352688235365, -3215.7901782739377, -1981.8844773631665, -8355.529112282886, -14839.144329922716, 0.014249999999999999, -0.10725, 0.988, 192.0, 0.0, 0.0, 0.0, 0.0, 0.0, 0.0, 0.0, 0.0, 0.0, 1.645922478404941E9, 0.0, 2022-02-27 11:41:18.404
190.0, -862.9337981860398, -3500.3949404233626, -1616.4111037744408, -9131.961659426888, 342.5181320331254, 437.3789355014486, -4561.544008439066, -1264.8628669813713, -2699.5989918230766, -4364.178104898704, -3411.479700980151, -2667.5242385297106, -2813.905812967517, -1655.9736914603343, -8337.535957996364, -14955.90984295724, 0.014249999999999999, -0.10725, 0.988, 192.0, 0.0, 0.0, 0.0, 0.0, 0.0, 0.0, 0.0, 0.0, 0.0, 1.64592247841371E9, 0.0, 2022-02-27 11:41:18.413
192.0, -1543.700879061327, -4048.683231912045, -2132.378772780749, -9702.266419204047, -299.4016169788381, -8.359552426284841, -4843.757133931772, -1582.3693969690082, -3248.4013734342307, -5029.522482099829, -3788.173650285441, -2878.5023544433543, -3194.5113175524853, -2022.8328732052892, -8614.921106686725, -15572.572120734707, 0.014249999999999999, -0.10725, 0.988, 192.0, 0.0, 0.0, 0.0, 0.0, 0.0, 0.0, 0.0, 0.0, 0.0, 1.645922478420335E9, 0.0, 2022-02-27 11:41:18.420
194.0, -970.982130882994, -3576.9943686716997, -1667.8424677661023, -9192.445479922948, 248.7525640431123, 408.32166770954944, -4499.026179197572, -1147.7620777800178, -1439.4523429217747, -4092.962037678008, -3530.3909814823846, -2656.281311068691, -2986.3942249291213, -1765.787811969258, -8219.876375183627, -14540.547375744269, 0.014124999999999999, -0.106625, 0.986, 192.0, 0.0, 56.0, 126.0, 88.0, 15.0, 96.0, 0.0, 0.0, 0.0, 1.645922478428351E9, 0.0, 2022-02-27 11:41:18.428
196.0, -1271.9260182292485, -3841.0578776666976, -1946.7922385683346, -9495.06574810335, -53.71124192610287, 138.8713883008228, -4809.201337003868, -1574.7698038542037, -3921.3453437501603, -4942.5741961686845, -3546.238368301197, -2808.295525109235, -2911.627639726119, -1792.5875535711712, -8569.927045098191, -15596.89081870208, 0.014124999999999999, -0.106625, 0.986, 192.0, 0.0, 0.0, 0.0, 0.0, 0.0, 0.0, 0.0, 0.0, 0.0, 1.645922478434576E9, 0.0, 2022-02-27 11:41:18.434
198.0, -1358.6284349713844, -3895.707892859923, -1947.999232768921, -9500.698387706088, -84.13196612977579, 175.6847114187135, -4635.081247697026, -1321.032800797558, -1645.5354267997059, -4468.828972438451, -3773.913237322955, -2784.1109376085924, -3226.3402016568425, -1987.0477303323426, -8366.41441183262, -14858.322126665369, 0.014124999999999999, -0.106625, 0.986, 192.0, 0.0, 0.0, 0.0, 0.0, 0.0, 0.0, 0.0, 0.0, 0.0, 1.64592247844195E9, 0.0, 2022-02-27 11:41:18.441
200.0, -891.9016590001178, -3533.0955425614766, -1625.0388771341893, -9146.57970030066, 342.0263936551087, 426.51598769616936, -4540.287499462068, -1249.6860324962179, -2690.457128340856, -4387.15569819876, -3429.361096544397, -2693.698131286875, -2820.410170604011, -1680.471203383351, -8331.210414315512, -14944.309287584936, 0.014124999999999999, -0.106625, 0.986, 192.0, 0.0, 0.0, 0.0, 0.0, 0.0, 0.0, 0.0, 0.0, 0.0, 1.645922478449964E9, 0.0, 2022-02-27 11:41:18.449
202.0, -1597.278010520698, -4107.62478204069, -2144.9181014201763, -9711.698855364188, -301.99441933565373, -9.700657093603265, -4821.561851687652, -1560.3305769360754, -3299.2068885811436, -5074.8741715996475, -3809.787787173723, -2910.867680414639, -3203.8990502237143, -2041.3401176142834, -8617.46920555463, -15570.024021866802, 0.014124999999999999, -0.106625, 0.986, 192.0, 0.0, 0.0, 0.0, 0.0, 0.0, 0.0, 0.0, 0.0, 0.0, 1.645922478457957E9, 0.0, 2022-02-27 11:41:18.457
204.0, -1042.9100445401723, -3646.8435700945342, -1679.823002794147, -9198.793375348256, 258.2520554366178, 415.6083364019795, -4498.802661753019, -1160.457868630632, -1458.831305364526, -4132.144645708161, -3554.8214381720354, -2688.6019335510655, -2993.502079665909, -1780.1599836540204, -8219.518747272343, -14533.417169263026, 0.0130625, -0.1043125, 0.986, 192.0, 0.0, 48.0, 126.0, 104.0, 15.0, 104.0, 0.0, 0.0, 0.0, 1.645922478464669E9, 0.0, 2022-02-27 11:41:18.464
206.0, -1382.835374216482, -3952.0566406317525, -1965.4782969329713, -9505.816937186353, -49.88909362424536, 136.74797257756862, -4782.0886709795805, -1552.3510041655309, -3947.16160859604, -4964.009519101324, -3565.058537132566, -2827.763894529807, -2908.8336716692056, -1796.6332193175817, -8572.050460821445, -15587.637196497584, 0.0130625, -0.1043125, 0.986, 192.0, 0.0, 0.0, 0.0, 0.0, 0.0, 0.0, 0.0, 0.0, 0.0, 1.64592247847267E9, 0.0, 2022-02-27 11:41:18.472
208.0, -1508.183957121844, -4043.877606854154, -1965.679462633069, -9509.527326765934, -83.59552426284841, 178.59043819790344, -4617.155148643869, -1303.3972744223208, -1699.045503025711, -4535.347763937445, -3815.867461665566, -2832.0107259763154, -3242.9922512760463, -2009.6229922322027, -8362.41344957512, -14853.360039396292, 0.0130625, -0.1043125, 0.986, 192.0, 0.0, 0.0, 0.0, 0.0, 0.0, 0.0, 0.0, 0.0, 0.0, 1.645922478480666E9, 0.0, 2022-02-27 11:41:18.480
210.0, -1062.6466348942083, -3697.962009663822, -1637.3323365846084, -9149.843054991134, 351.3247193485164, 440.26231053618324, -4519.746246307641, -1238.0184218905476, -2732.903091061484, -4434.45198946619, -3468.6331115523712, -2732.2101869833696, -2823.0700281941927, -1681.0747004836442, -8323.432007245065, -14935.815624691919, 0.0130625, -0.1043125, 0.986, 192.0, 0.0, 0.0, 0.0, 0.0, 0.0, 0.0, 0.0, 0.0, 0.0, 1.645922478487935E9, 0.0, 2022-02-27 11:41:18.487
212.0, -1784.1832976559756, -4274.704071844109, -2167.314549364394, -9720.505442679578, -296.2276692661845, 1.452863389594959, -4815.817453362639, -1562.0069577702234, -3384.0988140224, -5128.496006547929, -3852.2561016388063, -2953.0677739462585, -3203.8543467348036, -2038.4343908350936, -8611.769510718526, -15571.432181767486, 0.0130625, -0.1043125, 0.986, 192.0, 0.0, 0.0, 0.0, 0.0, 0.0, 0.0, 0.0, 0.0, 0.0, 1.64592247849502E9, 0.0, 2022-02-27 11:41:18.495
214.0, -1207.3071250089556, -3799.260115535273, -1702.3535612050964, -9221.636858181579, 251.79240128903407, 412.9037753228874, -4473.701652729708, -1145.0575167009256, -1517.7058002598048, -4172.06486130534, -3608.532680098138, -2731.3608206940676, -3006.8013676168166, -1779.6011900426377, -8215.204860592468, -14527.091625582174, 0.01353125, -0.10215625, 0.984, 192.0, 0.0, 56.0, 126.0, 112.0, 15.0, 88.0, 0.0, 0.0, 0.0, 1.645922478509566E9, 0.0, 2022-02-27 11:41:18.509
216.0, -1476.2656660396656, -4031.9864788039304, -1966.260607988907, -9512.008370400474, -32.65589864920362, 141.01715576853226, -4798.628961876508, -1561.9175507924022, -3992.4685946069476, -4986.517725767819, -3600.4189968608616, -2876.3342352311893, -2913.3263723047226, -1810.0889694796765, -8561.187513016166, -15576.506027758842, 0.01353125, -0.10215625, 0.984, 192.0, 0.0, 0.0, 0.0, 0.0, 0.0, 0.0, 0.0, 0.0, 0.0, 1.645922478517605E9, 0.0, 2022-02-27 11:41:18.517
218.0, -1546.2936814181426, -4074.6559589691115, -1978.6434744171472, -9523.608925772778, -81.9861986620663, 169.89560960478897, -4626.72169527074, -1308.6052308804074, -1739.435105256451, -4553.944415324261, -3831.2901653397284, -2865.761860103829, -3236.845521550837, -2019.2118906035294, -8366.548522299352, -14864.602966857312, 0.01353125, -0.10215625, 0.984, 192.0, 0.0, 0.0, 0.0, 0.0, 0.0, 0.0, 0.0, 0.0, 0.0, 1.64592247852479E9, 0.0, 2022-02-27 11:41:18.524
220.0, -1038.3726404157449, -3667.6083406935145, -1644.9989849327785, -9149.887758480043, 354.92335020582084, 440.3964210029151, -4527.971688267194, -1232.1622648432572, -2724.3647246795567, -4426.83004460693, -3473.908123243824, -2729.997364282294, -2832.346002143145, -1687.2661336977642, -8323.320248522788, -14918.09069133886, 0.01353125, -0.10215625, 0.984, 192.0, 0.0, 0.0, 0.0, 0.0, 0.0, 0.0, 0.0, 0.0, 0.0, 1.645922478532242E9, 0.0, 2022-02-27 11:41:18.532
222.0, -1703.113520516577, -4201.21153607506, -2167.0686801753855, -9723.835852603419, -289.29862848503933, -11.48879665002783, -4800.305342710655, -1560.9787775252794, -3390.1114332808775, -5123.176291367566, -3834.3076508411946, -2944.127076164136, -3200.233364133044, -2056.2934346548836, -8617.692722999183, -15572.773286434805, 0.01353125, -0.10215625, 0.984, 192.0, 0.0, 0.0, 0.0, 0.0, 0.0, 0.0, 0.0, 0.0, 0.0, 1.64592247854024E9, 0.0, 2022-02-27 11:41:18.540
224.0, -1113.2733360854788, -3710.344876092062, -1703.8511280836021, -9212.807919121733, 260.1966572042295, 409.5510136545913, -4468.583103249443, -1136.7426677635513, -1476.3997765063973, -4154.6305006302, -3580.9282756958337, -2711.6912855733976, -3001.414597203088, -1793.2804576492856, -8210.041607623292, -14522.10718656864, 0.013765625, -0.101078125, 0.985, 192.0, 0.0, 56.0, 126.0, 112.0, 15.0, 104.0, 0.0, 0.0, 0.0, 1.645922478548272E9, 0.0, 2022-02-27 11:41:18.548
226.0, -1364.641054229862, -3934.041134600775, -1960.806782341812, -9498.954951638574, -19.490721165027757, 145.21928372613, -4766.978891727793, -1532.2344341557543, -3942.870073660621, -4967.652853447539, -3561.191685341798, -2830.6025660756313, -2897.6801511860076, -1796.588515828671, -8550.92806231118, -15560.546882217752, 0.013765625, -0.101078125, 0.985, 192.0, 0.0, 0.0, 0.0, 0.0, 0.0, 0.0, 0.0, 0.0, 0.0, 1.645922478554881E9, 0.0, 2022-02-27 11:41:18.554
228.0, -1447.4319156923195, -3977.336463610705, -1976.2741895048846, -9523.139539139216, -85.69658824164728, 165.29115024699573, -4629.113331927459, -1319.803454852516, -1713.7305991328478, -4529.08927548996, -3800.8470893916, -2816.476263579877, -3232.7998558044264, -2007.745445697957, -8358.390135573165, -14868.179245970161, 0.013765625, -0.101078125, 0.985, 192.0, 0.0, 0.0, 0.0, 0.0, 0.0, 0.0, 0.0, 0.0, 0.0, 1.645922478562053E9, 0.0, 2022-02-27 11:41:18.562
230.0, -950.2397120284692, -3583.4540228192836, -1632.571415015628, -9151.318270125184, 351.7046990042566, 428.4605894637811, -4525.825920799484, -1235.7161922116509, -2675.704977000353, -4396.744596570086, -3445.0743728964776, -2709.2102419388584, -2825.998106717838, -1679.688892327415, -8310.40094022762, -14917.621304705299, 0.013765625, -0.101078125, 0.985, 192.0, 0.0, 0.0, 0.0, 0.0, 0.0, 0.0, 0.0, 0.0, 0.0, 1.645922478569959E9, 0.0, 2022-02-27 11:41:18.569
232.0, -1626.9834789018012, -4133.195177697561, -2159.8043632274107, -9723.142948525305, -290.5056226856259, -23.4246281891618, -4837.856273395571, -1585.6103999150278, -3411.8820323803466, -5105.6972272035155, -3803.4175400039603, -2915.3603810501554, -3185.078881392346, -2035.551015800359, -8605.08633912639, -15595.683824501495, 0.013765625, -0.101078125, 0.985, 192.0, 0.0, 0.0, 0.0, 0.0, 0.0, 0.0, 0.0, 0.0, 0.0, 1.645922478577909E9, 0.0, 2022-02-27 11:41:18.577
234.0, -1062.4007657052, -3658.7794016336684, -1706.6450961405155, -9227.850643140155, 247.5232180980704, 392.0943012349965, -4473.724004474164, -1145.1469236787468, -1436.5913196314955, -4150.517779650424, -3568.9030371788785, -2704.672837814431, -3009.7294461404617, -1796.8567367621347, -8205.079520354215, -14531.919602384522, 0.014, -0.108, 0.986, 192.0, 0.0, 56.0, 126.0, 80.0, 15.0, 104.0, 0.0, 0.0, 0.0, 1.645922478584521E9, 0.0, 2022-02-27 11:41:18.584
236.0, -1292.422567894765, -3861.330909887661, -1943.394773411128, -9477.564332194845, -14.439226918128362, 156.68572863170252, -4767.090650450069, -1531.8097510111036, -3914.5057099468363, -4933.655850131017, -3539.5328449646054, -2826.1769206734803, -2895.5567354627533, -1805.015123488322, -8540.579204628373, -15552.36614374711, 0.014, -0.108, 0.986, 192.0, 0.0, 0.0, 0.0, 0.0, 0.0, 0.0, 0.0, 0.0, 0.0, 1.645922478592528E9, 0.0, 2022-02-27 11:41:18.592
238.0, -1418.6875723227945, -3954.805905199755, -1990.3110850228175, -9536.438827090124, -112.11635018782023, 152.64006288529194, -4645.139532701914, -1339.4059347398204, -1770.1911056269535, -4553.743249624164, -3793.269848021251, -2819.672563036986, -3243.372230931787, -2020.4635882930265, -8369.901283967649, -14899.494039952046, 0.014, -0.108, 0.986, 192.0, 0.0, 0.0, 0.0, 0.0, 0.0, 0.0, 0.0, 0.0, 0.0, 1.645922478600569E9, 0.0, 2022-02-27 11:41:18.600
240.0, -901.7811300493635, -3539.152865308865, -1630.4256475479183, -9139.628307775058, 351.83880947098845, 435.590795945024, -4525.736513821664, -1226.6637357072516, -2597.6973888513317, -4360.758287997042, -3425.5389482425394, -2688.0431399396825, -2828.0991706966365, -1676.8949242705019, -8301.348483723223, -14884.853647333819, 0.014, -0.108, 0.986, 192.0, 0.0, 0.0, 0.0, 0.0, 0.0, 0.0, 0.0, 0.0, 0.0, 1.645922478607725E9, 0.0, 2022-02-27 11:41:18.607
242.0, -1575.797984099148, -4076.712319459, -2151.6236247567685, -9707.787300084508, -291.824375608489, -18.216671731075255, -4831.977764603826, -1586.727987137793, -3420.286288295542, -5084.53012520434, -3777.5118681802596, -2904.3856745226, -3174.5288580094407, -2028.8901959526775, -8607.433272294196, -15595.169734379022, 0.014, -0.108, 0.986, 192.0, 0.0, 0.0, 0.0, 0.0, 0.0, 0.0, 0.0, 0.0, 0.0, 1.645922478615125E9, 0.0, 2022-02-27 11:41:18.615
244.0, -1020.8935762516948, -3629.856244308501, -1700.9006978155016, -9213.411416222027, 243.7010697962129, 394.6424001029015, -4483.156440634303, -1146.1527521792354, -1405.61180181644, -4126.377895638692, -3552.6309672154152, -2684.064529426638, -3008.4106932175987, -1793.9286582384896, -8209.996904134381, -14522.82244239121, 0.016, -0.106, 0.988, 192.0, 0.0, 64.0, 126.0, 88.0, 15.0, 112.0, 0.0, 0.0, 0.0, 1.645922478630123E9, 0.0, 2022-02-27 11:41:18.630
246.0, -1247.2496923505894, -3830.843130450622, -1935.1916831960302, -9471.775230380921, -5.6102878582820725, 152.30478671846234, -4772.99151098627, -1540.146951692933, -3874.9878257498535, -4899.234163669845, -3511.12377776191, -2800.9194494389835, -2880.5587149332423, -1772.850963217135, -8541.920309295692, -15543.35839073162, 0.016, -0.106, 0.988, 192.0, 0.0, 0.0, 0.0, 0.0, 0.0, 0.0, 0.0, 0.0, 0.0, 1.645922478637322E9, 0.0, 2022-02-27 11:41:18.637
248.0, -1378.8791154478927, -3920.4736257164036, -1980.3645587402057, -9523.698332750599, -93.43029182318352, 151.16484775124167, -4633.650736051886, -1329.7052776462172, -1731.9696226083784, -4540.220444228702, -3767.632397131014, -2802.2382023618466, -3227.390733646242, -2009.4441782765603, -8368.09079266677, -14896.700071895131, 0.016, -0.106, 0.988, 192.0, 0.0, 0.0, 0.0, 0.0, 0.0, 0.0, 0.0, 0.0, 0.0, 1.645922478644624E9, 0.0, 2022-02-27 11:41:18.644
250.0, -868.3652720886794, -3514.0071527966447, -1622.9601648998457, -9131.715790237879, 366.03216720010846, 435.90372036739836, -4507.855118257417, -1228.161302585757, -2574.0939467065273, -4354.43274431619, -3406.3387997554305, -2682.745776503775, -2813.503481567321, -1665.048499709189, -8299.06860578878, -14884.98775780055, 0.016, -0.106, 0.988, 192.0, 0.0, 0.0, 0.0, 0.0, 0.0, 0.0, 0.0, 0.0, 0.0, 1.645922478652805E9, 0.0, 2022-02-27 11:41:18.652
252.0, -1548.797076797137, -4059.5238279728687, -2149.1649328666845, -9702.914619793251, -279.1285847578746, -24.832788089846147, -4825.071075567135, -1588.247905760754, -3424.9354511422457, -5085.826526382748, -3759.2951964491845, -2895.623790696119, -3159.396727013198, -2016.060294635331, -8604.885173426292, -15609.631313041606, 0.016, -0.106, 0.988, 192.0, 0.0, 0.0, 0.0, 0.0, 0.0, 0.0, 0.0, 0.0, 0.0, 1.645922478659918E9, 0.0, 2022-02-27 11:41:18.659
254.0, -996.954857940061, -3608.890308009423, -1694.7763198347475, -9214.216079022417, 255.03340423505358, 385.3664261539491, -4475.735661475142, -1145.1469236787468, -1379.0132259146246, -4117.548956578846, -3542.7514961661695, -2669.200619363859, -3001.9957425589255, -1791.7381872818694, -8199.089252840193, -14531.316105284228, 0.014, -0.10400000000000001, 0.986, 192.0, 0.0, 56.0, 126.0, 96.0, 15.0, 104.0, 0.0, 0.0, 0.0, 1.645922478667411E9, 0.0, 2022-02-27 11:41:18.667
0.0, -1216.8289681469164, -3798.589563201614, -1918.2490608989074, -9457.693631374077, 18.909575809189775, 155.90341757576675, -4759.625167801996, -1532.4132481113968, -3853.2842818837503, -4883.3420733621215, -3500.663161356826, -2791.9563999124052, -2866.18654324848, -1774.3708818400958, -8524.642410831739, -15538.977448818381, 0.014, -0.10400000000000001, 0.986, 192.0, 0.0, 0.0, 0.0, 0.0, 0.0, 0.0, 0.0, 0.0, 0.0, 1.645922478675461E9, 0.0, 2022-02-27 11:41:18.675
2.0, -1370.6983769772503, -3912.0917215456634, -1989.0593873333203, -9526.626411274245, -106.6625245407253, 148.81791458343443, -4647.508817614176, -1342.8257516414824, -1763.1503061235317, -4540.846293073451, -3768.973501798332, -2800.2936005942347, -3229.1565214582115, -2003.319800295806, -8370.616539790219, -14916.704883182632, 0.014, -0.10400000000000001, 0.986, 192.0, 0.0, 0.0, 0.0, 0.0, 0.0, 0.0, 0.0, 0.0, 0.0, 1.645922478682548E9, 0.0, 2022-02-27 11:41:18.682
4.0, -853.5684172592661, -3499.0091322671337, -1622.5131300107396, -9125.859633190588, 365.36161486644926, 441.7151739257782, -4523.769560309596, -1217.5442239694862, -2532.497350275201, -4329.979935882084, -3401.063788063978, -2669.1112123860376, -2816.744484513341, -1657.0912786830997, -8294.732367364451, -14874.907121051208, 0.014, -0.10400000000000001, 0.986, 192.0, 0.0, 0.0, 0.0, 0.0, 0.0, 0.0, 0.0, 0.0, 0.0, 1.645922478689546E9, 0.0, 2022-02-27 11:41:18.689
6.0, -1545.9137017624023, -4059.2332552949497, -2154.9316829361537, -9706.714416350653, -292.6290384088801, -18.082561264343415, -4830.435494236409, -1574.8145073431144, -3409.2445265346205, -5071.007319808879, -3761.2845017057066, -2887.6889214144853, -3166.973968383547, -2007.4325212755825, -8608.304990327953, -15602.210533882444, 0.014, -0.10400000000000001, 0.986, 192.0, 0.0, 0.0, 0.0, 0.0, 0.0, 0.0, 0.0, 0.0, 0.0, 1.645922478697101E9, 0.0, 2022-02-27 11:41:18.697
8.0, -995.6137532727425, -3598.7873195156244, -1707.7179798743703, -9213.389064477571, 228.88186322234432, 388.5180221221474, -4484.989283679639, -1143.8058190114284, -1389.7867667420826, -4113.168014665605, -3541.723315921225, -2665.8478576955627, -3006.8013676168166, -1774.5496957957382, -8201.14561333008, -14521.481337723893, 0.01, -0.11, 0.988, 192.0, 0.0, 40.0, 126.0, 72.0, 15.0, 112.0, 0.0, 0.0, 0.0, 1.645922478705327E9, 0.0, 2022-02-27 11:41:18.705
10.0, -1210.9281076107154, -3795.1250428110416, -1932.6212325836698, -9456.419581940125, -9.566546626871423, 156.37280420932822, -4769.728156295795, -1535.7883615241483, -3860.839171509644, -4877.754137248295, -3503.4347776692844, -2784.4685655198773, -2883.28562775679, -1762.7479747233363, -8537.628774360273, -15540.877347097081, 0.01, -0.11, 0.988, 192.0, 0.0, 0.0, 0.0, 0.0, 0.0, 0.0, 0.0, 0.0, 0.0, 1.6459224787131E9, 0.0, 2022-02-27 11:41:18.713
12.0, -1362.160010595323, -3905.2297359978843, -1987.383006499172, -9523.072483905851, -111.4010943652504, 155.97047280913267, -4646.055954224581, -1322.1503880203234, -1738.5186837337833, -4526.742342322153, -3764.167876740441, -2790.034149889249, -3236.331431428365, -1982.197401785541, -8376.51740032642, -14905.014920832506, 0.01, -0.11, 0.988, 192.0, 0.0, 0.0, 0.0, 0.0, 0.0, 0.0, 0.0, 0.0, 0.0, 1.645922478719666E9, 0.0, 2022-02-27 11:41:18.719
14.0, -850.2827108243359, -3495.7234258322032, -1623.7648277002368, -9127.401903558004, 359.9524927082649, 439.21177854678376, -4519.99211549665, -1220.4052472597657, -2553.5526935521, -4328.683534703677, -3407.2999247670086, -2673.6709682549204, -2832.2118916764134, -1648.239987878798, -8305.2600390029, -14880.47270542058, 0.01, -0.11, 0.988, 192.0, 0.0, 0.0, 0.0, 0.0, 0.0, 0.0, 0.0, 0.0, 0.0, 1.64592247872772E9, 0.0, 2022-02-27 11:41:18.727
16.0, -1534.9389952348465, -4048.929101101053, -2150.0813543893523, -9707.58613438441, -290.68443664126835, -20.76477059898026, -4853.234273580822, -1604.5870309575835, -3434.7031634692153, -5077.28816000082, -3759.3846034270055, -2891.4663662274324, -3170.5055440074857, -2012.3946085446607, -8616.932763687702, -15619.71194979095, 0.01, -0.11, 0.988, 192.0, 0.0, 0.0, 0.0, 0.0, 0.0, 0.0, 0.0, 0.0, 0.0, 1.64592247873577E9, 0.0, 2022-02-27 11:41:18.735
18.0, -991.501032292966, -3598.1614706708756, -1704.3428664616188, -9218.887593613577, 229.4630085781823, 383.48887961970325, -4487.626789525365, -1156.1886854396685, -1375.9063334353368, -4102.997970938441, -3544.7408014226917, -2663.076241383105, -3011.629344419163, -1780.8305359876797, -8207.046473866281, -14532.836023907188, 0.014, -0.11, 0.992, 192.0, 0.0, 56.0, 126.0, 72.0, 15.5, 0.0, 0.0, 0.0, 0.0, 1.645922478742963E9, 0.0, 2022-02-27 11:41:18.742
20.0, -1191.035055045492, -3772.0580425331646, -1917.6455637986141, -9448.887044058687, 1.6093256007821086, 160.57493216692595, -4762.977929470293, -1521.8185212395813, -3844.1871218904403, -4866.175933620445, -3497.8691932999127, -2778.634760217042, -2882.6150754231307, -1760.0881171331546, -8532.219652202088, -15536.36229471711, 0.014, -0.11, 0.992, 192.0, 0.0, 0.0, 0.0, 0.0, 0.0, 0.0, 0.0, 0.0, 0.0, 1.645922478757292E9, 0.0, 2022-02-27 11:41:18.757
22.0, -1360.7742024390939, -3894.1879742369624, -1995.8319659032782, -9529.956821198086, -125.19212069417486, 129.95304226315525, -4658.975262519749, -1350.7606209231164, -1789.0559779472326, -4534.565452881509, -3771.9686355553436, -2794.12451912457, -3251.240044980055, -2007.0301898753871, -8384.116993441225, -14937.581412503889, 0.014, -0.11, 0.992, 192.0, 0.0, 0.0, 0.0, 0.0, 0.0, 0.0, 0.0, 0.0, 0.0, 1.645922478765367E9, 0.0, 2022-02-27 11:41:18.765
24.0, -833.317736782758, -3485.665140827315, -1618.0427811196782, -9125.859633190588, 359.03607118559734, 432.5062552101917, -4531.346801679945, -1242.3099568259665, -2500.847280126486, -4310.355104250325, -3401.5555264419945, -2659.2764448257026, -2834.603528333131, -1660.2652263957534, -8296.766376109885, -14869.028612259463, 0.014, -0.11, 0.992, 192.0, 0.0, 0.0, 0.0, 0.0, 0.0, 0.0, 0.0, 0.0, 0.0, 1.645922478771932E9, 0.0, 2022-02-27 11:41:18.771
26.0, -1528.0099544537013, -4048.258548767394, -2148.673194488668, -9709.26251521856, -295.6688756548018, -29.52665442546063, -4856.899959671493, -1599.0437983326672, -3436.826579192469, -5078.115174545667, -3756.009490014254, -2885.543153946776, -3173.6124364867733, -2009.0865503652753, -8616.709246243148, -15617.700292789972, 0.014, -0.11, 0.992, 192.0, 0.0, 0.0, 0.0, 0.0, 0.0, 0.0, 0.0, 0.0, 0.0, 1.645922478779961E9, 0.0, 2022-02-27 11:41:18.779
28.0, -979.9675321540276, -3590.8748019784457, -1701.0348082822334, -9220.8768988701, 226.9372614547326, 383.2877139196055, -4498.668551286287, -1172.3937001697661, -1370.899542677348, -4106.529546562379, -3541.5221502211275, -2667.680700740898, -3019.4748067229757, -1781.0540534322326, -8209.460462267454, -14527.002218604353, 0.016, -0.108, 0.988, 192.0, 0.0, 64.0, 126.0, 80.0, 15.0, 112.0, 0.0, 0.0, 0.0, 1.64592247878816E9, 0.0, 2022-02-27 11:41:18.788
30.0, -1179.5015549065538, -3767.5206384087373, -1911.811758495779, -9446.33894519078, 8.806587315390983, 162.76540312354604, -4777.70772906634, -1546.628957584972, -3835.8052177197005, -4864.141924875013, -3490.917800774312, -2773.7173764368745, -2881.698653900463, -1745.1795035814648, -8535.080675492367, -15535.200004005434, 0.016, -0.108, 0.988, 192.0, 0.0, 0.0, 0.0, 0.0, 0.0, 0.0, 0.0, 0.0, 0.0, 1.645922478796049E9, 0.0, 2022-02-27 11:41:18.796
32.0, -1346.6031964544293, -3880.4640031414037, -1985.6619221761134, -9520.45732980458, -113.68097229969172, 141.57594937991493, -4654.370803161955, -1325.7937223665385, -1762.233884600864, -4515.164138694303, -3765.620740130036, -2785.161469597992, -3244.6686321101943, -1999.1400240826638, -8383.669958552118, -14924.14801408625, 0.016, -0.108, 0.988, 192.0, 0.0, 0.0, 0.0, 0.0, 0.0, 0.0, 0.0, 0.0, 0.0, 1.645922478802581E9, 0.0, 2022-02-27 11:41:18.802
34.0, -830.4567134924786, -3480.0101494801224, -1616.1652345854325, -9118.729426709346, 354.208094383251, 434.45085697780337, -4530.318621435002, -1215.2196425461343, -2522.4390652703128, -4310.958601350618, -3404.0365700765337, -2660.90812217094, -2839.8114847912175, -1664.2885403977086, -8303.494251190932, -14869.386240170747, 0.016, -0.108, 0.988, 192.0, 0.0, 0.0, 0.0, 0.0, 0.0, 0.0, 0.0, 0.0, 0.0, 1.645922478809656E9, 0.0, 2022-02-27 11:41:18.809
36.0, -1515.6941432588271, -4039.4072579630924, -2142.5711682523693, -9704.456890160667, -295.4006547213381, -29.481950936550017, -4856.385869549021, -1606.3975222584634, -3447.7789339755695, -5064.704127872483, -3751.785010312201, -2877.2730084983123, -3173.7018434645947, -2006.8290241752893, -8617.938592188191, -15621.075406202723, 0.016, -0.108, 0.988, 192.0, 0.0, 0.0, 0.0, 0.0, 0.0, 0.0, 0.0, 0.0, 0.0, 1.645922478817874E9, 0.0, 2022-02-27 11:41:18.817
38.0, -986.0248549014158, -3600.0613689495767, -1705.6392676400267, -9225.816634394721, 225.97613644315442, 374.59288532649106, -4494.399368095323, -1153.7746970384953, -1353.0181471131025, -4110.798729753343, -3537.096504818977, -2664.059718139138, -3022.268774779889, -1782.3504546106406, -8208.097005855681, -14526.39872150406, 0.014, -0.108, 0.986, 192.0, 0.0, 56.0, 126.0, 80.0, 15.0, 104.0, 0.0, 0.0, 0.0, 1.645922478824824E9, 0.0, 2022-02-27 11:41:18.824
40.0, -1173.3771769257996, -3764.2572837182624, -1904.6144967811701, -9436.280660185894, 22.754075855502588, 164.48648744660468, -4759.871036991005, -1524.344268363031, -3824.986973403332, -4861.571474262652, -3484.033463482078, -2773.0021206143047, -2884.2020492794572, -1755.7518787088252, -8530.096236478834, -15521.744253843339, 0.014, -0.108, 0.986, 192.0, 0.0, 0.0, 0.0, 0.0, 0.0, 0.0, 0.0, 0.0, 0.0, 1.645922478832283E9, 0.0, 2022-02-27 11:41:18.832
42.0, -1363.0764321179906, -3905.3191429757053, -1993.3956257576497, -9533.577803799844, -126.66733582822512, 133.17169346471948, -4664.764364333673, -1351.8782081458817, -1820.7283998404027, -4557.252473503647, -3772.974464055832, -2803.422844817978, -3256.805629349426, -2014.2721550789065, -8390.71075805554, -14951.417142321723, 0.014, -0.108, 0.986, 192.0, 0.0, 0.0, 0.0, 0.0, 0.0, 0.0, 0.0, 0.0, 0.0, 1.645922478840356E9, 0.0, 2022-02-27 11:41:18.840
44.0, -843.3313182987355, -3498.003303766645, -1611.3149060386309, -9114.28142956274, 361.7853357536001, 443.7938861601217, -4521.735551564164, -1218.393590258788, -2460.6364918513887, -4294.530069175968, -3398.8956688518133, -2665.356119317546, -2842.314880170212, -1657.7171275278483, -8291.357253951699, -14846.810978270887, 0.014, -0.108, 0.986, 192.0, 0.0, 0.0, 0.0, 0.0, 0.0, 0.0, 0.0, 0.0, 0.0, 1.64592247884826E9, 0.0, 2022-02-27 11:41:18.848
46.0, -1558.6318443574721, -4080.601522994223, -2151.4224590566705, -9700.098299991883, -294.7077506432236, -22.84348283332382, -4858.308119572177, -1604.5423274686727, -3490.247248440653, -5085.670064171561, -3754.4448679023826, -2893.947409861971, -3177.0993086218014, -2000.8611084057222, -8618.877365455313, -15623.198821925978, 0.015, -0.10500000000000001, 0.988, 192.0, 0.0, 64.0, 126.0, 104.0, 15.0, 120.0, 0.0, 0.0, 0.0, 1.645922478854912E9, 0.0, 2022-02-27 11:41:18.854
48.0, -1082.3385217593338, -3690.496527015749, -1718.4691689573729, -9227.470663484415, 230.78176150104542, 374.7046440487676, -4499.249696642125, -1154.2887871609673, -1382.9471329387586, -4126.735523549977, -3563.5833219985157, -2685.003302693761, -3037.8032371763275, -1786.172602912498, -8207.918191900038, -14520.855488879144, 0.015, -0.10500000000000001, 0.988, 192.0, 0.0, 0.0, 0.0, 0.0, 0.0, 0.0, 0.0, 0.0, 0.0, 1.645922478862958E9, 0.0, 2022-02-27 11:41:18.862
50.0, -1298.2563731976002, -3898.2783434722837, -1907.743741004913, -9438.426427653603, 40.25549176400802, 167.01223457005437, -4752.0926299205585, -1541.5551115936175, -3862.403793621516, -4900.329399148154, -3520.377399966407, -2813.123501911581, -2888.5829911926976, -1757.0706316316882, -8525.938812010147, -15514.703454339917, 0.015, -0.10500000000000001, 0.988, 192.0, 0.0, 0.0, 0.0, 0.0, 0.0, 0.0, 0.0, 0.0, 0.0, 1.645922478877015E9, 0.0, 2022-02-27 11:41:18.877
52.0, -1565.9632165388127, -4097.946476691542, -2007.9466113980548, -9542.160873670682, -113.59156532187049, 137.48558014459374, -4658.327061930545, -1338.9588998507143, -1875.9595603894666, -4608.929706684316, -3811.8664994080664, -2844.438295893466, -3252.514094414007, -2005.3091055523284, -8390.04020572188, -14957.519168558023, 0.015, -0.10500000000000001, 0.988, 192.0, 0.0, 0.0, 0.0, 0.0, 0.0, 0.0, 0.0, 0.0, 0.0, 1.645922478884591E9, 0.0, 2022-02-27 11:41:18.884
54.0, -1087.3229607728674, -3727.622774556014, -1629.4868742807955, -9121.143415110519, 381.3654638964491, 457.6296159779568, -4498.780310008563, -1179.1215752508135, -2521.9026234033854, -4348.397773313257, -3474.1092889439215, -2721.190776966903, -2852.9096070420273, -1655.6831187824152, -8284.249399214912, -14827.052036172396, 0.015, -0.10500000000000001, 0.988, 192.0, 0.0, 0.0, 0.0, 0.0, 0.0, 0.0, 0.0, 0.0, 0.0, 1.645922478892585E9, 0.0, 2022-02-27 11:41:18.892
56.0, -1790.5758965701934, -4304.722464647587, -2166.3981278417264, -9711.073006519438, -274.25590446661766, -8.650125104203834, -4834.324697771633, -1579.530725423184, -3605.179918429842, -5155.8768935056805, -3827.915051926977, -2956.7781635258393, -3178.395709800209, -1991.942762368055, -8617.17863287671, -15625.210478926956, 0.0135, -0.1015, 0.99, 192.0, 0.0, 48.0, 126.0, 120.0, 15.5, 0.0, 0.0, 0.0, 0.0, 1.645922478901083E9, 0.0, 2022-02-27 11:41:18.901
58.0, -1263.7899832475166, -3862.806125021711, -1731.1202563190766, -9243.809788681245, 241.77881977305648, 390.41792040084846, -4485.615132524387, -1145.7951242679505, -1443.3415464569982, -4188.0016551019735, -3634.237186221741, -2745.6212336565536, -3052.600092005741, -1776.5390010522606, -8207.359398288656, -14520.050826078752, 0.0135, -0.1015, 0.99, 192.0, 0.0, 0.0, 0.0, 0.0, 0.0, 0.0, 0.0, 0.0, 0.0, 1.645922478907555E9, 0.0, 2022-02-27 11:41:18.907
60.0, -1394.9947232001691, -3999.8223185327433, -1900.7029415014913, -9422.064950712318, 55.36527101579559, 198.88582216332225, -4740.268557103701, -1502.4172070523748, -3880.106375230119, -4895.344960134621, -3550.08286834751, -2846.606415105631, -2886.9513138474604, -1759.1269921215764, -8517.691018306139, -15494.586884330141, 0.0135, -0.1015, 0.99, 192.0, 0.0, 0.0, 0.0, 0.0, 0.0, 0.0, 0.0, 0.0, 0.0, 1.645922478915195E9, 0.0, 2022-02-27 11:41:18.915
62.0, -1609.1914903153768, -4150.897759306164, -2019.9271464260992, -9553.582615087345, -125.88502477228937, 127.96373700663294, -4662.4621346547765, -1357.5331994930746, -1951.3072909483067, -4644.49133211271, -3842.935424200943, -2867.192371748969, -3266.9980248210463, -2006.292582308362, -8396.097528469269, -14974.126514688316, 0.0135, -0.1015, 0.99, 192.0, 0.0, 0.0, 0.0, 0.0, 0.0, 0.0, 0.0, 0.0, 0.0, 1.645922478923123E9, 0.0, 2022-02-27 11:41:18.923
64.0, -1034.4163816471555, -3687.210820580819, -1620.210900331843, -9117.120101108563, 381.9466092522871, 455.70736595480037, -4497.595667552432, -1196.9806190706038, -2477.3779484484135, -4327.185967825171, -3467.739041774159, -2712.3618379070567, -2853.8036768202396, -1658.8347147506136, -8278.3038351898, -14819.295980846404, 0.0135, -0.1015, 0.99, 192.0, 0.0, 0.0, 0.0, 0.0, 0.0, 0.0, 0.0, 0.0, 0.0, 1.645922478930203E9, 0.0, 2022-02-27 11:41:18.930
66.0, -1701.0348082822334, -4226.066675909362, -2157.278616103961, -9699.070119746939, -279.8214888359891, -1.7434360675139509, -4838.504473984775, -1582.12352778, -3619.172110458864, -5133.972183939479, -3798.567211457159, -2933.442942314499, -3165.3199392938545, -1980.9457040960438, -8615.569307275928, -15637.10160697718, 0.012750000000000001, -0.10275000000000001, 0.99, 192.0, 0.0, 48.0, 126.0, 96.0, 15.0, 120.0, 0.0, 0.0, 0.0, 1.645922478936803E9, 0.0, 2022-02-27 11:41:18.936
68.0, -1169.9797117685928, -3784.664426405958, -1735.0094598543, -9238.802997923256, 216.7672177275679, 388.5850773555133, -4484.944580190728, -1143.0011562110374, -1386.1881358847781, -4171.371957227225, -3612.4889388667275, -2722.375419423034, -3055.4164118071094, -1790.7770622702913, -8207.381750033112, -14524.655285436545, 0.012750000000000001, -0.10275000000000001, 0.99, 192.0, 0.0, 0.0, 0.0, 0.0, 0.0, 0.0, 0.0, 0.0, 0.0, 1.64592247894484E9, 0.0, 2022-02-27 11:41:18.944
70.0, -1302.2126319661895, -3909.63302965558, -1905.2179938814634, -9423.897793757653, 36.120419039776216, 202.30563906498423, -4731.50667327722, -1483.932314387836, -3824.204662347396, -4877.150640148001, -3523.50664419015, -2811.961211199905, -2881.832764367195, -1727.7451429063253, -8507.699788534617, -15470.558759040685, 0.012750000000000001, -0.10275000000000001, 0.99, 192.0, 0.0, 0.0, 0.0, 0.0, 0.0, 0.0, 0.0, 0.0, 0.0, 1.645922478952813E9, 0.0, 2022-02-27 11:41:18.952
72.0, -1493.185936592333, -4041.3071562417936, -2007.1643003421188, -9543.166702171171, -123.4263328822056, 138.6255191118144, -4658.751745075196, -1346.0891063319573, -1882.329807559229, -4601.285410080602, -3813.207604075385, -2835.8105225337176, -3264.9863678200686, -2005.2644020634177, -8391.649531322662, -14955.082828412395, 0.012750000000000001, -0.10275000000000001, 0.99, 192.0, 0.0, 0.0, 0.0, 0.0, 0.0, 0.0, 0.0, 0.0, 0.0, 1.645922478959928E9, 0.0, 2022-02-27 11:41:18.959
74.0, -916.3768191786789, -3565.505572021672, -1604.922307124413, -9107.844127159611, 386.88634477690994, 464.5810085035573, -4513.644220071343, -1211.6433634332852, -2445.951395744252, -4294.619476153788, -3430.8810151673574, -2686.6796835279088, -2847.187560461469, -1655.079621682122, -8274.392279910122, -14823.699274504099, 0.012750000000000001, -0.10275000000000001, 0.99, 192.0, 0.0, 0.0, 0.0, 0.0, 0.0, 0.0, 0.0, 0.0, 0.0, 1.645922478967426E9, 0.0, 2022-02-27 11:41:18.967
76.0, -1598.8202808881142, -4136.212663199028, -2147.7120694770897, -9694.756233067064, -274.21120097770705, -6.660819847681505, -4844.025354865236, -1600.8095861446366, -3559.2023800852753, -5092.86732588617, -3755.3165859361397, -2894.930886618005, -3154.1217153217453, -1961.7902590978456, -8610.070778139923, -15642.935412280014, 0.013375000000000001, -0.101375, 0.991, 192.0, 0.0, 56.0, 126.0, 112.0, 15.5, 0.0, 0.0, 0.0, 0.0, 1.64592247897548E9, 0.0, 2022-02-27 11:41:18.975
78.0, -1088.7758241624624, -3709.6743237584024, -1730.2261865408643, -9232.92448913151, 221.66224976328013, 382.7065685637675, -4476.719138231175, -1130.9312142051715, -1356.12503959239, -4133.932785264586, -3586.1585838983756, -2685.1150614160374, -3049.7614204599167, -1796.3426466396627, -8196.876430139117, -14521.950724357454, 0.013375000000000001, -0.101375, 0.991, 192.0, 0.0, 0.0, 0.0, 0.0, 0.0, 0.0, 0.0, 0.0, 0.0, 1.645922478983404E9, 0.0, 2022-02-27 11:41:18.983
80.0, -1208.938802354193, -3818.2590983222844, -1886.3754733056396, -9406.262267382415, 65.78118393196868, 203.1997088431965, -4730.232623843268, -1508.1169018884782, -3795.4826707223265, -4848.696869456395, -3502.2054317242423, -2781.5181352517766, -2877.2953602427674, -1730.852035385613, -8500.480175075552, -15481.220541145867, 0.013375000000000001, -0.101375, 0.991, 192.0, 0.0, 0.0, 0.0, 0.0, 0.0, 0.0, 0.0, 0.0, 0.0, 1.645922478989571E9, 0.0, 2022-02-27 11:41:18.989
82.0, -1442.9168633123475, -3989.1158329386517, -2018.9213179256105, -9553.761429042986, -143.0288127695099, 125.68385907219161, -4667.871256812961, -1354.5380657360633, -1928.933194748544, -4621.58079404602, -3807.37379877255, -2825.662830551008, -3271.6695394122053, -2007.8795561646887, -8398.645627337173, -14996.165334721249, 0.013375000000000001, -0.101375, 0.991, 192.0, 0.0, 0.0, 0.0, 0.0, 0.0, 0.0, 0.0, 0.0, 0.0, 1.645922479005047E9, 0.0, 2022-02-27 11:41:19.005
84.0, -863.1796673750481, -3523.6631064013372, -1600.7201791668153, -9107.933534137432, 382.2371819302061, 453.94157814283113, -4500.009655953605, -1222.5063112385644, -2373.1964675422273, -4273.675891599166, -3420.442750506729, -2665.28906408418, -2854.89891229855, -1648.9552437013679, -8270.25720718589, -14812.657512743177, 0.013375000000000001, -0.101375, 0.991, 192.0, 0.0, 0.0, 0.0, 0.0, 0.0, 0.0, 0.0, 0.0, 0.0, 1.645922479013112E9, 0.0, 2022-02-27 11:41:19.013
86.0, -1551.6581000874162, -4078.411052037603, -2147.1085723767965, -9692.163430710249, -276.9157620567992, -9.58889837132673, -4822.14299704349, -1572.31111196412, -3580.213019873264, -5091.369759007664, -3740.922062506922, -2887.6889214144853, -3149.0255175859356, -1970.3956807131387, -8608.41674905023, -15653.060752518268, 0.0156875, -0.10168750000000001, 0.9904999999999999, 192.0, 0.0, 72.0, 126.0, 104.0, 15.0, 120.0, 0.0, 0.0, 0.0, 1.645922479021478E9, 0.0, 2022-02-27 11:41:19.021
88.0, -1057.2822162249347, -3660.858113868012, -1738.3622215225962, -9238.557128734246, 201.2774588200401, 382.2595336746614, -4470.348891061412, -1129.657164771219, -1336.3437457494433, -4124.589756082268, -3588.885496721923, -2680.2423811247804, -3071.822592237305, -1790.2629721478193, -8201.123261585624, -14525.862279637133, 0.0156875, -0.10168750000000001, 0.9904999999999999, 192.0, 0.0, 0.0, 0.0, 0.0, 0.0, 0.0, 0.0, 0.0, 0.0, 1.645922479027675E9, 0.0, 2022-02-27 11:41:19.027
90.0, -1175.5005926490537, -3773.55560941167, -1887.873040184145, -9402.708340014022, 50.11261106879844, 202.59621174290322, -4751.287967120167, -1495.8681459269699, -3764.9948912852874, -4815.169252773435, -3491.1413182188653, -2765.648396688509, -2884.3808632350997, -1725.2193957828756, -8503.229439643555, -15465.86489270507, 0.0156875, -0.10168750000000001, 0.9904999999999999, 192.0, 0.0, 0.0, 0.0, 0.0, 0.0, 0.0, 0.0, 0.0, 0.0, 1.645922479035702E9, 0.0, 2022-02-27 11:41:19.035
92.0, -1396.738159267683, -3939.562015481236, -2007.678390464591, -9540.395085858714, -126.30970791694021, 141.21832146863002, -4641.540901844609, -1350.4700482451974, -1879.3793772911285, -4589.327226797012, -3791.8616881205667, -2809.7260367543745, -3264.896960842247, -1998.2012508155408, -8391.47071736702, -14979.468581613135, 0.0156875, -0.10168750000000001, 0.9904999999999999, 192.0, 0.0, 0.0, 0.0, 0.0, 0.0, 0.0, 0.0, 0.0, 0.0, 1.645922479042385E9, 0.0, 2022-02-27 11:41:19.042
94.0, -844.0912776102159, -3496.5504403770497, -1604.564679213128, -9103.75375792429, 374.83875451549943, 467.1291073714623, -4489.370225592879, -1202.814424373439, -2380.4831362346576, -4266.746850818021, -3412.440825991729, -2655.946034901862, -2852.574330875198, -1638.3828685740077, -8266.770335050862, -14815.607943011279, 0.0156875, -0.10168750000000001, 0.9904999999999999, 192.0, 0.0, 0.0, 0.0, 0.0, 0.0, 0.0, 0.0, 0.0, 0.0, 1.645922479050386E9, 0.0, 2022-02-27 11:41:19.050
96.0, -1535.7883615241483, -4058.473295983469, -2148.5614357663912, -9694.085680733406, -281.5425731590478, -7.443130903617252, -4837.319831528644, -1575.9320945658797, -3576.413223315862, -5086.787651394326, -3746.554702109659, -2884.1349940460914, -3162.0565846033796, -1967.9816923119656, -8613.80351946396, -15647.38340942662, 0.01484375, -0.10184375000000001, 0.99225, 192.0, 0.0, 56.0, 126.0, 104.0, 15.5, 8.0, 0.0, 0.0, 0.0, 1.645922479057398E9, 0.0, 2022-02-27 11:41:19.057
98.0, -1025.140407698203, -3634.7512763442132, -1722.850110870613, -9237.283079300294, 214.8449677044115, 378.2809231616167, -4477.948484176217, -1154.3781941387886, -1329.5935189239406, -4110.463453586513, -3571.026452902133, -2670.295854842169, -3057.6068827637296, -1792.5428500822604, -8199.558639473753, -14519.424977234004, 0.01484375, -0.10184375000000001, 0.99225, 192.0, 0.0, 0.0, 0.0, 0.0, 0.0, 0.0, 0.0, 0.0, 0.0, 1.645922479065413E9, 0.0, 2022-02-27 11:41:19.065
100.0, -1137.2344061415681, -3742.576091596615, -1868.0470428522879, -9397.835659722765, 70.05036712293233, 212.83331070343385, -4711.211289311801, -1500.6290674959503, -3748.722821321824, -4807.882584081004, -3472.343501131952, -2764.0167193432712, -2863.5266856582984, -1717.4409887124289, -8496.568619795873, -15471.005793929791, 0.01484375, -0.10184375000000001, 0.99225, 192.0, 0.0, 0.0, 0.0, 0.0, 0.0, 0.0, 0.0, 0.0, 0.0, 1.645922479072127E9, 0.0, 2022-02-27 11:41:19.072
102.0, -1389.965580697725, -3936.008088112842, -2008.5724602428033, -9545.066600449873, -144.99576628157692, 127.71786781762455, -4652.739125816718, -1350.7829726675718, -1915.4997963309047, -4601.441872291788, -3788.0842433076195, -2808.541394298243, -3268.3838329772752, -2004.1691665851079, -8401.908982027648, -14999.182820222715, 0.01484375, -0.10184375000000001, 0.99225, 192.0, 0.0, 0.0, 0.0, 0.0, 0.0, 0.0, 0.0, 0.0, 0.0, 1.645922479080036E9, 0.0, 2022-02-27 11:41:19.080
104.0, -817.6268121751324, -3476.3668151339075, -1596.3615889980304, -9100.110423578075, 370.3013503910721, 464.558656759102, -4485.212801124192, -1193.5831539133972, -2358.243150501627, -4261.248321682015, -3408.216346289676, -2648.6370144649763, -2857.0223280218042, -1645.2895576106976, -8272.961768264982, -14803.470945772046, 0.01484375, -0.10184375000000001, 0.99225, 192.0, 0.0, 0.0, 0.0, 0.0, 0.0, 0.0, 0.0, 0.0, 0.0, 1.645922479088037E9, 0.0, 2022-02-27 11:41:19.088
106.0, -1508.7874542221373, -4039.451961452003, -2132.6246419697572, -9691.269360932036, -271.8866195543551, -7.510186136983173, -4842.90776764247, -1591.7794813846924, -3594.47343283575, -5092.442642741518, -3732.2272339138076, -2874.479040441399, -3146.276253017933, -1969.680424890569, -8615.502252042563, -15657.24052873141, 0.012421874999999999, -0.104921875, 0.9941249999999999, 192.0, 0.0, 40.0, 126.0, 80.0, 15.5, 16.0, 0.0, 0.0, 0.0, 1.645922479095228E9, 0.0, 2022-02-27 11:41:19.095
108.0, -1021.6535355631752, -3629.543319886127, -1725.241747527331, -9242.669849714024, 203.91496466576632, 382.3936441413932, -4475.556847519499, -1148.6114440693193, -1318.3729432073765, -4125.975564238496, -3572.859295947468, -2670.519372286722, -3056.17637111859, -1796.0073704728331, -8202.19614531948, -14529.013875605331, 0.012421874999999999, -0.104921875, 0.9941249999999999, 192.0, 0.0, 0.0, 0.0, 0.0, 0.0, 0.0, 0.0, 0.0, 0.0, 1.645922479102703E9, 0.0, 2022-02-27 11:41:19.102
110.0, -1123.17515887918, -3727.1533879224526, -1861.9897201048996, -9387.419746806592, 76.68883522615853, 214.39793281530535, -4705.176318308869, -1500.4279017958524, -3740.2291584288073, -4803.18871774539, -3473.7740127770917, -2753.4443442159113, -2868.1311450160915, -1706.6227443960602, -8490.511297048486, -15455.873662933549, 0.012421874999999999, -0.104921875, 0.9941249999999999, 192.0, 0.0, 0.0, 0.0, 0.0, 0.0, 0.0, 0.0, 0.0, 0.0, 1.645922479110695E9, 0.0, 2022-02-27 11:41:19.110
112.0, -1375.1016706349458, -3914.103378546641, -1998.3353612822727, -9542.205577159593, -128.2096061956413, 129.90833877424464, -4644.49133211271, -1360.7518506946387, -1916.3044591312957, -4590.534220997599, -3779.3223594811393, -2797.253763348313, -3253.7657921035043, -2002.9174688956107, -8395.583438346797, -14999.831020811918, 0.012421874999999999, -0.104921875, 0.9941249999999999, 192.0, 0.0, 0.0, 0.0, 0.0, 0.0, 0.0, 0.0, 0.0, 0.0, 1.645922479124284E9, 0.0, 2022-02-27 11:41:19.124
114.0, -816.8221493747413, -3471.4717830981954, -1591.8241848736031, -9096.288275276218, 386.26049593216135, 464.98333990375284, -4475.355681819401, -1176.8640490608275, -2334.4832461456353, -4246.406763363691, -3405.265916021576, -2645.9995086192503, -2842.247824936846, -1648.4635053233512, -8257.092029701715, -14790.484582243513, 0.012421874999999999, -0.104921875, 0.9941249999999999, 192.0, 0.0, 0.0, 0.0, 0.0, 0.0, 0.0, 0.0, 0.0, 0.0, 1.645922479132307E9, 0.0, 2022-02-27 11:41:19.132
116.0, -1503.1995181083105, -4026.1079700121845, -2133.2057873255953, -9688.453041130668, -266.63395960735795, -12.896956550712176, -4835.2411192943, -1599.2673157772203, -3610.4549301212946, -5097.337674777231, -3730.506149590749, -2877.630636409597, -3141.3141657488545, -1965.8806283331667, -8606.382740304798, -15653.418380429554, 0.01, -0.108, 0.988, 192.0, 0.0, 40.0, 126.0, 80.0, 15.0, 112.0, 0.0, 0.0, 0.0, 1.645922479140271E9, 0.0, 2022-02-27 11:41:19.140
118.0, -1022.2793844079238, -3629.856244308501, -1725.8452446276242, -9241.01582062433, 213.50386303709305, 369.6531498018682, -4471.086498628438, -1152.947682493649, -1315.0872367724464, -4117.414846112114, -3571.7193569802475, -2670.899351942462, -3049.8061239488275, -1790.5758965701934, -8194.149517315569, -14524.275305780806, 0.01, -0.108, 0.988, 192.0, 0.0, 0.0, 0.0, 0.0, 0.0, 0.0, 0.0, 0.0, 0.0, 1.645922479147552E9, 0.0, 2022-02-27 11:41:19.147
120.0, -1120.8282257113726, -3733.8812630035, -1857.8769991251231, -9387.687967740056, 93.3632365898176, 217.9965636726098, -4710.004295111215, -1485.1616603328778, -3730.2826321461957, -4797.421967675921, -3470.4659545977065, -2760.1722192969587, -2856.3964791770554, -1713.171805521465, -8484.588084767829, -15447.20118608489, 0.01, -0.108, 0.988, 192.0, 0.0, 0.0, 0.0, 0.0, 0.0, 0.0, 0.0, 0.0, 0.0, 1.645922479155189E9, 0.0, 2022-02-27 11:41:19.155
122.0, -1396.1346621673897, -3930.6883729324786, -2021.3576580712388, -9559.483475623545, -138.29024294498478, 115.26794615601852, -4652.649718838897, -1380.0414061595686, -1969.7474801239348, -4628.174558660336, -3799.6400951910136, -2820.2984118817344, -3262.5053241855294, -2013.8251201898004, -8401.37254016072, -15019.321741976946, 0.01, -0.108, 0.988, 192.0, 0.0, 0.0, 0.0, 0.0, 0.0, 0.0, 0.0, 0.0, 0.0, 1.645922479162969E9, 0.0, 2022-02-27 11:41:19.162
124.0, -825.248757034392, -3479.384300635374, -1601.4577867338405, -9100.222182300351, 386.7298825657228, 468.47021203878074, -4474.17103936327, -1186.4082439432436, -2318.7476180490994, -4251.838237266331, -3419.7274946841594, -2662.8974274274624, -2856.240016965868, -1628.9057289249574, -8255.616814567664, -14781.543884461391, 0.01, -0.108, 0.988, 192.0, 0.0, 0.0, 0.0, 0.0, 0.0, 0.0, 0.0, 0.0, 0.0, 1.645922479170985E9, 0.0, 2022-02-27 11:41:19.170
126.0, -1508.9215646888692, -4040.927176586053, -2139.821903684366, -9686.10610796286, -264.21997120618477, -14.550985640404898, -4821.718313898839, -1604.7211414243152, -3641.501503169716, -5103.037369613334, -3733.7024490478575, -2888.448880725966, -3139.2578052589665, -1972.6308551586694, -8605.354560059854, -15656.033534530823, 0.012, -0.10400000000000001, 0.994, 192.0, 0.0, 48.0, 126.0, 96.0, 15.5, 8.0, 0.0, 0.0, 0.0, 1.645922479177092E9, 0.0, 2022-02-27 11:41:19.177
128.0, -1032.6058903462756, -3642.954366559311, -1732.3272505196633, -9248.324841061216, 202.26093557607362, 354.5433705500806, -4482.329426089457, -1166.1799152111907, -1324.3632107213987, -4133.753971308944, -3583.5434297971046, -2673.201581621359, -3062.4125078216207, -1807.6079258451375, -8196.831726650205, -14529.21504130543, 0.012, -0.10400000000000001, 0.994, 192.0, 0.0, 0.0, 0.0, 0.0, 0.0, 0.0, 0.0, 0.0, 0.0, 1.645922479184604E9, 0.0, 2022-02-27 11:41:19.184
130.0, -1117.0060774095152, -3729.7014867903576, -1850.9703100884333, -9382.167086859596, 92.55857378942655, 212.6321450033361, -4703.589344452542, -1482.8147271650705, -3710.5013383032488, -4798.6960171098735, -3462.531085316072, -2757.490009962322, -2854.5859878761757, -1721.687820158937, -8478.3519480648, -15440.227441814834, 0.012, -0.10400000000000001, 0.994, 192.0, 0.0, 0.0, 0.0, 0.0, 0.0, 0.0, 0.0, 0.0, 0.0, 1.645922479192513E9, 0.0, 2022-02-27 11:41:19.192
132.0, -1399.2639063911327, -3933.705858433945, -2018.966021414521, -9557.069487222372, -144.83930407038977, 115.73733278957997, -4655.734259573729, -1377.8956386918592, -1972.8096691143119, -4628.509834827165, -3796.689664922913, -2819.5161008257987, -3265.7239753870936, -2013.7804167008899, -8403.85358379526, -15019.92523907724, 0.012, -0.10400000000000001, 0.994, 192.0, 0.0, 0.0, 0.0, 0.0, 0.0, 0.0, 0.0, 0.0, 0.0, 1.645922479200534E9, 0.0, 2022-02-27 11:41:19.200
134.0, -822.6112511886658, -3476.635036067371, -1597.7473971542595, -9101.98797011232, 384.7182255647452, 464.2904358256383, -4474.439260296734, -1186.2294299876012, -2309.9410307337084, -4245.713859285576, -3419.77219817307, -2661.2657500822247, -2854.89891229855, -1654.7219937708371, -8256.712050045973, -14777.16294254815, 0.012, -0.10400000000000001, 0.994, 192.0, 0.0, 0.0, 0.0, 0.0, 0.0, 0.0, 0.0, 0.0, 0.0, 1.645922479207664E9, 0.0, 2022-02-27 11:41:19.207
136.0, -1503.378332063953, -4032.8805485821426, -2132.8034559253997, -9693.526887122021, -266.65631135181326, -13.433398417639545, -4827.149787801479, -1606.2634117917314, -3642.7755526036685, -5080.775032135848, -3725.4546553438495, -2884.090290557181, -3132.2393575, -1965.1877242550522, -8609.17670836171, -15659.498054921396, 0.014, -0.106, 0.99, 192.0, 0.0, 56.0, 126.0, 88.0, 15.0, 120.0, 0.0, 0.0, 0.0, 1.64592247921518E9, 0.0, 2022-02-27 11:41:19.215
138.0, -1031.2871374234126, -3642.4849799257495, -1730.4050004965068, -9249.598890495168, 197.29884830699544, 358.81255374104427, -4481.524763289066, -1164.8388105438723, -1315.131940261357, -4138.760762066932, -3579.050729161588, -2676.755508989753, -3053.1588856171234, -1800.142443197065, -8197.994017361882, -14525.459948236938, 0.014, -0.106, 0.99, 192.0, 0.0, 0.0, 0.0, 0.0, 0.0, 0.0, 0.0, 0.0, 0.0, 1.64592247922334E9, 0.0, 2022-02-27 11:41:19.223
140.0, -1110.3452575618337, -3721.6325070419916, -1845.3376704856958, -9381.831810692765, 84.71311148561377, 215.13554038233048, -4715.45812075831, -1489.2296778237437, -3710.3225243476063, -4775.85253427655, -3467.2025999072316, -2757.3111960066794, -2857.156438488536, -1720.011439324789, -8485.191581868123, -15438.595764469597, 0.014, -0.106, 0.99, 192.0, 0.0, 0.0, 0.0, 0.0, 0.0, 0.0, 0.0, 0.0, 0.0, 1.645922479230432E9, 0.0, 2022-02-27 11:41:19.230
142.0, -1395.5535168115518, -3934.0858380896857, -2011.098207366253, -9561.070449479872, -146.13570524879756, 113.07747519939844, -4664.071460255559, -1386.4340050737865, -1977.615294172203, -4631.415561606355, -3787.6148566740585, -2816.163339157503, -3261.3430334738537, -2000.6599427056246, -8409.933258287103, -15029.044750815005, 0.014, -0.106, 0.99, 192.0, 0.0, 0.0, 0.0, 0.0, 0.0, 0.0, 0.0, 0.0, 0.0, 1.645922479236858E9, 0.0, 2022-02-27 11:41:19.236
144.0, -814.6316784181212, -3470.7788790200807, -1584.403405714441, -9095.885943876023, 387.64630408839037, 467.978473660764, -4472.069975384471, -1174.2935984484673, -2274.0441291384855, -4240.908234227685, -3410.8762038798577, -2641.8197324061075, -2852.1943512194575, -1647.6364907785048, -8252.845198255205, -14767.149361032172, 0.014, -0.106, 0.99, 192.0, 0.0, 0.0, 0.0, 0.0, 0.0, 0.0, 0.0, 0.0, 0.0, 1.645922479252811E9, 0.0, 2022-02-27 11:41:19.252
146.0, -1486.6145237224728, -4016.228498962939, -2118.0513045848975, -9678.305349147959, -262.45418339421553, -5.878508791745758, -4824.266412766745, -1598.0379698321785, -3648.050564295121, -5093.314360775275, -3709.3837510804838, -2863.727851358396, -3121.33170620581, -1949.5638548807926, -8607.276810083009, -15658.33576420972, 0.012, -0.108, 0.988, 192.0, 0.0, 48.0, 126.0, 80.0, 15.0, 112.0, 0.0, 0.0, 0.0, 1.645922479259487E9, 0.0, 2022-02-27 11:41:19.259
148.0, -1020.8712245072395, -3621.340229671029, -1723.1853870374428, -9244.21212008144, 192.02383661554296, 361.83003924251074, -4493.684112272753, -1159.8767232747941, -1287.6839980702398, -4119.538261835368, -3566.712566222259, -2658.7847064476855, -3053.6953274840507, -1791.492318092861, -8197.56933421723, -14524.275305780806, 0.012, -0.108, 0.988, 192.0, 0.0, 0.0, 0.0, 0.0, 0.0, 0.0, 0.0, 0.0, 0.0, 1.645922479267583E9, 0.0, 2022-02-27 11:41:19.267
150.0, -1074.8283356223508, -3682.963989134311, -1819.3425916841736, -9344.727914896956, 104.74027451756889, 238.42605810476044, -4707.925582876871, -1471.3929857484086, -3668.658872682914, -4749.209254885824, -3442.123942628377, -2727.896300303495, -2842.4266388924884, -1687.981389520334, -8473.792192195915, -15416.53459269221, 0.012, -0.108, 0.988, 192.0, 0.0, 0.0, 0.0, 0.0, 0.0, 0.0, 0.0, 0.0, 0.0, 1.645922479275488E9, 0.0, 2022-02-27 11:41:19.275
152.0, -1389.8761737199038, -3920.6971431609563, -2011.7464079554568, -9555.907196510696, -162.0501473009762, 106.30489662944039, -4682.332835475545, -1391.2619818761327, -2037.517969312426, -4627.727523771229, -3780.015263559254, -2791.777585956763, -3257.7667543610046, -2002.7610066844234, -8417.778720590917, -15052.22350981516, 0.012, -0.108, 0.988, 192.0, 0.0, 0.0, 0.0, 0.0, 0.0, 0.0, 0.0, 0.0, 0.0, 1.645922479282662E9, 0.0, 2022-02-27 11:41:19.282
154.0, -803.5899166571995, -3448.5612450315057, -1577.4296614443854, -9089.649807172991, 383.3771208974267, 467.5984940050237, -4484.765766235086, -1176.7969938274616, -2214.2308609760835, -4200.11630059675, -3397.6663229067713, -2633.6613456799205, -2850.7191360854076, -1642.406182575963, -8247.905462730583, -14744.238822965483, 0.012, -0.108, 0.988, 192.0, 0.0, 0.0, 0.0, 0.0, 0.0, 0.0, 0.0, 0.0, 0.0, 1.64592247929016E9, 0.0, 2022-02-27 11:41:19.290
156.0, -1484.088776599023, -4013.546289628302, -2118.0736563293526, -9677.791259025485, -261.3142444269949, -6.034971002932907, -4841.141979830501, -1600.6084204445388, -3653.012651564199, -5074.158915777078, -3701.1359573764753, -2858.743412344863, -3119.9011945606703, -1948.6027298692145, -8609.154356617255, -15657.352287453687, 0.01, -0.106, 0.99, 192.0, 0.0, 40.0, 126.0, 88.0, 15.0, 120.0, 0.0, 0.0, 0.0, 1.64592247929815E9, 0.0, 2022-02-27 11:41:19.298
158.0, -1024.6039658312757, -3634.8406833220347, -1721.3748957365628, -9248.526006761314, 192.87320290484465, 357.8961322183767, -4495.047568684527, -1185.5141741650314, -1283.2136491791784, -4113.011552454419, -3568.925388923334, -2655.588406990577, -3057.182199619079, -1799.203669929942, -8199.312770284745, -14525.236430792384, 0.01, -0.106, 0.99, 192.0, 0.0, 0.0, 0.0, 0.0, 0.0, 0.0, 0.0, 0.0, 0.0, 1.645922479305289E9, 0.0, 2022-02-27 11:41:19.305
160.0, -1075.722405400563, -3688.149593847942, -1814.9169462820228, -9354.406220246103, 109.12121643080908, 231.3629068568834, -4731.685487232863, -1483.4182242653637, -3656.7453928882355, -4750.304490364134, -3441.609852505905, -2731.3384689496124, -2839.342098157656, -1700.2972007152082, -8474.552151507396, -15418.412139226455, 0.01, -0.106, 0.99, 192.0, 0.0, 0.0, 0.0, 0.0, 0.0, 0.0, 0.0, 0.0, 0.0, 1.645922479313886E9, 0.0, 2022-02-27 11:41:19.313
162.0, -1386.4787085626972, -3922.5746896952023, -2001.1069775947308, -9554.70020231011, -153.98116755261034, 109.38943736427277, -4670.106431258492, -1375.6604642463285, -2003.1186345957083, -4625.380590603422, -3774.807307101167, -2794.5268505247655, -3248.937815301158, -2007.8572044202335, -8420.19270899209, -15048.624878957855, 0.01, -0.106, 0.99, 192.0, 0.0, 0.0, 0.0, 0.0, 0.0, 0.0, 0.0, 0.0, 0.0, 1.645922479320128E9, 0.0, 2022-02-27 11:41:19.320
164.0, -793.5316316523114, -3455.1997131347316, -1568.0642805176117, -9081.402013468984, 394.7318070807227, 468.13493587195114, -4471.421774795267, -1173.7571565815397, -2217.695381366656, -4207.1347483557165, -3393.8218228604583, -2615.42232220439, -2839.833836535673, -1646.3847930890076, -8247.436076097021, -14751.324325957816, 0.01, -0.106, 0.99, 192.0, 0.0, 0.0, 0.0, 0.0, 0.0, 0.0, 0.0, 0.0, 0.0, 1.645922479327653E9, 0.0, 2022-02-27 11:41:19.327
166.0, -1474.5222299721515, -4006.5725453582463, -2100.5051851874814, -9662.4803140736, -252.95469200071003, -0.9834767560335107, -4857.324642816144, -1609.2585455487426, -3664.2332272807635, -5067.162819762566, -3685.601494980037, -2835.385839389067, -3096.275400671411, -1933.00121223941, -8609.534336272996, -15664.348383468197, 0.012, -0.11, 0.992, 192.0, 0.0, 48.0, 126.0, 72.0, 15.5, 0.0, 0.0, 0.0, 0.0, 1.645922479335855E9, 0.0, 2022-02-27 11:41:19.335
168.0, -1057.2822162249347, -3666.9377883598554, -1725.2864510162415, -9256.371469065127, 180.49033647660454, 348.597806524969, -4501.484871087655, -1173.3548251813443, -1276.3963671203098, -4114.218546655005, -3570.042976146099, -2647.9217586424065, -3054.8352664512718, -1800.2094984304308, -8209.19224133399, -14533.260707051839, 0.012, -0.11, 0.992, 192.0, 0.0, 0.0, 0.0, 0.0, 0.0, 0.0, 0.0, 0.0, 0.0, 1.645922479342427E9, 0.0, 2022-02-27 11:41:19.342
170.0, -1124.136283890758, -3739.8044752841565, -1814.4028561595508, -9347.477179464959, 118.48659735758274, 239.11896218287495, -4702.091777574036, -1462.2958257550986, -3643.9601950598, -4750.46095257532, -3447.801285720025, -2731.763152094263, -2832.9047957545276, -1700.2524972262977, -8469.992395638514, -15399.413156439443, 0.012, -0.11, 0.992, 192.0, 0.0, 0.0, 0.0, 0.0, 0.0, 0.0, 0.0, 0.0, 0.0, 1.645922479350437E9, 0.0, 2022-02-27 11:41:19.350
172.0, -1483.5970382210062, -4024.968031044964, -2013.646306234158, -9567.351289671813, -148.92967330571096, 107.44483559666105, -4662.171561976857, -1379.7955369705603, -2065.8152777928444, -4663.646777110908, -3800.534164969226, -2814.2634408788017, -3253.095239769845, -2010.5394137548703, -8423.05373228237, -15057.990259884627, 0.012, -0.11, 0.992, 192.0, 0.0, 0.0, 0.0, 0.0, 0.0, 0.0, 0.0, 0.0, 0.0, 1.645922479358596E9, 0.0, 2022-02-27 11:41:19.358
174.0, -938.1921217670587, -3595.479261336239, -1581.989417313268, -9091.303836262685, 399.31391469406066, 481.7247965007778, -4461.363489790379, -1162.4024703982438, -2224.7138291256224, -4238.002507448496, -3428.4670267661845, -2655.1413721014706, -2843.700688326441, -1648.8211332346361, -8242.362230105666, -14733.264116437927, 0.012, -0.11, 0.992, 192.0, 0.0, 0.0, 0.0, 0.0, 0.0, 0.0, 0.0, 0.0, 0.0, 1.645922479371999E9, 0.0, 2022-02-27 11:41:19.371
176.0, -1667.2836741547196, -4191.890858637197, -2127.416685511671, -9677.187761925194, -247.5455698425257, 12.204052472597656, -4829.787293647206, -1608.9679728708236, -3731.981364724799, -5119.1082738767, -3739.759771795246, -2890.4605377269436, -3104.7914153088827, -1936.2422151854296, -8609.489632784085, -15660.90621482208, 0.014, -0.106, 0.992, 192.0, 0.0, 56.0, 126.0, 88.0, 15.5, 0.0, 0.0, 0.0, 0.0, 1.645922479379995E9, 0.0, 2022-02-27 11:41:19.379
178.0, -1263.1864861472234, -3856.90526448551, -1746.8111809267023, -9263.971062179931, 192.00148487108765, 370.16723992434027, -4489.213763381692, -1157.7533075515398, -1346.3126237765102, -4171.01432931594, -3638.953404301811, -2710.640753583998, -3062.8595427107266, -1797.9966757293555, -8202.95610463096, -14521.950724357454, 0.014, -0.106, 0.992, 192.0, 0.0, 0.0, 0.0, 0.0, 0.0, 0.0, 0.0, 0.0, 0.0, 1.6459224793881E9, 0.0, 2022-02-27 11:41:19.388
180.0, -1306.325352945966, -3914.237489013373, -1824.7293620979026, -9355.255586535404, 127.02496373951004, 263.12473572787474, -4694.067501314581, -1451.254063994177, -3709.9648964363214, -4794.583296130097, -3511.7496266066587, -2785.899077165017, -2838.537435357265, -1691.4682616553619, -8468.114849104268, -15389.868961557027, 0.014, -0.106, 0.992, 192.0, 0.0, 0.0, 0.0, 0.0, 0.0, 0.0, 0.0, 0.0, 0.0, 1.645922479394663E9, 0.0, 2022-02-27 11:41:19.394
182.0, -1643.1214383985327, -4176.691672407588, -2031.035963420387, -9581.075260767373, -151.5671791514372, 118.6877630576805, -4679.091832529525, -1384.578810283996, -2143.2640723304835, -4724.532929007164, -3858.872217997577, -2869.6510636390526, -3263.488800941563, -2012.0593323778312, -8427.389970706698, -15064.673431476765, 0.014, -0.106, 0.992, 192.0, 0.0, 0.0, 0.0, 0.0, 0.0, 0.0, 0.0, 0.0, 0.0, 1.645922479402593E9, 0.0, 2022-02-27 11:41:19.402
184.0, -1019.239547162002, -3664.9484831033333, -1585.0739580481004, -9094.209563041873, 401.07970250602995, 486.8209942365878, -4468.024309638061, -1159.0497087299477, -2258.666128953234, -4259.102554214305, -3473.8857714993683, -2700.850689512574, -2858.3634326891224, -1663.1709531749432, -8245.87145398515, -14730.492500125469, 0.014, -0.108, 0.99, 192.0, 0.0, 56.0, 126.0, 72.0, 15.0, 112.0, 0.0, 0.0, 0.0, 1.645922479410592E9, 0.0, 2022-02-27 11:41:19.410
186.0, -1670.5246771007392, -4201.345646541792, -2113.6480109272015, -9670.10225893286, -238.73898252713474, 13.589860628826694, -4832.760075659761, -1607.4257025034074, -3774.3379204676057, -5121.231689599954, -3746.9570335098547, -2896.629619196608, -3099.8963832731706, -1940.3996396541168, -8608.796728705971, -15666.985889313924, 0.014, -0.108, 0.99, 192.0, 0.0, 0.0, 0.0, 0.0, 0.0, 0.0, 0.0, 0.0, 0.0, 1.645922479417832E9, 0.0, 2022-02-27 11:41:19.417
188.0, -1232.6987067101845, -3832.5418630292256, -1743.7266401918698, -9267.703803503968, 182.45728998867156, 366.92623697832073, -4495.248734384624, -1159.4967436190539, -1340.3670597513985, -4188.538096968901, -3635.8688635669787, -2701.901221501973, -3070.5485428033526, -1811.3183154247185, -8205.414796521043, -14533.573631474213, 0.014, -0.108, 0.99, 192.0, 0.0, 0.0, 0.0, 0.0, 0.0, 0.0, 0.0, 0.0, 0.0, 1.645922479424286E9, 0.0, 2022-02-27 11:41:19.424
190.0, -1222.4392560051986, -3841.1919881334293, -1806.6691525780145, -9339.676420650056, 143.16292323624174, 269.02559626407583, -4692.726396647263, -1436.9712992872358, -3659.3158435005957, -4773.840877275572, -3486.939190261268, -2765.2684170327684, -2836.70459231193, -1691.2894476997194, -8456.179017565133, -15371.60758633704, 0.014, -0.108, 0.99, 192.0, 0.0, 0.0, 0.0, 0.0, 0.0, 0.0, 0.0, 0.0, 0.0, 1.645922479432258E9, 0.0, 2022-02-27 11:41:19.432
192.0, -1542.1809604383661, -4073.6277787241675, -2018.004896402943, -9572.22396996307, -155.3893274532947, 123.87336777131173, -4689.127765789958, -1393.2065836437446, -2136.3350315493385, -4697.755539149706, -3827.3786100600496, -2842.873673781595, -3258.2361409945656, -2014.8756521792, -8425.892403828193, -15077.70449849421, 0.014, -0.108, 0.99, 192.0, 0.0, 0.0, 0.0, 0.0, 0.0, 0.0, 0.0, 0.0, 0.0, 1.645922479440362E9, 0.0, 2022-02-27 11:41:19.440
194.0, -924.5575576493213, -3581.799993729591, -1570.344158452053, -9082.921932091944, 397.1904989708065, 490.10670067151796, -4471.421774795267, -1175.5005926490537, -2186.022959473486, -4209.459329779069, -3438.9052914268127, -2652.101534855549, -2851.6802610969858, -1654.4537728373734, -8237.064866669758, -14719.897773253653, 0.014, -0.10600000000000001, 0.988, 192.0, 0.0, 56.0, 126.0, 96.0, 15.0, 104.0, 0.0, 0.0, 0.0, 1.645922479447465E9, 0.0, 2022-02-27 11:41:19.447
196.0, -1582.12352778, -4118.9124129906195, -2103.3662084777607, -9666.615386797832, -249.64663382132457, 7.4207791591619445, -4844.2935757987, -1603.0224088457119, -3740.1621031954414, -5108.491195260429, -3716.8045302396454, -2872.132107273592, -3098.0635402278353, -1935.6387180851364, -8607.477975783107, -15664.929528824036, 0.014, -0.10600000000000001, 0.988, 192.0, 0.0, 0.0, 0.0, 0.0, 0.0, 0.0, 0.0, 0.0, 0.0, 1.645922479454972E9, 0.0, 2022-02-27 11:41:19.454
198.0, -1136.139170663258, -3734.887091503989, -1728.303936517708, -9263.635786013101, 184.1783743117302, 357.5161525626365, -4510.917307247795, -1166.6716535892074, -1297.675227841762, -4147.276776704404, -3604.6211248184595, -2678.677759012909, -3068.6933480135617, -1808.9937340013664, -8202.084386597204, -14528.410378505037, 0.014, -0.10600000000000001, 0.988, 192.0, 0.0, 0.0, 0.0, 0.0, 0.0, 0.0, 0.0, 0.0, 0.0, 1.645922479462963E9, 0.0, 2022-02-27 11:41:19.462
200.0, -1126.9302519476714, -3744.855969531056, -1786.7090447794253, -9326.041856532318, 149.57787389491486, 266.2092764627071, -4689.440690212333, -1449.9576628157693, -3613.0924359670207, -4733.406571555922, -3452.428096822274, -2739.3403934646126, -2828.277984652279, -1697.592639636116, -8455.597872209295, -15375.116810216525, 0.014, -0.10600000000000001, 0.988, 192.0, 0.0, 0.0, 0.0, 0.0, 0.0, 0.0, 0.0, 0.0, 0.0, 1.645922479470486E9, 0.0, 2022-02-27 11:41:19.470
202.0, -1481.2054015642884, -4021.905842054587, -2020.0165534039204, -9577.856609565808, -165.5593711804594, 103.37681810579517, -4696.056806571103, -1414.1501681983673, -2145.2086740980953, -4695.45330947081, -3807.3514470280943, -2827.0039352183267, -3256.7609258605157, -2023.9504604280546, -8433.42494170963, -15103.029024962072, 0.014, -0.10600000000000001, 0.988, 192.0, 0.0, 0.0, 0.0, 0.0, 0.0, 0.0, 0.0, 0.0, 0.0, 1.645922479477591E9, 0.0, 2022-02-27 11:41:19.477
204.0, -865.0795656537492, -3515.8176440975244, -1573.0710712756004, -9085.090051304109, 395.55882162556907, 482.6188662789901, -4474.394556807823, -1174.070081003914, -2125.7179529330674, -4198.0375883624065, -3425.8965761538243, -2641.260938794725, -2857.156438488536, -1648.9999471902786, -8238.025991681337, -14705.7714707579, 0.014, -0.10400000000000001, 0.987, 192.0, 0.0, 56.0, 126.0, 104.0, 15.0, 104.0, 0.0, 0.0, 0.0, 1.645922479484526E9, 0.0, 2022-02-27 11:41:19.484
206.0, -1507.669866999372, -4047.699755156011, -2100.326371231839, -9657.00413668205, -241.37648837286096, 9.387732671228965, -4850.440305523909, -1615.047647362667, -3742.665498574436, -5077.645787912105, -3691.9046869164335, -2858.251673966846, -3087.84879301176, -1932.554177350304, -8609.690798484182, -15665.845950346704, 0.014, -0.10400000000000001, 0.987, 192.0, 0.0, 0.0, 0.0, 0.0, 0.0, 0.0, 0.0, 0.0, 0.0, 1.645922479499954E9, 0.0, 2022-02-27 11:41:19.499
208.0, -1101.2480975685237, -3699.861907942523, -1749.0240036277776, -9275.6386727856, 153.8470570858785, 339.7018122317567, -4532.509092391621, -1198.8358138603944, -1275.3458351309105, -4149.86957906122, -3600.66486604987, -2676.19671537837, -3078.014025451425, -1828.5068069108495, -8216.657723982064, -14542.044942622775, 0.014, -0.10400000000000001, 0.987, 192.0, 0.0, 0.0, 0.0, 0.0, 0.0, 0.0, 0.0, 0.0, 0.0, 1.645922479507113E9, 0.0, 2022-02-27 11:41:19.507
210.0, -1070.1344692867362, -3691.882335171978, -1788.072501191199, -9317.861118061677, 138.960795278644, 267.23745670765123, -4712.753559679218, -1473.516401471663, -3561.3481475529848, -4700.527155462165, -3436.446599536729, -2720.9002042889842, -2828.1438741855472, -1685.8132703081692, -8461.968119379058, -15358.42005710841, 0.014, -0.10400000000000001, 0.987, 192.0, 0.0, 0.0, 0.0, 0.0, 0.0, 0.0, 0.0, 0.0, 0.0, 1.645922479515147E9, 0.0, 2022-02-27 11:41:19.515
212.0, -1441.7769243451269, -3980.912742723554, -2032.2206058765182, -9578.571865388378, -186.77117666854582, 94.6149342793148, -4699.83425138405, -1405.477691349708, -2155.9375114366426, -4692.793451880629, -3795.683836422424, -2812.4529495779216, -3258.5714171613954, -2020.485940037482, -8447.394781994199, -15112.4167576333, 0.014, -0.10400000000000001, 0.987, 192.0, 0.0, 0.0, 0.0, 0.0, 0.0, 0.0, 0.0, 0.0, 0.0, 1.645922479523161E9, 0.0, 2022-02-27 11:41:19.523
214.0, -820.4207802320458, -3478.244361668153, -1573.8757340759914, -9080.060908801664, 390.820251801044, 486.5527733031241, -4474.863943441384, -1163.8553337878388, -2091.2068594940733, -4181.7208149100325, -3410.764445157581, -2625.4135519759125, -2855.927092543494, -1655.5043048267728, -8234.852043968684, -14701.412880589114, 0.016, -0.10200000000000001, 0.9884999999999999, 192.0, 0.0, 72.0, 126.0, 112.0, 15.0, 120.0, 0.0, 0.0, 0.0, 1.645922479529717E9, 0.0, 2022-02-27 11:41:19.529
216.0, -1467.0120438351685, -4009.4335686485256, -2099.9016880871877, -9651.773828479509, -241.71176453969056, 17.59082288632666, -4845.254700810278, -1614.667667706927, -3722.9289082203995, -5070.314415730764, -3673.6433116964477, -2839.61031909112, -3077.499935328953, -1922.2723749008626, -8609.288467083987, -15667.634089903127, 0.016, -0.10200000000000001, 0.9884999999999999, 192.0, 0.0, 0.0, 0.0, 0.0, 0.0, 0.0, 0.0, 0.0, 0.0, 1.645922479537745E9, 0.0, 2022-02-27 11:41:19.537
218.0, -1067.6087221632865, -3672.7045384293247, -1747.6158437270933, -9267.860265715155, 157.75861236555724, 342.6969459887679, -4529.066923745504, -1204.0214185740256, -1254.6257680208407, -4125.461474116025, -3582.694063507803, -2655.387241290479, -3069.9450457030593, -1815.8110160602353, -8212.924982658027, -14535.652343708558, 0.016, -0.10200000000000001, 0.9884999999999999, 192.0, 0.0, 0.0, 0.0, 0.0, 0.0, 0.0, 0.0, 0.0, 0.0, 1.645922479545923E9, 0.0, 2022-02-27 11:41:19.545
220.0, -1038.4843991380214, -3663.2944540136405, -1786.9549139684336, -9306.372321411649, 141.4641906576384, 263.9964537616317, -4731.931356421871, -1493.8788406704475, -3548.473542746728, -4691.921733846872, -3424.443712764229, -2712.942983262895, -2821.5277578267765, -1690.596543621605, -8459.665889700162, -15352.653307038941, 0.016, -0.10200000000000001, 0.9884999999999999, 192.0, 0.0, 0.0, 0.0, 0.0, 0.0, 0.0, 0.0, 0.0, 0.0, 1.645922479552867E9, 0.0, 2022-02-27 11:41:19.552
222.0, -1417.324115911021, -3956.9516726674647, -2032.6005855322583, -9579.510638655502, -188.2910952915067, 82.07560563988753, -4695.877992615461, -1430.735162584205, -2149.7907817114333, -4686.400852966411, -3784.4409089614046, -2807.893193709039, -3256.135077015767, -2021.4023615601495, -8454.01089835297, -15123.32440892749, 0.016, -0.10200000000000001, 0.9884999999999999, 192.0, 0.0, 0.0, 0.0, 0.0, 0.0, 0.0, 0.0, 0.0, 0.0, 1.645922479559399E9, 0.0, 2022-02-27 11:41:19.559
224.0, -796.6832276205097, -3456.384355590863, -1572.5793328975838, -9081.17849602443, 385.61229534295745, 464.6257119924679, -4493.035911683549, -1187.749348610562, -2078.7792895769226, -4171.126088038217, -3402.7178171536707, -2624.742999642253, -2858.2069704779356, -1663.238008408309, -8238.987116692915, -14706.173802158095, 0.015, -0.10300000000000001, 0.99125, 192.0, 0.0, 56.0, 126.0, 96.0, 15.5, 8.0, 0.0, 0.0, 0.0, 1.645922479567528E9, 0.0, 2022-02-27 11:41:19.567
226.0, -1446.0684592805458, -3990.2557719058723, -2098.5605834198695, -9653.651375013755, -241.4658953506822, 3.643334346215051, -4874.066099413169, -1620.8814526655024, -3730.886129246489, -5056.188113235011, -3659.896988856434, -2834.1341416995697, -3073.342510860266, -1929.3131744042844, -8615.703417742661, -15683.414421488575, 0.015, -0.10300000000000001, 0.99125, 192.0, 0.0, 0.0, 0.0, 0.0, 0.0, 0.0, 0.0, 0.0, 0.0, 1.645922479575659E9, 0.0, 2022-02-27 11:41:19.575
228.0, -1058.4221551921553, -3658.9358638448557, -1752.7790966962693, -9278.253826886872, 149.91315006174446, 331.9681086502205, -4516.03585672806, -1185.335360209389, -1252.0776691529356, -4122.421636870103, -3583.5881332860154, -2656.57188374661, -3078.215191151523, -1822.9635742859334, -8217.90942167156, -14547.923451414521, 0.015, -0.10300000000000001, 0.99125, 192.0, 0.0, 0.0, 0.0, 0.0, 0.0, 0.0, 0.0, 0.0, 0.0, 1.645922479582045E9, 0.0, 2022-02-27 11:41:19.582
230.0, -1017.6749250501306, -3644.7872096046463, -1777.5671812972048, -9302.12548996514, 156.1045832758645, 271.9089712988104, -4690.133594290447, -1445.062630780057, -3527.5523099365605, -4688.412509967388, -3421.0685993514776, -2713.255907685269, -2825.662830551008, -1689.14368023201, -8450.300508773387, -15346.260708124722, 0.015, -0.10300000000000001, 0.99125, 192.0, 0.0, 0.0, 0.0, 0.0, 0.0, 0.0, 0.0, 0.0, 0.0, 1.645922479590087E9, 0.0, 2022-02-27 11:41:19.590
232.0, -1413.099636208968, -3950.8719981756212, -2037.517969312426, -9584.003339291017, -190.34745578139496, 80.48863178356073, -4711.032475356159, -1443.2074359902665, -2201.7809393144776, -4709.892536388938, -3782.65276940498, -2805.0098186743044, -3253.2740537254876, -2027.4596843075378, -8453.67562218614, -15147.464292939221, 0.015, -0.10300000000000001, 0.99125, 192.0, 0.0, 0.0, 0.0, 0.0, 0.0, 0.0, 0.0, 0.0, 0.0, 1.645922479598112E9, 0.0, 2022-02-27 11:41:19.598
234.0, -794.2245357304258, -3450.774067732581, -1578.4801934337847, -9079.949150079388, 386.97575175473116, 473.5217062856801, -4481.636522011343, -1179.3674444398218, -2028.1525883856523, -4157.8268000873095, -3402.7178171536707, -2615.3776187154795, -2856.3964791770554, -1659.1699909174433, -8229.688790999508, -14689.119421138696, 0.0135, -0.10350000000000001, 0.990625, 192.0, 0.0, 48.0, 126.0, 96.0, 15.0, 120.0, 0.0, 0.0, 0.0, 1.645922479605405E9, 0.0, 2022-02-27 11:41:19.605
236.0, -1453.802162862082, -3991.4627661064587, -2108.864737613766, -9657.585282037888, -246.47268610867098, -2.212822701075399, -4857.034070138225, -1627.564624257639, -3742.6431468299807, -5061.999566793391, -3667.675395926881, -2836.1010952116367, -3073.3872143491762, -1923.7922935238237, -8610.003722906557, -15676.328918496243, 0.0135, -0.10350000000000001, 0.990625, 192.0, 0.0, 0.0, 0.0, 0.0, 0.0, 0.0, 0.0, 0.0, 0.0, 1.645922479620438E9, 0.0, 2022-02-27 11:41:19.620
238.0, -1059.137411014725, -3655.113715542998, -1760.8480764446351, -9279.058489687264, 146.7839058380015, 328.8165126820222, -4523.858967287418, -1210.9951628440813, -1255.6092447768742, -4141.107695234739, -3593.1993834017976, -2662.4950960272668, -3081.813822008827, -1829.1773592445088, -8213.550831502776, -14545.151835102062, 0.0135, -0.10350000000000001, 0.990625, 192.0, 0.0, 0.0, 0.0, 0.0, 0.0, 0.0, 0.0, 0.0, 0.0, 1.64592247962939E9, 0.0, 2022-02-27 11:41:19.629
240.0, -1013.0928174367926, -3636.114732755987, -1783.333931366674, -9304.718292321955, 156.77513560952374, 273.56300038850316, -4705.824518898073, -1450.6505668938837, -3518.6786673878037, -4681.394062208422, -3422.2308900631538, -2705.812776781652, -2824.8134642617065, -1690.8424128106133, -8446.701877916084, -15338.504652798732, 0.0135, -0.10350000000000001, 0.990625, 192.0, 0.0, 0.0, 0.0, 0.0, 0.0, 0.0, 0.0, 0.0, 0.0, 1.645922479634933E9, 0.0, 2022-02-27 11:41:19.634
242.0, -1410.1492059408672, -3943.0935911051743, -2040.7813240029006, -9589.211295749104, -195.13072909483066, 76.08533812586523, -4719.12380684898, -1442.3357179565094, -2180.1668024261958, -4704.058731086103, -3784.910295594966, -2803.802824473718, -3257.2750159829875, -2031.0806669092974, -8450.81459889586, -15135.014371277615, 0.0135, -0.10350000000000001, 0.990625, 192.0, 0.0, 0.0, 0.0, 0.0, 0.0, 0.0, 0.0, 0.0, 0.0, 1.645922479642282E9, 0.0, 2022-02-27 11:41:19.642
244.0, -794.962143297451, -3447.9800996756676, -1584.2245917587986, -9087.70520540538, 377.09628070548547, 470.6159795064902, -4484.877524957362, -1180.4850316625873, -2045.519893827426, -4172.042509560884, -3407.165814300277, -2621.5019966962336, -2864.443107180966, -1665.2496654092868, -8234.226195123934, -14695.847296219743, 0.012750000000000001, -0.10675000000000001, 0.9893125, 192.0, 0.0, 48.0, 126.0, 72.0, 15.0, 112.0, 0.0, 0.0, 0.0, 1.645922479650358E9, 0.0, 2022-02-27 11:41:19.650
246.0, -1444.7497063576825, -3984.0196352028415, -2107.0095428239756, -9657.898206460262, -235.69914528121296, 4.246831446508342, -4859.8056864506825, -1616.2546415632537, -3765.5089814077596, -5079.523334446351, -3667.563637204604, -2845.153551716036, -3073.409566093632, -1925.0439912133209, -8609.914315928736, -15680.843970876214, 0.012750000000000001, -0.10675000000000001, 0.9893125, 192.0, 0.0, 0.0, 0.0, 0.0, 0.0, 0.0, 0.0, 0.0, 0.0, 1.64592247965838E9, 0.0, 2022-02-27 11:41:19.658
248.0, -1061.5066959269877, -3654.085535298054, -1765.4525358024284, -9286.255751401872, 147.38740293829477, 332.43749528378197, -4525.736513821664, -1195.1701277697239, -1253.038794164514, -4147.187369726583, -3597.3568078704848, -2666.9877966627832, -3083.3784441206985, -1829.3785249446066, -8212.321485557733, -14545.107131613153, 0.012750000000000001, -0.10675000000000001, 0.9893125, 192.0, 0.0, 0.0, 0.0, 0.0, 0.0, 0.0, 0.0, 0.0, 0.0, 1.645922479664935E9, 0.0, 2022-02-27 11:41:19.664
250.0, -998.564183540843, -3622.122540726965, -1772.4262800724841, -9289.295588647794, 170.96849333864373, 285.6999976277349, -4690.424166968366, -1444.2356162352105, -3489.30847517353, -4662.953873032793, -3418.162872572288, -2701.521241846233, -2818.6220310475865, -1678.1689737044542, -8440.085761557313, -15318.41043453341, 0.012750000000000001, -0.10675000000000001, 0.9893125, 192.0, 0.0, 0.0, 0.0, 0.0, 0.0, 0.0, 0.0, 0.0, 0.0, 1.645922479672022E9, 0.0, 2022-02-27 11:41:19.672
252.0, -1412.0491042195683, -3939.6290707146018, -2047.0621641948421, -9589.099537026828, -194.86250816136697, 78.72284397159147, -4732.356039566522, -1458.7866018756154, -2243.1763700457063, -4722.141292350447, -3785.9608275843657, -2800.740635483341, -3255.799800848937, -2020.9553266710434, -8460.492904245008, -15162.886996613384, 0.012750000000000001, -0.10675000000000001, 0.9893125, 192.0, 0.0, 0.0, 0.0, 0.0, 0.0, 0.0, 0.0, 0.0, 0.0, 1.645922479680028E9, 0.0, 2022-02-27 11:41:19.680
