%OpenBCI Raw EEG Data
%Number of channels = 16
%Sample Rate = 125 Hz
%Board = OpenBCI_GUI$BoardCytonSerialDaisy
Sample Index, EXG Channel 0, EXG Channel 1, EXG Channel 2, EXG Channel 3, EXG Channel 4, EXG Channel 5, EXG Channel 6, EXG Channel 7, EXG Channel 8, EXG Channel 9, EXG Channel 10, EXG Channel 11, EXG Channel 12, EXG Channel 13, EXG Channel 14, EXG Channel 15, Accel Channel 0, Accel Channel 1, Accel Channel 2, Other, Other, Other, Other, Other, Other, Other, Analog Channel 0, Analog Channel 1, Analog Channel 2, Timestamp, Other, Timestamp (Formatted)
176.0, -784.5685821257332, -3444.314413584997, -1894.42210130955, -9502.933562151618, 229.64182253382475, 243.0975726959196, -4908.890117274537, -1489.9002301574028, -1922.6970580455136, -4504.703522289219, -3656.5442271881375, -2769.0905653346263, -3002.6215914036743, -1890.331732074229, -8050.919538845961, -14870.32501343787, 0.012, -0.106, 0.988, 192.0, 0.0, 48.0, 126.0, 88.0, 15.0, 112.0, 0.0, 0.0, 0.0, 1.645922739998051E9, 0.0, 2022-02-27 11:45:39.998
178.0, -431.4333714763369, -3175.0876516208236, -1680.7170725723593, -9224.699047171956, 556.2678642592268, 408.0981502649964, -4815.325714984621, -1385.584638784485, -2255.0674980959297, -4274.592313121833, -3429.1822825887543, -2692.424081852923, -2761.4015652420003, -1726.202872538909, -7989.765166016241, -14725.48570936748, 0.012, -0.106, 0.988, 192.0, 0.0, 0.0, 0.0, 0.0, 0.0, 0.0, 0.0, 0.0, 0.0, 1.645922739998054E9, 0.0, 2022-02-27 11:45:39.998
0.0, -472.62763650746786, -1758.1211636210876, -1037.143294470703, -4814.85632835106, 47.07277382287668, 74.25249508053007, -2497.0251318246287, -777.7960035557752, -1263.0300239360363, -2389.826165416976, -1868.5387812303045, -1425.7283718262163, -1531.8097510111036, -988.9305816806057, -4090.704511488022, -7585.019777419541, 0.012, -0.10300000000000001, 0.987, 192.0, 0.0, 48.0, 126.0, 112.0, 15.0, 104.0, 0.0, 0.0, 0.0, 1.645922740104791E9, 0.0, 2022-02-27 11:45:40.104
2.0, -489.234982637761, -3160.3802037692317, -1752.5779309961715, -9250.180035851006, 513.9336602608753, 406.399417686393, -4824.422874977931, -1317.1435972623347, -1479.5513724745956, -3998.190641187506, -3540.896301376379, -2618.2386420057587, -2870.165153761525, -1755.7295269643698, -7894.189106725348, -14434.398941326017, 0.012, -0.10300000000000001, 0.987, 192.0, 0.0, 0.0, 0.0, 0.0, 0.0, 0.0, 0.0, 0.0, 0.0, 1.645922740112419E9, 0.0, 2022-02-27 11:45:40.112
4.0, -684.8798018550638, -3324.464359815641, -1942.5677588662816, -9449.892872559176, 304.58722169246937, 214.5543950264925, -5059.317357458754, -1639.7016214968708, -3632.0020117762106, -4700.348341506522, -3525.4288942133066, -2741.4414574434113, -2806.6191442750865, -1800.433015874984, -8213.997866391881, -15288.97318708577, 0.012, -0.10300000000000001, 0.987, 192.0, 0.0, 0.0, 0.0, 0.0, 0.0, 0.0, 0.0, 0.0, 0.0, 1.64592274011884E9, 0.0, 2022-02-27 11:45:40.118
6.0, -807.0544370477721, -3406.808186388992, -1969.7698318683902, -9499.424338272136, 221.66224976328013, 228.8371597334337, -4940.07080078969, -1461.3794042324312, -1763.172657867987, -4367.821439244919, -3736.854045016056, -2723.671820601442, -3062.077231654791, -1938.2091686974966, -8031.1158932585595, -14752.508968413946, 0.012, -0.10300000000000001, 0.987, 192.0, 0.0, 0.0, 0.0, 0.0, 0.0, 0.0, 0.0, 0.0, 0.0, 1.645922740126895E9, 0.0, 2022-02-27 11:45:40.126
8.0, -379.39851038438206, -3080.0256824524026, -1699.2466687258088, -9174.206456447419, 598.4009025574807, 434.8978918669095, -4864.633663253029, -1373.3135310785212, -2504.0882830725054, -4213.013257147462, -3439.8217129494806, -2644.7925144186634, -2745.5318266787326, -1701.14656700451, -7995.800137019174, -14731.990067003975, 0.012, -0.096, 0.984, 192.0, 0.0, 48.0, 126.5, 0.0, 15.0, 96.0, 0.0, 0.0, 0.0, 1.645922740134907E9, 0.0, 2022-02-27 11:45:40.134
10.0, -949.4574009725334, -3522.2549465006527, -2100.3040194873834, -9649.315136589425, 78.43227129367249, 102.25923088302982, -5091.995607852413, -1671.9104852569683, -3232.241062193044, -4844.986479876814, -3731.8696060025227, -2824.277022394779, -3026.493254481942, -1970.9768260689768, -8254.566282578264, -15338.191728376358, 0.012, -0.096, 0.984, 192.0, 0.0, 0.0, 0.0, 0.0, 0.0, 0.0, 0.0, 0.0, 0.0, 1.645922740141865E9, 0.0, 2022-02-27 11:45:40.141
12.0, -496.9239827303866, -3161.8554189032816, -1749.336928050152, -9251.789361451789, 513.0172387382077, 413.6190311454572, -4826.903918612471, -1303.553736633508, -1464.799221134093, -3985.4724985924363, -3541.388039754396, -2627.8945956104512, -2868.4664211829213, -1754.433125785962, -7887.528286877667, -14430.509737790793, 0.012, -0.096, 0.984, 192.0, 0.0, 0.0, 0.0, 0.0, 0.0, 0.0, 0.0, 0.0, 0.0, 1.645922740149444E9, 0.0, 2022-02-27 11:45:40.149
14.0, -664.6738248674661, -3310.069836386423, -1920.6630493000805, -9433.933727018086, 332.3257365615054, 231.80994174598953, -5039.960746760457, -1618.601574731061, -3613.76298830068, -4684.813879110084, -3514.7894638525804, -2743.184893510925, -2792.157565612503, -1794.0627687052213, -8194.082462082204, -15265.436800174333, 0.012, -0.096, 0.984, 192.0, 0.0, 0.0, 0.0, 0.0, 0.0, 0.0, 0.0, 0.0, 0.0, 1.645922740157397E9, 0.0, 2022-02-27 11:45:40.157
16.0, -801.9805910564174, -3404.774177643559, -1962.7066806205132, -9500.45251851708, 227.76427599957896, 239.14131392733026, -4944.831722358671, -1484.0440731101123, -1801.103568208643, -4380.561933584444, -3727.6451263004697, -2713.3900181520007, -3051.6836704830735, -1926.7427237919242, -8026.0643990116605, -14770.993861078485, 0.013000000000000001, -0.099, 0.984, 192.0, 0.0, 56.0, 126.0, 104.0, 15.0, 96.0, 0.0, 0.0, 0.0, 1.645922740171152E9, 0.0, 2022-02-27 11:45:40.171
18.0, -375.4422516157927, -3080.3833103636875, -1691.244744210809, -9171.904226768522, 606.9839724283186, 440.68699368083406, -4870.355709833588, -1363.1881908402672, -2452.411049891836, -4185.230038789516, -3431.7974366900253, -2616.3610954715127, -2737.775771352741, -1688.6519418539933, -7984.356043858057, -14709.05717719283, 0.013000000000000001, -0.099, 0.984, 192.0, 0.0, 0.0, 0.0, 0.0, 0.0, 0.0, 0.0, 0.0, 0.0, 1.645922740179031E9, 0.0, 2022-02-27 11:45:40.179
20.0, -948.8539038722402, -3532.022658827622, -2097.197127008096, -9647.90697668874, 83.32730332938473, 102.30393437194043, -5093.4261194975525, -1657.4936100832952, -3255.26335898201, -4844.740610687806, -3725.588765810581, -2817.571499058187, -3020.950021857026, -1972.2508755029294, -8255.125076189646, -15344.874899968494, 0.013000000000000001, -0.099, 0.984, 192.0, 0.0, 0.0, 0.0, 0.0, 0.0, 0.0, 0.0, 0.0, 0.0, 1.645922740187096E9, 0.0, 2022-02-27 11:45:40.187
22.0, -515.7888550506658, -3187.3140558378764, -1761.1386491225542, -9255.745620220378, 512.8607765270206, 407.7405223537114, -4832.916537870949, -1301.0056377656028, -1468.1966862912998, -4026.1750252455504, -3555.7155079502477, -2632.2084822903257, -2885.5208022023207, -1774.884971962568, -7896.245467215236, -14433.817795970179, 0.013000000000000001, -0.099, 0.984, 192.0, 0.0, 0.0, 0.0, 0.0, 0.0, 0.0, 0.0, 0.0, 0.0, 1.645922740194614E9, 0.0, 2022-02-27 11:45:40.194
24.0, -676.386138962047, -3323.458531315152, -1923.0546859567985, -9435.58775610778, 336.4161057968266, 236.97319471516548, -5050.130790487622, -1608.1409583259772, -3605.2693254076635, -4681.818745353073, -3524.8924523463793, -2745.822399356651, -2803.2663826067906, -1790.911172737023, -8200.72093018543, -15256.361991925478, 0.013000000000000001, -0.099, 0.984, 192.0, 0.0, 0.0, 0.0, 0.0, 0.0, 0.0, 0.0, 0.0, 0.0, 1.645922740201765E9, 0.0, 2022-02-27 11:45:40.201
26.0, -816.218652274448, -3416.218270804676, -1964.29365447684, -9506.375730797736, 238.3142993824839, 241.89057849533305, -4941.657774646017, -1456.3502617299869, -1815.0510567487547, -4390.0390732334945, -3738.59748108357, -2726.577547380632, -3064.334757844777, -1931.6601075720916, -8037.553195661688, -14770.189198278094, 0.0115, -0.1005, 0.987, 192.0, 0.0, 40.0, 126.0, 104.0, 15.0, 120.0, 0.0, 0.0, 0.0, 1.645922740209721E9, 0.0, 2022-02-27 11:45:40.209
28.0, -388.8980017778876, -3090.106319201746, -1691.8035378221916, -9179.325005927683, 631.3920773735139, 439.0329645911413, -4863.20315160789, -1352.6381674573622, -2455.1603144598384, -4196.405911017169, -3441.4980937836285, -2636.030630592183, -2748.5046086912885, -1697.5255844027502, -7985.0936514250825, -14708.610142303723, 0.0115, -0.1005, 0.987, 192.0, 0.0, 0.0, 0.0, 0.0, 0.0, 0.0, 0.0, 0.0, 0.0, 1.645922740217891E9, 0.0, 2022-02-27 11:45:40.217
30.0, -955.3359097642792, -3531.6203274274267, -2094.537269417914, -9650.186854623182, 94.52552730149357, 107.78011176349065, -5089.849840384703, -1664.6238165645382, -3275.31287375842, -4853.971881147848, -3729.1650449234303, -2819.672563036986, -3024.4815974809644, -1970.6639016466024, -8255.281538400834, -15349.23349013728, 0.0115, -0.1005, 0.987, 192.0, 0.0, 0.0, 0.0, 0.0, 0.0, 0.0, 0.0, 0.0, 0.0, 1.645922740223944E9, 0.0, 2022-02-27 11:45:40.223
32.0, -533.3573261925371, -3199.0263699324573, -1766.7712887252915, -9265.714498247446, 502.78013977767705, 400.9455920392981, -4841.946642630893, -1295.4624051406868, -1484.312294043576, -4035.6298131501453, -3563.6727289763367, -2628.967479344306, -2898.2612965418457, -1772.0910039056546, -7897.653627115921, -14443.406694341505, 0.0115, -0.1005, 0.987, 192.0, 0.0, 0.0, 0.0, 0.0, 0.0, 0.0, 0.0, 0.0, 0.0, 1.645922740231451E9, 0.0, 2022-02-27 11:45:40.231
34.0, -672.8769150825639, -3321.6033365253616, -1918.6737440435584, -9430.983296749986, 341.22173085471763, 243.29873839601737, -5051.114267243656, -1593.8358418745806, -3598.675560793348, -4689.97713207926, -3527.5970134254712, -2750.158637780981, -2815.6492490350306, -1791.201745414942, -8200.408005763054, -15246.97425925425, 0.0115, -0.1005, 0.987, 192.0, 0.0, 0.0, 0.0, 0.0, 0.0, 0.0, 0.0, 0.0, 0.0, 1.64592274023934E9, 0.0, 2022-02-27 11:45:40.239
36.0, -827.8192076467524, -3426.2765558095643, -1973.0555383033204, -9517.059864647374, 226.02083993206503, 232.3016801240063, -4947.111600293112, -1467.5484857020958, -1871.3103975427625, -4413.2848874670135, -3741.0338212291986, -2736.2782044742353, -3075.018891694414, -1939.7290873204574, -8045.890396343518, -14795.178448579127, 0.012750000000000001, -0.10125, 0.9875, 192.0, 0.0, 56.0, 126.0, 104.0, 15.0, 112.0, 0.0, 0.0, 0.0, 1.645922740247517E9, 0.0, 2022-02-27 11:45:40.247
38.0, -408.03109503163046, -3104.277325186411, -1696.0727210131552, -9182.633064107069, 617.2881266222151, 445.1796943163508, -4856.162352104468, -1353.8004581690382, -2440.296404397059, -4198.216402318049, -3447.510713042106, -2647.1170958420153, -2758.160562295981, -1700.5430699042167, -7982.992587446283, -14699.043595676852, 0.012750000000000001, -0.10125, 0.9875, 192.0, 0.0, 0.0, 0.0, 0.0, 0.0, 0.0, 0.0, 0.0, 0.0, 1.645922740254017E9, 0.0, 2022-02-27 11:45:40.254
40.0, -961.8626191452288, -3534.1013710619654, -2088.770519348445, -9646.722334232609, 105.50023382904934, 127.82962653990108, -5074.382433221631, -1636.5947290175832, -3285.907600630236, -4852.831942180627, -3729.0756379456093, -2831.5189875982987, -3024.1239695696795, -1961.7455556089349, -8251.81701801026, -15333.073178896091, 0.012750000000000001, -0.10125, 0.9875, 192.0, 0.0, 0.0, 0.0, 0.0, 0.0, 0.0, 0.0, 0.0, 0.0, 1.645922740261926E9, 0.0, 2022-02-27 11:45:40.261
42.0, -542.2086169968387, -3201.5744688003624, -1767.5088962923166, -9270.386012838604, 512.4137416379144, 407.51700490915835, -4821.986534832303, -1290.4779661271532, -1505.3005820871094, -4040.4354382080364, -3563.829191187524, -2638.8469503935517, -2896.0484738407704, -1770.5487335382384, -7897.631275371466, -14440.545671051226, 0.012750000000000001, -0.10125, 0.9875, 192.0, 0.0, 0.0, 0.0, 0.0, 0.0, 0.0, 0.0, 0.0, 0.0, 1.645922740270086E9, 0.0, 2022-02-27 11:45:40.270
44.0, -674.0392057942398, -3320.999839425068, -1916.036238197832, -9430.648020583156, 357.9631874517426, 248.52904659855923, -5043.201749706477, -1599.6249436885053, -3579.765984984158, -4669.927617302849, -3520.3326964774965, -2749.577492425143, -2806.5520890417206, -1794.6439140610594, -8194.57420046022, -15239.419369628355, 0.012750000000000001, -0.10125, 0.9875, 192.0, 0.0, 0.0, 0.0, 0.0, 0.0, 0.0, 0.0, 0.0, 0.0, 1.645922740276678E9, 0.0, 2022-02-27 11:45:40.276
46.0, -828.9591466139731, -3433.5632245019942, -1968.7863551123567, -9512.433053545124, 240.59417731692523, 245.17628493026317, -4961.215551044411, -1440.771095844638, -1867.331787029718, -4410.893250810296, -3735.3564781375503, -2738.625137642043, -3067.8663334687158, -1939.974956509466, -8042.761152119774, -14792.228018311027, 0.014375, -0.103625, 0.98875, 192.0, 0.0, 64.0, 126.0, 88.0, 15.0, 120.0, 0.0, 0.0, 0.0, 1.645922740291721E9, 0.0, 2022-02-27 11:45:40.291
48.0, -423.8337783615325, -3123.812749840349, -1699.8054623371916, -9190.612636877613, 612.7060190088772, 445.40321176090384, -4864.477201041842, -1352.6158157129069, -2447.9854044896847, -4210.152233857183, -3454.931492201268, -2650.782781932686, -2766.4530594888997, -1714.6470206555155, -7990.815698005641, -14704.408014346125, 0.014375, -0.103625, 0.98875, 192.0, 0.0, 0.0, 0.0, 0.0, 0.0, 0.0, 0.0, 0.0, 0.0, 1.645922740299808E9, 0.0, 2022-02-27 11:45:40.299
50.0, -968.4787355039997, -3546.0819060900103, -2084.680150113124, -9647.929328433196, 102.57215530540411, 111.66931529871408, -5082.71963390346, -1662.2545316522755, -3312.5285282765067, -4860.811514951171, -3731.9366612358886, -2832.100132954137, -3029.019001605392, -1973.904904592622, -8257.762582035373, -15345.143120901957, 0.014375, -0.103625, 0.98875, 192.0, 0.0, 0.0, 0.0, 0.0, 0.0, 0.0, 0.0, 0.0, 0.0, 1.645922740306346E9, 0.0, 2022-02-27 11:45:40.306
52.0, -583.5146407502461, -3243.9533762876245, -1776.6731115189925, -9285.786364768312, 511.29615441514903, 400.8785368059322, -4811.235345749301, -1289.8968207713153, -1513.861300213492, -4058.450944239014, -3577.0390721606104, -2647.2065028198367, -2901.3905407655884, -1783.1104139221209, -7893.049167758128, -14453.710848535402, 0.014375, -0.103625, 0.98875, 192.0, 0.0, 0.0, 0.0, 0.0, 0.0, 0.0, 0.0, 0.0, 0.0, 1.64592274031427E9, 0.0, 2022-02-27 11:45:40.314
54.0, -692.6358571810553, -3341.9434239796906, -1905.776787492846, -9429.619840338211, 361.3159491200387, 258.69909032572394, -5034.641031580095, -1606.375170514008, -3580.0342059176214, -4674.532076660643, -3536.5824146965047, -2764.709623421386, -2818.733789769863, -1804.0316467322884, -8187.712214912441, -15227.461186344766, 0.014375, -0.103625, 0.98875, 192.0, 0.0, 0.0, 0.0, 0.0, 0.0, 0.0, 0.0, 0.0, 0.0, 1.645922740322446E9, 0.0, 2022-02-27 11:45:40.322
56.0, -869.4828593114447, -3465.794440006547, -1975.648340660136, -9523.36305658377, 222.8245404749561, 249.7360407991458, -4939.422600200486, -1445.353203457976, -1930.4307616270498, -4442.386858747824, -3744.207768941852, -2752.25970175978, -3065.877028212193, -1945.808761812301, -8047.075038799649, -14818.98305642403, 0.0141875, -0.1038125, 0.988375, 192.0, 0.0, 56.0, 126.0, 96.0, 15.0, 112.0, 0.0, 0.0, 0.0, 1.64592274033031E9, 0.0, 2022-02-27 11:45:40.330
58.0, -451.3264240415602, -3150.143104808701, -1700.3642559485743, -9182.990692018353, 610.6943620078996, 450.9687961302753, -4846.1934740774, -1326.9783648226696, -2418.90578495333, -4205.614829732755, -3461.63701553786, -2653.3979360339567, -2771.996292113816, -1710.2213752533646, -7977.1140786545375, -14678.256473333417, 0.0141875, -0.1038125, 0.988375, 192.0, 0.0, 0.0, 0.0, 0.0, 0.0, 0.0, 0.0, 0.0, 0.0, 1.645922740336931E9, 0.0, 2022-02-27 11:45:40.336
60.0, -1005.0014859439715, -3588.147889154898, -2082.0202925229423, -9635.747627705054, 112.78690252147943, 130.33302191889547, -5075.723537888949, -1645.5577785441612, -3342.1445896797886, -4871.786221478727, -3726.3487251220618, -2835.542301600254, -3016.5914316882413, -1966.685291133558, -8252.219349410458, -15330.480376539277, 0.0141875, -0.1038125, 0.988375, 192.0, 0.0, 0.0, 0.0, 0.0, 0.0, 0.0, 0.0, 0.0, 0.0, 1.64592274034391E9, 0.0, 2022-02-27 11:45:40.343
62.0, -641.2715484227597, -3300.8609176708364, -1783.043358688755, -9288.31211189176, 500.18733742086147, 405.21477523026175, -4818.566717930641, -1301.1844517212453, -1537.01770746919, -4087.7540812199213, -3593.2887903796186, -2660.2152180928256, -2911.3594187926556, -1794.2862861497745, -7900.872278317485, -14453.86731074659, 0.0141875, -0.1038125, 0.988375, 192.0, 0.0, 0.0, 0.0, 0.0, 0.0, 0.0, 0.0, 0.0, 0.0, 1.645922740351884E9, 0.0, 2022-02-27 11:45:40.351
64.0, -769.1235267071161, -3419.3698667728745, -1911.9682207069661, -9432.793788050865, 356.21975138422863, 254.7204798126793, -5017.452540093964, -1568.600722384539, -3578.894266950401, -4695.408605981899, -3558.285958562608, -2783.641550975031, -2824.478188094877, -1813.844062548168, -8187.265180023334, -15205.042386656092, 0.0141875, -0.1038125, 0.988375, 192.0, 0.0, 0.0, 0.0, 0.0, 0.0, 0.0, 0.0, 0.0, 0.0, 1.645922740359203E9, 0.0, 2022-02-27 11:45:40.359
66.0, -959.470982488511, -3556.676632961826, -1978.3529017392282, -9527.989867686018, 229.61947078936944, 236.83908424843364, -4929.409018684509, -1447.4989709256854, -1972.452041203027, -4478.775498721064, -3780.4175949594496, -2784.9826556423495, -3074.8624294832266, -1958.0128142848987, -8045.286899243224, -14808.969474908052, 0.01409375, -0.10590625000000001, 0.9891875, 192.0, 0.0, 56.0, 126.0, 80.0, 15.0, 120.0, 0.0, 0.0, 0.0, 1.645922740366603E9, 0.0, 2022-02-27 11:45:40.366
68.0, -555.0832218030956, -3242.8581408093146, -1706.689799629426, -9192.266665967307, 612.9295364534303, 447.34781352851553, -4851.088506113113, -1356.9073506483257, -2460.1224017289164, -4244.238644151526, -3503.412425924829, -2687.0149596947385, -2778.970036383872, -1723.4759597153616, -7981.696186267875, -14691.823982217787, 0.01409375, -0.10590625000000001, 0.9891875, 192.0, 0.0, 0.0, 0.0, 0.0, 0.0, 0.0, 0.0, 0.0, 0.0, 1.645922740374717E9, 0.0, 2022-02-27 11:45:40.374
70.0, -1112.8039494519173, -3676.8396111535567, -2079.673359355135, -9637.424008539201, 129.90833877424464, 142.53707439149315, -5048.9908515204015, -1629.6433364919826, -3382.780061099537, -4893.512117089286, -3763.854952318067, -2861.2691594683124, -3020.570042201286, -1964.226599243474, -8247.72664877494, -15330.681542239374, 0.01409375, -0.10590625000000001, 0.9891875, 192.0, 0.0, 0.0, 0.0, 0.0, 0.0, 0.0, 0.0, 0.0, 0.0, 1.645922740382711E9, 0.0, 2022-02-27 11:45:40.382
72.0, -766.7318900503982, -3416.285326038042, -1790.3300273811851, -9298.571562596746, 490.10670067151796, 406.4664729197589, -4809.827185848616, -1286.58876259193, -1597.054493076145, -4126.154378194139, -3628.33632568554, -2689.4960033292778, -2916.7461892063843, -1794.621562316604, -7902.6827696183655, -14462.67389806198, 0.01409375, -0.10590625000000001, 0.9891875, 192.0, 0.0, 0.0, 0.0, 0.0, 0.0, 0.0, 0.0, 0.0, 0.0, 1.645922740389281E9, 0.0, 2022-02-27 11:45:40.389
74.0, -888.7724147763747, -3525.8088738690467, -1909.5318805613376, -9427.228203681494, 382.2595336746614, 277.921590557288, -5012.222231891422, -1555.6143588560055, -3590.47247057825, -4719.213213826802, -3586.985598443222, -2811.1341966550585, -2821.8853857380614, -1812.8605857921345, -8184.515915455332, -15188.658557970353, 0.01409375, -0.10590625000000001, 0.9891875, 192.0, 0.0, 0.0, 0.0, 0.0, 0.0, 0.0, 0.0, 0.0, 0.0, 1.645922740397182E9, 0.0, 2022-02-27 11:45:40.397
76.0, -1078.4493182241104, -3658.9135121004, -1981.4150907296053, -9532.571975299355, 242.24820640661795, 262.6553490943133, -4917.2720214452775, -1448.7506686151826, -2049.386745618194, -4516.4158363838005, -3810.2571738072843, -2808.094359409137, -3069.3191968583105, -1943.5735873667704, -8052.707678402386, -14816.256143600482, 0.013046875, -0.10395312500000001, 0.98959375, 192.0, 0.0, 48.0, 126.0, 104.0, 15.0, 120.0, 0.0, 0.0, 0.0, 1.645922740405116E9, 0.0, 2022-02-27 11:45:40.405
78.0, -660.158772487494, -3338.23303440011, -1728.147474306521, -9205.364788218116, 610.2696788632487, 453.9192263983758, -4834.347049516088, -1331.9404520917478, -2486.4751084417235, -4269.362004919291, -3548.495894491183, -2719.2014717103807, -2792.8728214350726, -1730.3602970075963, -7984.221933391325, -14680.625758245678, 0.013046875, -0.10395312500000001, 0.98959375, 192.0, 0.0, 0.0, 0.0, 0.0, 0.0, 0.0, 0.0, 0.0, 0.0, 1.645922740418883E9, 0.0, 2022-02-27 11:45:40.418
80.0, -1153.8417522718612, -3719.822015741112, -2073.9513127745763, -9633.043066625962, 144.28051045900708, 162.20660951216334, -5033.165816446044, -1624.5471387561727, -3403.522479954062, -4906.498480617819, -3783.1445077829967, -2883.4644417124323, -3018.2678125223892, -1967.1099742782087, -8247.749000519396, -15315.102376354025, 0.013046875, -0.10395312500000001, 0.98959375, 192.0, 0.0, 0.0, 0.0, 0.0, 0.0, 0.0, 0.0, 0.0, 0.0, 1.645922740426799E9, 0.0, 2022-02-27 11:45:40.426
82.0, -779.1147564786382, -3424.6672302087823, -1794.2862861497745, -9296.515202106859, 479.4672703107918, 416.30124048009407, -4808.597839903574, -1294.7024458292062, -1612.1642723279326, -4141.711192335033, -3638.14874150142, -2689.2724858847246, -2913.214613582446, -1791.201745414942, -7898.637103871954, -14468.8653312761, 0.013046875, -0.10395312500000001, 0.98959375, 192.0, 0.0, 0.0, 0.0, 0.0, 0.0, 0.0, 0.0, 0.0, 0.0, 1.645922740434812E9, 0.0, 2022-02-27 11:45:40.434
84.0, -852.8755131811516, -3487.386225150374, -1906.4696915709605, -9413.10190118574, 380.6949115627899, 275.52995390057015, -4996.665417750528, -1560.9340740363687, -3575.0050634151776, -4702.471757229777, -3591.6124095454707, -2795.21975460288, -2827.450970107433, -1812.0335712472884, -8179.375014230611, -15179.67315669932, 0.013046875, -0.10395312500000001, 0.98959375, 192.0, 0.0, 0.0, 0.0, 0.0, 0.0, 0.0, 0.0, 0.0, 0.0, 1.645922740441484E9, 0.0, 2022-02-27 11:45:40.441
86.0, -1012.6904860365971, -3593.311142124074, -1977.972922083488, -9519.384446070724, 242.6952412957241, 260.2190089486848, -4921.094169747134, -1456.1714477743444, -2051.286643896895, -4495.025216940072, -3799.4836329798263, -2779.2382573173354, -3061.65254851014, -1939.3044041758067, -8044.728105631842, -14827.633181528234, 0.012, -0.10400000000000001, 0.986, 192.0, 0.0, 48.0, 126.0, 96.0, 15.0, 104.0, 0.0, 0.0, 0.0, 1.645922740449482E9, 0.0, 2022-02-27 11:45:40.449
88.0, -590.3319228091149, -3274.5082109580294, -1722.3583724925963, -9198.726320114889, 600.6360770030113, 455.79677293262165, -4847.668689211451, -1330.0405538130467, -2450.19822719076, -4254.118115200772, -3533.0508390725663, -2691.194735907881, -2793.7445394688298, -1718.0668375571775, -7984.177229902414, -14673.987290142453, 0.012, -0.10400000000000001, 0.986, 192.0, 0.0, 0.0, 0.0, 0.0, 0.0, 0.0, 0.0, 0.0, 0.0, 1.645922740457388E9, 0.0, 2022-02-27 11:45:40.457
90.0, -1074.1577832886915, -3647.2906049836406, -2065.6811673261127, -9624.750569433043, 140.97245227962165, 175.95293235217719, -5052.567130633251, -1632.794932460181, -3399.901497352302, -4895.479070601353, -3763.497324406782, -2858.743412344863, -3008.0977687952245, -1954.7941630833345, -8250.319451131756, -15318.879821166973, 0.012, -0.10400000000000001, 0.986, 192.0, 0.0, 0.0, 0.0, 0.0, 0.0, 0.0, 0.0, 0.0, 0.0, 1.645922740464673E9, 0.0, 2022-02-27 11:45:40.464
92.0, -713.9594213914182, -3360.227150944132, -1798.913097252023, -9299.867963775154, 476.2933225981382, 415.09424627950744, -4830.815473892149, -1307.6888093577397, -1594.014655830223, -4123.1368926926725, -3631.3538111870066, -2675.704977000353, -2912.342895548689, -1784.0715389336992, -7902.056920773616, -14479.638872103558, 0.012, -0.10400000000000001, 0.986, 192.0, 0.0, 0.0, 0.0, 0.0, 0.0, 0.0, 0.0, 0.0, 0.0, 1.645922740471067E9, 0.0, 2022-02-27 11:45:40.471
94.0, -764.4743638604122, -3409.0433608345224, -1901.261735112874, -9401.300180113338, 388.40626339987085, 292.4949279421482, -4998.833536962693, -1553.088611732556, -3531.150940793865, -4673.548599904609, -3570.8476389464904, -2778.053614861204, -2818.063237436204, -1805.819786288713, -8184.135935799592, -15171.872397884417, 0.012, -0.10400000000000001, 0.986, 192.0, 0.0, 0.0, 0.0, 0.0, 0.0, 0.0, 0.0, 0.0, 0.0, 1.645922740479145E9, 0.0, 2022-02-27 11:45:40.479
96.0, -961.7955639118629, -3547.4006590128733, -1988.7688146554012, -9526.537004296422, 222.69043000822427, 249.91485475478828, -4927.084437261157, -1451.6787471388277, -2085.8424408247997, -4509.106815946915, -3786.7431386403014, -2778.902981150506, -3061.116106643213, -1934.968165751477, -8056.663937170975, -14851.862472517787, 0.008, -0.1, 0.992, 192.0, 0.0, 32.0, 126.0, 112.0, 15.5, 0.0, 0.0, 0.0, 0.0, 1.64592274048729E9, 0.0, 2022-02-27 11:45:40.487
98.0, -529.8928058019645, -3219.388809131242, -1726.404038239007, -9197.809898592222, 600.8819461920198, 450.16413332988424, -4851.803761935683, -1340.3447080069434, -2390.85434566192, -4229.888824211219, -3515.191795252776, -2677.8283927236075, -2791.866992934584, -1721.821930625669, -7977.739927499286, -14667.304118550315, 0.008, -0.1, 0.992, 192.0, 0.0, 0.0, 0.0, 0.0, 0.0, 0.0, 0.0, 0.0, 0.0, 1.645922740494319E9, 0.0, 2022-02-27 11:45:40.494
100.0, -1017.4737593500328, -3596.5744968145486, -2069.056280738864, -9624.86232815532, 140.5254173905155, 162.6759961457248, -5045.146351474089, -1621.2390805767873, -3372.610017372372, -4870.333358089132, -3737.993983983277, -2846.829932550184, -2999.6041059022077, -1954.0118520273986, -8248.508959830877, -15316.666998465897, 0.008, -0.1, 0.992, 192.0, 0.0, 0.0, 0.0, 0.0, 0.0, 0.0, 0.0, 0.0, 0.0, 1.645922740501633E9, 0.0, 2022-02-27 11:45:40.501
102.0, -678.4424994519353, -3326.5877755388947, -1807.9879055008778, -9312.340237181215, 464.2233805922724, 400.3420949390048, -4825.093427311591, -1316.07071352848, -1590.8407081175696, -4108.474148329991, -3619.529738370149, -2675.704977000353, -2915.9415264059935, -1786.4855273348724, -7897.966551538295, -14484.980939028375, 0.008, -0.1, 0.992, 192.0, 0.0, 0.0, 0.0, 0.0, 0.0, 0.0, 0.0, 0.0, 0.0, 1.645922740509861E9, 0.0, 2022-02-27 11:45:40.509
104.0, -731.8855204445745, -3380.0084447870786, -1899.5182990453602, -9402.48482256947, 384.96409475375356, 290.147994774341, -5006.746054499871, -1553.0439082436453, -3500.1490712343543, -4646.525340858143, -3558.6882899628035, -2770.4987252353103, -2822.734752027363, -1814.268745692819, -8175.977549073405, -15162.90934835784, 0.008, -0.1, 0.992, 192.0, 0.0, 0.0, 0.0, 0.0, 0.0, 0.0, 0.0, 0.0, 0.0, 1.645922740517765E9, 0.0, 2022-02-27 11:45:40.517
106.0, -918.5225866463884, -3509.7826730945917, -1977.972922083488, -9520.07735014884, 234.7827237585454, 262.56594211649207, -4921.138873236046, -1453.1763140173334, -2067.424603393627, -4487.380920336356, -3768.3476529535837, -2767.324777522657, -3061.65254851014, -1914.717485274969, -8052.551216191199, -14841.625373557255, 0.012, -0.106, 0.99, 192.0, 0.0, 48.0, 126.0, 88.0, 15.0, 120.0, 0.0, 0.0, 0.0, 1.645922740524324E9, 0.0, 2022-02-27 11:45:40.524
108.0, -504.1659479339061, -3203.004980445502, -1724.079456815655, -9202.34730271665, 601.1725188699388, 441.5363599701357, -4850.730878201828, -1356.2815018035772, -2389.2897235500486, -4233.5992137908, -3502.965391035723, -2672.57573277661, -2787.5531062547097, -1727.4545702284063, -7978.209314132848, -14678.345880311237, 0.012, -0.106, 0.99, 192.0, 0.0, 0.0, 0.0, 0.0, 0.0, 0.0, 0.0, 0.0, 0.0, 1.645922740539444E9, 0.0, 2022-02-27 11:45:40.539
110.0, -973.3737675397119, -3553.9050166493676, -2057.098097455275, -9602.555287188923, 161.15607752276392, 175.21532478515206, -5049.4602381539635, -1636.8853016955022, -3377.3932906858076, -4850.775581690738, -3717.4080273399386, -2826.6463073070418, -2992.11627150968, -1938.9020727756113, -8246.63141329663, -15316.465832765798, 0.012, -0.106, 0.99, 192.0, 0.0, 0.0, 0.0, 0.0, 0.0, 0.0, 0.0, 0.0, 0.0, 1.645922740546496E9, 0.0, 2022-02-27 11:45:40.546
112.0, -661.4998771548126, -3307.0299991405013, -1806.9373735114782, -9309.143937724106, 459.14953460091766, 400.5209088946473, -4840.091447841102, -1319.7140478746949, -1594.8640221195249, -4123.114540948217, -3610.119653954465, -2656.9518634023507, -2916.5897269951975, -1776.270780118797, -7904.426205685879, -14502.974093314899, 0.012, -0.106, 0.99, 192.0, 0.0, 0.0, 0.0, 0.0, 0.0, 0.0, 0.0, 0.0, 0.0, 1.645922740553986E9, 0.0, 2022-02-27 11:45:40.553
114.0, -698.8719938840859, -3342.971604224635, -1886.4648802834608, -9387.375043317681, 397.59283037100204, 306.0624368265196, -4999.928772441002, -1543.4997133612292, -3438.2123873486985, -4619.5467853005875, -3543.153827566365, -2762.2285797868467, -2811.290658866246, -1795.0015419723443, -8170.300205981756, -15141.071694025004, 0.012, -0.106, 0.99, 192.0, 0.0, 0.0, 0.0, 0.0, 0.0, 0.0, 0.0, 0.0, 0.0, 1.645922740561932E9, 0.0, 2022-02-27 11:45:40.561
116.0, -918.1202552461929, -3498.7185595892147, -1986.0866053207644, -9522.513690294469, 221.81871197446728, 262.7671078165898, -4935.7569141098165, -1463.9722065892468, -2128.42251401216, -4500.926077476272, -3757.7976295706785, -2761.5356757087325, -3053.1588856171234, -1912.0576276847873, -8062.3412802626235, -14870.392068671235, 0.016, -0.114, 0.99, 192.0, 0.0, 64.0, 126.0, 56.0, 15.0, 120.0, 0.0, 0.0, 0.0, 1.645922740570041E9, 0.0, 2022-02-27 11:45:40.570
118.0, -530.7645238357215, -3218.718256797583, -1738.943366878434, -9207.53290743028, 584.7216349508327, 443.4809617377474, -4855.357689304076, -1359.8130774275157, -2347.55901665199, -4211.649800735689, -3506.854594570946, -2672.19575312087, -2800.3383040831454, -1717.4856922013394, -7975.325939098113, -14664.197226071028, 0.016, -0.114, 0.99, 192.0, 0.0, 0.0, 0.0, 0.0, 0.0, 0.0, 0.0, 0.0, 0.0, 1.645922740577335E9, 0.0, 2022-02-27 11:45:40.577
120.0, -1006.9907912004937, -3590.248953133697, -2054.125315442719, -9598.196697020137, 150.5837023954037, 167.01223457005437, -5050.510770143363, -1636.0582871506558, -3370.6207121158495, -4844.517093243253, -3718.145634906964, -2834.1341416995697, -2994.507908166398, -1933.7611715508906, -8246.20673015198, -15300.93137036936, 0.016, -0.114, 0.99, 192.0, 0.0, 0.0, 0.0, 0.0, 0.0, 0.0, 0.0, 0.0, 0.0, 1.645922740584433E9, 0.0, 2022-02-27 11:45:40.584
122.0, -736.0652966577169, -3372.386499927819, -1815.4086846600396, -9306.417024900558, 450.85703740799875, 395.46941464774784, -4848.741572945306, -1341.8646266299043, -1633.8231127051251, -4139.699535334055, -3621.5190436266716, -2666.8536861960515, -2923.988154409904, -1773.0968324061434, -7913.679827890376, -14513.792337631266, 0.016, -0.114, 0.99, 192.0, 0.0, 0.0, 0.0, 0.0, 0.0, 0.0, 0.0, 0.0, 0.0, 1.645922740591066E9, 0.0, 2022-02-27 11:45:40.591
124.0, -817.8726813641407, -3458.1724951472875, -1896.746682732902, -9390.794860219343, 393.3459989244937, 289.29862848503933, -5007.684827766994, -1552.7309838212711, -3436.804227448014, -4629.4709598387435, -3569.662996490359, -2768.576475212154, -2820.723095026385, -1787.5360593242717, -8171.417793204522, -15128.979400274684, 0.016, -0.114, 0.99, 192.0, 0.0, 0.0, 0.0, 0.0, 0.0, 0.0, 0.0, 0.0, 0.0, 1.64592274059902E9, 0.0, 2022-02-27 11:45:40.599
126.0, -1064.144201772714, -3644.0719537820764, -1986.0866053207644, -9527.587536285822, 229.70887776719067, 253.82641003446702, -4942.976527568881, -1478.1432125739113, -2163.3582905958046, -4531.5032638911325, -3789.3135892526616, -2793.0739871351707, -3063.8430194667603, -1917.869081243167, -8067.146905320515, -14865.474684891069, 0.012, -0.10400000000000001, 0.996, 192.0, 0.0, 48.0, 126.0, 96.0, 15.5, 16.0, 0.0, 0.0, 0.0, 1.645922740606902E9, 0.0, 2022-02-27 11:45:40.606
128.0, -696.3015432717256, -3371.1795057272325, -1751.8403234291463, -9219.714608158423, 587.2473820742824, 435.5013889672028, -4874.982520935836, -1356.1473913368454, -2414.7483604846434, -4266.277464184459, -3558.4647725182504, -2716.0275239977273, -2808.608449531609, -1730.5838144521492, -7981.785593245697, -14671.260377318906, 0.012, -0.10400000000000001, 0.996, 192.0, 0.0, 0.0, 0.0, 0.0, 0.0, 0.0, 0.0, 0.0, 0.0, 1.645922740614041E9, 0.0, 2022-02-27 11:45:40.614
130.0, -1158.13328720728, -3725.700524532858, -2060.696728312579, -9609.417272736702, 174.03068232902078, 171.14730729428618, -5051.3377846882095, -1630.8726824370244, -3426.9471081432234, -4881.352768105598, -3766.2018854858743, -2875.66368289753, -2998.0394837903364, -1931.7718662943682, -8248.285442386323, -15293.063556321093, 0.012, -0.10400000000000001, 0.996, 192.0, 0.0, 0.0, 0.0, 0.0, 0.0, 0.0, 0.0, 0.0, 0.0, 1.645922740621717E9, 0.0, 2022-02-27 11:45:40.621
132.0, -864.5207720423666, -3491.7895188080693, -1828.2609377218412, -9324.857214076188, 447.1689995728731, 394.6200483584462, -4864.454849297386, -1333.7062399037172, -1684.5392208742169, -4187.241695790493, -3670.983454106266, -2711.4677681288445, -2930.8724917021386, -1783.3786348555846, -7906.214345242303, -14513.30059925325, 0.012, -0.10400000000000001, 0.996, 192.0, 0.0, 0.0, 0.0, 0.0, 0.0, 0.0, 0.0, 0.0, 0.0, 1.645922740629493E9, 0.0, 2022-02-27 11:45:40.629
134.0, -871.9191994570732, -3506.251097470653, -1889.4600140404718, -9386.659787495111, 397.7716443266445, 300.78742513506717, -5000.018179418824, -1553.8709227884917, -3467.1355446738658, -4649.900454270894, -3597.2003456592975, -2796.225583103369, -2830.826083520184, -1800.2094984304308, -8168.690880380975, -15122.98913276066, 0.012, -0.10400000000000001, 0.996, 192.0, 0.0, 0.0, 0.0, 0.0, 0.0, 0.0, 0.0, 0.0, 0.0, 1.645922740637588E9, 0.0, 2022-02-27 11:45:40.637
136.0, -1077.979931590549, -3647.3353084725513, -1990.5122507229153, -9534.293059622414, 223.65155501980246, 252.28413966705082, -4927.196195983433, -1471.8847241264255, -2215.8401865768656, -4552.491551934666, -3797.7849004012232, -2805.836833219151, -3060.1326298871795, -1913.264621885374, -8064.8670273860735, -14886.060641534406, 0.014, -0.10200000000000001, 0.988, 192.0, 0.0, 56.0, 126.0, 104.0, 15.0, 112.0, 0.0, 0.0, 0.0, 1.645922740644396E9, 0.0, 2022-02-27 11:45:40.644
138.0, -674.4415371944353, -3347.1513804377773, -1751.9744338958783, -9223.626163438103, 577.3455592805815, 438.429467490848, -4861.236198095822, -1352.548760479541, -2380.013749601096, -4247.613757564278, -3556.2072463282643, -2713.7029425743754, -2813.5258333117763, -1738.3398697781408, -7972.755488485753, -14661.13503708065, 0.014, -0.10200000000000001, 0.988, 192.0, 0.0, 0.0, 0.0, 0.0, 0.0, 0.0, 0.0, 0.0, 0.0, 1.645922740652228E9, 0.0, 2022-02-27 11:45:40.652
140.0, -1096.2860102994455, -3670.759936661713, -2053.7229840425234, -9610.020769836996, 162.20660951216334, 165.8275921139231, -5050.197845720988, -1642.2944238536863, -3417.894651638824, -4873.529657546242, -3750.8015335561677, -2875.5519241752536, -2997.503041923409, -1943.4841803889492, -8243.055134183782, -15297.131573811957, 0.014, -0.10200000000000001, 0.988, 192.0, 0.0, 0.0, 0.0, 0.0, 0.0, 0.0, 0.0, 0.0, 0.0, 1.645922740667373E9, 0.0, 2022-02-27 11:45:40.667
142.0, -784.9485617814735, -3423.348477285919, -1823.5670713862266, -9328.791121100321, 454.8579996654987, 381.723091807734, -4853.703660214384, -1347.6313766993735, -1663.595636319594, -4170.813163615842, -3644.7648578601907, -2696.7603202772525, -2928.6596690010633, -1788.8771639915901, -7908.762444110209, -14523.291829024773, 0.014, -0.10200000000000001, 0.988, 192.0, 0.0, 0.0, 0.0, 0.0, 0.0, 0.0, 0.0, 0.0, 0.0, 1.645922740674019E9, 0.0, 2022-02-27 11:45:40.674
144.0, -790.6035531286661, -3432.0209541345785, -1893.7291972314356, -9394.818174221298, 405.0359612746193, 293.5901634204583, -5003.03566492029, -1551.0098994982125, -3440.089933882944, -4637.495236098199, -3575.7426709822025, -2785.4967457648213, -2832.9271474989832, -1805.842138033168, -8169.517894925821, -15122.56444961601, 0.014, -0.10200000000000001, 0.988, 192.0, 0.0, 0.0, 0.0, 0.0, 0.0, 0.0, 0.0, 0.0, 0.0, 1.645922740681831E9, 0.0, 2022-02-27 11:45:40.681
146.0, -987.9024014356615, -3569.1936098567976, -1982.8232506302895, -9534.002486944495, 220.81288347397847, 246.8526657644112, -4946.999841570836, -1484.5581632325845, -2182.3572733828155, -4529.6257173568865, -3776.08135653512, -2785.0720626201705, -3062.3901560771656, -1917.6902672875246, -8069.069155343671, -14882.394955443735, 0.016, -0.1, 0.986, 192.0, 0.0, 64.0, 126.0, 112.0, 15.0, 104.0, 0.0, 0.0, 0.0, 1.645922740689951E9, 0.0, 2022-02-27 11:45:40.689
148.0, -587.4038442854696, -3267.0203765655015, -1744.173675080976, -9223.313239015728, 578.0608151031513, 430.6957639093118, -4872.121497645557, -1363.4340600292755, -2364.9933773271296, -4232.280460867937, -3530.3239262490188, -2691.127680674515, -2811.93885945545, -1732.6625266864928, -7984.378395602513, -14669.494589506936, 0.016, -0.1, 0.986, 192.0, 0.0, 0.0, 0.0, 0.0, 0.0, 0.0, 0.0, 0.0, 0.0, 1.645922740697078E9, 0.0, 2022-02-27 11:45:40.697
150.0, -1007.9295644676167, -3587.8796682214343, -2043.8882164821885, -9599.202525520626, 164.37472872432815, 177.38344399731685, -5059.250302225388, -1651.0563076801668, -3407.6352009338384, -4850.842636924104, -3721.207823897341, -2845.891159283061, -2993.367969199177, -1934.007040739899, -8250.900596487594, -15300.014948846692, 0.016, -0.1, 0.986, 192.0, 0.0, 0.0, 0.0, 0.0, 0.0, 0.0, 0.0, 0.0, 0.0, 1.645922740704453E9, 0.0, 2022-02-27 11:45:40.704
152.0, -713.4676830134015, -3352.4040403847744, -1822.136559741087, -9320.900955307598, 434.8755401224542, 376.0233969716307, -4863.225503352345, -1362.2047140842337, -1637.3993918179742, -4146.136837737184, -3621.76491281568, -2670.1170408865264, -2928.2349858564125, -1783.557448811227, -7919.133653537471, -14523.895326125066, 0.016, -0.1, 0.986, 192.0, 0.0, 0.0, 0.0, 0.0, 0.0, 0.0, 0.0, 0.0, 0.0, 1.645922740712536E9, 0.0, 2022-02-27 11:45:40.712
154.0, -705.7563311763205, -3354.0133659855564, -1876.2054295784749, -9373.293444310839, 405.0583130190746, 299.93805884576545, -5010.32233361272, -1554.4520681443296, -3396.1017007949, -4600.436043791299, -3551.4910282481947, -2754.517227949766, -2829.529682341776, -1799.9636292414225, -8169.897874581561, -15113.84726927844, 0.016, -0.1, 0.986, 192.0, 0.0, 0.0, 0.0, 0.0, 0.0, 0.0, 0.0, 0.0, 0.0, 1.645922740719842E9, 0.0, 2022-02-27 11:45:40.719
156.0, -930.2349007409694, -3511.280239973097, -1978.8893436061555, -9529.107454908784, 214.2191188596629, 241.1529709283079, -4960.634405688573, -1488.4026632788973, -2213.180328986684, -4524.730685321175, -3757.7529260817682, -2763.1673530539697, -3060.5796647762854, -1919.165482421575, -8081.116745605082, -14901.863324864307, 0.014, -0.1, 0.992, 192.0, 0.0, 56.0, 126.0, 112.0, 15.5, 0.0, 0.0, 0.0, 0.0, 1.645922740726344E9, 0.0, 2022-02-27 11:45:40.726
158.0, -528.1717214789059, -3210.0457799489236, -1737.7140209333922, -9215.646590667557, 567.1084603200508, 427.85709236348777, -4856.140000360012, -1374.833449701482, -2299.927449217731, -4206.397140788691, -3515.3929609528736, -2668.2171426078253, -2815.448083334933, -1738.563387222694, -7977.538761799188, -14654.988307355441, 0.014, -0.1, 0.992, 192.0, 0.0, 0.0, 0.0, 0.0, 0.0, 0.0, 0.0, 0.0, 0.0, 1.645922740734113E9, 0.0, 2022-02-27 11:45:40.734
160.0, -951.9160928626172, -3533.0508390725663, -2033.964041944032, -9591.37941496127, 163.10067929037564, 167.99571132608787, -5051.561302132762, -1640.081601152611, -3388.680921635738, -4830.368439003043, -3702.0300271546876, -2824.634650306064, -2989.568172641775, -1939.5949768537257, -8252.040535454815, -15298.182105801357, 0.014, -0.1, 0.992, 192.0, 0.0, 0.0, 0.0, 0.0, 0.0, 0.0, 0.0, 0.0, 0.0, 1.645922740742412E9, 0.0, 2022-02-27 11:45:40.742
162.0, -668.4065661915024, -3305.0183421395236, -1816.6827340939922, -9319.537498895825, 434.9202436113648, 377.38685338340446, -4847.95926188937, -1352.5711122239964, -1620.1438450984772, -4135.944442265563, -3610.5890405880264, -2655.4766482683003, -2930.157235879569, -1787.2007831574422, -7918.597211670543, -14525.191727303474, 0.014, -0.1, 0.992, 192.0, 0.0, 0.0, 0.0, 0.0, 0.0, 0.0, 0.0, 0.0, 0.0, 1.645922740749383E9, 0.0, 2022-02-27 11:45:40.749
164.0, -675.0450342947286, -3323.2797173595095, -1872.3385777877068, -9370.879455909664, 406.9582112977757, 295.84768961044426, -4992.530345026296, -1549.534684364162, -3366.575046369439, -4582.308779038046, -3542.371516510429, -2740.7485533652966, -2828.635612563564, -1801.304733908741, -8163.818200089718, -15102.090251694948, 0.015, -0.101, 0.991, 192.0, 0.0, 64.0, 126.0, 104.0, 15.0, 120.0, 0.0, 0.0, 0.0, 1.645922740756918E9, 0.0, 2022-02-27 11:45:40.756
166.0, -891.2534584109138, -3475.7856697780694, -1972.0497098028316, -9519.809129215375, 218.3094880949841, 234.8497789919113, -4947.290414248755, -1499.0420936396235, -2204.5302038824802, -4525.714162077208, -3748.9910422552875, -2753.310233749179, -3065.206475878534, -1933.1800261950525, -8081.452021771911, -14902.310359753414, 0.015, -0.101, 0.991, 192.0, 0.0, 0.0, 0.0, 0.0, 0.0, 0.0, 0.0, 0.0, 0.0, 1.645922740764748E9, 0.0, 2022-02-27 11:45:40.764
168.0, -493.3924071064481, -3173.7912504424157, -1729.309765018197, -9209.812785364722, 569.9247801214195, 431.27690926514975, -4855.96118640437, -1366.8315251864822, -2291.567896791446, -4200.540983741401, -3503.6806468582927, -2650.671023210409, -2811.9835629443605, -1740.9773756238671, -7977.29289261018, -14657.04466784533, 0.015, -0.101, 0.991, 192.0, 0.0, 0.0, 0.0, 0.0, 0.0, 0.0, 0.0, 0.0, 0.0, 1.645922740772936E9, 0.0, 2022-02-27 11:45:40.772
170.0, -916.4662261565002, -3499.5008706451504, -2027.4596843075378, -9580.739984600543, 172.89074336180013, 170.96849333864373, -5043.671136340039, -1643.5461215431835, -3413.8489858924136, -4824.802854633672, -3689.0213118816987, -2816.3645048576004, -2978.2358382029342, -1939.7737908093682, -8251.63820405462, -15303.993559359737, 0.015, -0.101, 0.991, 192.0, 0.0, 0.0, 0.0, 0.0, 0.0, 0.0, 0.0, 0.0, 0.0, 1.645922740786988E9, 0.0, 2022-02-27 11:45:40.786
172.0, -656.3589759300919, -3294.9824088790906, -1816.4368649049838, -9331.361571712681, 431.56748194306874, 373.1176701924408, -4854.240102081311, -1364.7975164410493, -1632.4820080378067, -4153.1329337516945, -3616.579308102049, -2661.869247182518, -2938.472084816943, -1797.6613995625257, -7926.822653630096, -14539.720361199423, 0.015, -0.101, 0.991, 192.0, 0.0, 0.0, 0.0, 0.0, 0.0, 0.0, 0.0, 0.0, 0.0, 1.645922740794488E9, 0.0, 2022-02-27 11:45:40.794
174.0, -647.5970921036115, -3295.809423423937, -1864.0013771058773, -9366.632624463156, 407.7405223537114, 305.86127112642185, -4991.7033304814495, -1554.6979373333381, -3318.3399818348867, -4561.700470650252, -3529.4969117041724, -2737.775771352741, -2814.50931006781, -1799.650704819048, -8157.649118620053, -15089.41681258879, 0.0135, -0.1015, 0.9915, 192.0, 0.0, 48.0, 126.0, 104.0, 15.5, 0.0, 0.0, 0.0, 0.0, 1.64592274080253E9, 0.0, 2022-02-27 11:45:40.802
176.0, -877.9988739489168, -3461.212332393209, -1979.0011023284321, -9524.704161251087, 211.1345781248305, 230.64765103431358, -4957.438106231464, -1512.9448786908245, -2204.6196108603017, -4514.94062124975, -3742.7772572967124, -2757.1770855399473, -3066.234656123478, -1934.3646686511838, -8092.292617832735, -14911.563981957912, 0.0135, -0.1015, 0.9915, 192.0, 0.0, 0.0, 0.0, 0.0, 0.0, 0.0, 0.0, 0.0, 0.0, 1.645922740809164E9, 0.0, 2022-02-27 11:45:40.809
178.0, -486.32925585857106, -3164.62703521574, -1730.0920760741326, -9207.063520796719, 562.5040009622576, 426.7171533962671, -4875.451907569398, -1379.482612548186, -2277.7768704625214, -4174.121221795228, -3500.5290508900944, -2652.3697557890127, -2817.9514787139274, -1736.8423028996353, -7986.948846214873, -14660.285670791349, 0.0135, -0.1015, 0.9915, 192.0, 0.0, 0.0, 0.0, 0.0, 0.0, 0.0, 0.0, 0.0, 0.0, 1.645922740817044E9, 0.0, 2022-02-27 11:45:40.817
180.0, -913.7840168218634, -3492.8847542863796, -2034.746352999968, -9577.789554332443, 153.57883615241482, 179.70802542066878, -5055.875188812636, -1653.1350199145104, -3399.253296763098, -4824.177005788923, -3690.474175271294, -2813.7046472674187, -2982.0579865047916, -1931.7048110610024, -8260.310680903278, -15306.608713461008, 0.0135, -0.1015, 0.9915, 192.0, 0.0, 0.0, 0.0, 0.0, 0.0, 0.0, 0.0, 0.0, 0.0, 1.645922740825236E9, 0.0, 2022-02-27 11:45:40.825
182.0, -643.5961298461116, -3277.1233650593003, -1819.297888195263, -9319.716312851468, 433.13210405494027, 376.8280597720218, -4850.775581690738, -1371.5030397776413, -1621.1049701100553, -4134.7597998094325, -3608.800901031602, -2648.4358487648788, -2936.572186538242, -1801.7294170533917, -7929.99660134275, -14537.261669309339, 0.0135, -0.1015, 0.9915, 192.0, 0.0, 0.0, 0.0, 0.0, 0.0, 0.0, 0.0, 0.0, 0.0, 1.645922740831716E9, 0.0, 2022-02-27 11:45:40.831
184.0, -630.5427110842122, -3277.324530759398, -1860.849781137679, -9357.46840923648, 418.24584224770575, 312.6338496963799, -4997.090100895179, -1559.21298971331, -3314.674295744216, -4553.050345546048, -3522.7243331342142, -2723.4706549013445, -2811.581231544165, -1782.886896477568, -8160.04075527677, -15093.328367868467, 0.01375, -0.10275000000000001, 0.99075, 192.0, 0.0, 56.0, 126.0, 96.0, 15.0, 120.0, 0.0, 0.0, 0.0, 1.645922740838736E9, 0.0, 2022-02-27 11:45:40.838
186.0, -868.0970511552157, -3451.712840999704, -1979.4704889619934, -9526.93933569662, 213.52621478154836, 232.9275289687549, -4954.085344563168, -1518.0187246821793, -2223.9315180696867, -4519.254507929624, -3736.0046787267543, -2748.5493121801987, -3060.2443886094557, -1925.2898604023292, -8092.002045154816, -14928.774825188499, 0.01375, -0.10275000000000001, 0.99075, 192.0, 0.0, 0.0, 0.0, 0.0, 0.0, 0.0, 0.0, 0.0, 0.0, 1.645922740846759E9, 0.0, 2022-02-27 11:45:40.846
188.0, -491.3136948721045, -3168.9409218956143, -1735.1212185765767, -9208.046997552752, 567.0861085755955, 443.9950518602195, -4875.496611058308, -1346.6926034322505, -2255.5592364739464, -4189.432166747113, -3496.6174956104155, -2654.2025988343476, -2811.6482867775308, -1738.921015133979, -7982.00911069025, -14653.490740476936, 0.01375, -0.10275000000000001, 0.99075, 192.0, 0.0, 0.0, 0.0, 0.0, 0.0, 0.0, 0.0, 0.0, 0.0, 1.645922740854876E9, 0.0, 2022-02-27 11:45:40.854
190.0, -913.7393133329527, -3495.030521754089, -2036.4674373230264, -9579.443583422135, 161.7372228786019, 172.13078405031968, -5058.915026058558, -1637.980537173812, -3417.4699684941734, -4816.219784762834, -3688.6860357148694, -2818.376161858578, -2983.086166749736, -1925.8933575026224, -8260.15421869209, -15301.087832580548, 0.01375, -0.10275000000000001, 0.99075, 192.0, 0.0, 0.0, 0.0, 0.0, 0.0, 0.0, 0.0, 0.0, 0.0, 1.64592274086131E9, 0.0, 2022-02-27 11:45:40.861
192.0, -655.4649061518796, -3287.360464019831, -1828.1491789995646, -9326.555946654791, 417.28471723612756, 377.8785917614212, -4833.72120067134, -1347.6537284438286, -1625.3518015565637, -4145.175712725605, -3613.4947673672164, -2654.6943372123646, -2947.9045209770825, -1795.426225116995, -7929.661325175921, -14532.545451229269, 0.01375, -0.10275000000000001, 0.99075, 192.0, 0.0, 0.0, 0.0, 0.0, 0.0, 0.0, 0.0, 0.0, 0.0, 1.645922740869579E9, 0.0, 2022-02-27 11:45:40.869
194.0, -637.6282140765446, -3281.3701965058085, -1866.75064167388, -9355.099124324219, 406.86880431995445, 315.338410775472, -4965.372975513098, -1537.2635766581986, -3315.009571911046, -4559.644110160364, -3532.670859416826, -2732.0090212832715, -2827.182749173969, -1793.3698646271068, -8153.0893627511705, -15078.799733972519, 0.013875, -0.10237500000000001, 0.988375, 192.0, 0.0, 56.0, 126.0, 104.0, 15.0, 104.0, 0.0, 0.0, 0.0, 1.645922740877349E9, 0.0, 2022-02-27 11:45:40.877
196.0, -877.6412460376318, -3454.037422423056, -1985.416052987105, -9524.391236828713, 201.74684545360154, 237.3531743709057, -4949.682050905472, -1505.412340809386, -2253.346413772871, -4532.106760991426, -3744.632452086503, -2752.8184953711625, -3074.951836461048, -1935.0799244737536, -8098.171126624481, -14927.590182732367, 0.013875, -0.10237500000000001, 0.988375, 192.0, 0.0, 0.0, 0.0, 0.0, 0.0, 0.0, 0.0, 0.0, 0.0, 1.645922740884505E9, 0.0, 2022-02-27 11:45:40.884
198.0, -471.7782702181662, -3147.460895474064, -1731.5225877192722, -9203.062558539219, 561.3417102505816, 452.60047347551273, -4868.165238876968, -1381.4495660602531, -2245.545654957969, -4176.624617174222, -3490.2696001851086, -2643.3396510290686, -2817.3256298691786, -1726.6275556835599, -7979.1704391444255, -14647.90280436311, 0.013875, -0.10237500000000001, 0.988375, 192.0, 0.0, 0.0, 0.0, 0.0, 0.0, 0.0, 0.0, 0.0, 0.0, 1.645922740891976E9, 0.0, 2022-02-27 11:45:40.891
200.0, -892.0581212113049, -3476.478573856184, -2030.834797720289, -9576.18022873166, 171.8402113724007, 169.58268518241468, -5039.334897915709, -1645.6918890108932, -3427.640012221338, -4814.342238228588, -3668.8600383830117, -2805.479205307866, -2972.536143366831, -1926.6309650696476, -8252.755791277385, -15313.895382153438, 0.013875, -0.10237500000000001, 0.988375, 192.0, 0.0, 0.0, 0.0, 0.0, 0.0, 0.0, 0.0, 0.0, 0.0, 1.645922740899992E9, 0.0, 2022-02-27 11:45:40.899
202.0, -660.8516765656086, -3293.216621067121, -1836.3522692146623, -9344.236176518938, 416.61416490246836, 367.4179753563375, -4843.421857764943, -1371.41363279982, -1621.2614323212424, -4159.4137739436355, -3611.6172208329704, -2658.6952994698645, -2950.2961576338002, -1817.0627137497324, -7930.242470531759, -14551.678544483013, 0.013875, -0.10237500000000001, 0.988375, 192.0, 0.0, 0.0, 0.0, 0.0, 0.0, 0.0, 0.0, 0.0, 0.0, 1.645922740914044E9, 0.0, 2022-02-27 11:45:40.914
204.0, -625.4912168373129, -3276.609274936828, -1859.3298625147181, -9355.881435380154, 421.66565914936774, 322.66978295681275, -4963.31661502321, -1543.7455825502375, -3279.3361877603757, -4544.579034397488, -3520.3103447330413, -2733.484236417322, -2817.482092080366, -1803.562260098727, -8146.763819070318, -15073.36826006988, 0.0139375, -0.10118750000000001, 0.9881875, 192.0, 0.0, 56.0, 126.0, 112.0, 15.0, 112.0, 0.0, 0.0, 0.0, 1.645922740921711E9, 0.0, 2022-02-27 11:45:40.921
206.0, -898.6295340811652, -3475.808021522525, -1996.7930909148565, -9543.613737060277, 195.37659828383903, 221.93047069674384, -4966.311748780221, -1506.0381896541346, -2305.917716731753, -4562.683947406286, -3747.761696310246, -2774.902018893006, -3072.493144570964, -1956.582302639759, -8104.228449371869, -14950.813645221431, 0.0139375, -0.10118750000000001, 0.9881875, 192.0, 0.0, 0.0, 0.0, 0.0, 0.0, 0.0, 0.0, 0.0, 0.0, 1.64592274092962E9, 0.0, 2022-02-27 11:45:40.929
208.0, -495.3146571296045, -3164.1129450932676, -1738.3622215225962, -9211.53386968778, 559.6429776719782, 440.7540489142, -4840.627889708029, -1351.6993941902392, -2194.7848432999663, -4184.537134711401, -3504.4182544253176, -2660.6846047263866, -2828.0544672077262, -1751.5497507512273, -7970.028575662205, -14627.406254697593, 0.0139375, -0.10118750000000001, 0.9881875, 192.0, 0.0, 0.0, 0.0, 0.0, 0.0, 0.0, 0.0, 0.0, 0.0, 1.645922740936675E9, 0.0, 2022-02-27 11:45:40.936
210.0, -904.6868568285533, -3481.9100477588236, -2037.383858845694, -9583.913932313197, 166.02875781402085, 166.98988282559907, -5045.302813685276, -1646.116572155544, -3428.8246546774694, -4820.556023187163, -3676.526686731182, -2820.0078392038154, -2979.822812059261, -1940.8690262876783, -8254.968613978459, -15304.41824250439, 0.0139375, -0.10118750000000001, 0.9881875, 192.0, 0.0, 0.0, 0.0, 0.0, 0.0, 0.0, 0.0, 0.0, 0.0, 1.645922740944148E9, 0.0, 2022-02-27 11:45:40.944
212.0, -664.6067696341001, -3300.74915894856, -1834.005336046855, -9349.399429488114, 417.6646968918678, 352.7552309936561, -4845.522921743742, -1374.7663944681162, -1603.2906297791756, -4166.879256591708, -3607.2809824086407, -2668.2394943522804, -2947.2563203878785, -1824.8634725646345, -7928.208461786326, -14549.085742126197, 0.0139375, -0.10118750000000001, 0.9881875, 192.0, 0.0, 0.0, 0.0, 0.0, 0.0, 0.0, 0.0, 0.0, 0.0, 1.645922740952344E9, 0.0, 2022-02-27 11:45:40.952
214.0, -632.0626297071731, -3286.5110977305294, -1862.7496794163799, -9364.129229084163, 423.7890748726219, 306.55417520453636, -4974.783059928783, -1552.1945419543435, -3270.5072487005295, -4561.0299183165935, -3520.3326964774965, -2747.16350402397, -2815.090455423648, -1817.6662108500257, -8148.3954964155555, -15079.202065372714, 0.01396875, -0.10359375000000001, 0.98909375, 192.0, 0.0, 56.0, 126.0, 88.0, 15.0, 120.0, 0.0, 0.0, 0.0, 1.645922740960204E9, 0.0, 2022-02-27 11:45:40.960
216.0, -893.3992258786233, -3477.3502918899408, -1997.933029882077, -9548.352306884803, 192.29205754900667, 210.1063978798864, -4965.820010402204, -1527.406457353408, -2282.8507164538764, -4568.294235264568, -3745.9288532649107, -2778.5006497503105, -3070.3250253587994, -1961.1197067641863, -8106.083644161659, -14958.793217991975, 0.01396875, -0.10359375000000001, 0.98909375, 192.0, 0.0, 0.0, 0.0, 0.0, 0.0, 0.0, 0.0, 0.0, 0.0, 1.645922740966273E9, 0.0, 2022-02-27 11:45:40.966
218.0, -486.7092355143113, -3170.147916096201, -1738.138704078043, -9218.798186635755, 561.9005038619642, 423.9455370838091, -4864.745421975305, -1365.2221995857, -2200.1045584803296, -4188.314579524348, -3498.606800866938, -2660.6846047263866, -2819.158472914514, -1763.0832508901658, -7977.784630988197, -14649.08744681924, 0.01396875, -0.10359375000000001, 0.98909375, 192.0, 0.0, 0.0, 0.0, 0.0, 0.0, 0.0, 0.0, 0.0, 0.0, 1.645922740973963E9, 0.0, 2022-02-27 11:45:40.973
220.0, -903.3457521612349, -3498.36093167793, -2032.9582134435432, -9585.836182336352, 174.9694555961437, 155.29992047547347, -5046.219235207944, -1656.7783542607253, -3437.474779781673, -4839.3761920185325, -3671.2293232952743, -2826.243975906846, -2966.992910741915, -1948.423915913572, -8258.164913435568, -15318.812765933606, 0.01396875, -0.10359375000000001, 0.98909375, 192.0, 0.0, 0.0, 0.0, 0.0, 0.0, 0.0, 0.0, 0.0, 0.0, 1.645922740981972E9, 0.0, 2022-02-27 11:45:40.981
222.0, -671.2005342484158, -3306.202984595655, -1838.6544988935589, -9350.964051599985, 416.8153306025661, 361.91944622033196, -4848.830979923127, -1365.579827496985, -1613.058342106145, -4174.6353119177, -3616.624011590959, -2675.168535133426, -2945.6022912981857, -1828.2609377218412, -7931.002429843239, -14556.171245118529, 0.01396875, -0.10359375000000001, 0.98909375, 192.0, 0.0, 0.0, 0.0, 0.0, 0.0, 0.0, 0.0, 0.0, 0.0, 1.645922740989842E9, 0.0, 2022-02-27 11:45:40.989
224.0, -620.4173708459581, -3278.330359259887, -1853.876036867623, -9352.931005112054, 444.3526797715044, 314.10906483043016, -4970.60328371564, -1534.9166434903914, -3258.258492739021, -4549.608176899931, -3524.7806936241027, -2741.4191056989557, -2813.481129822866, -1800.9024025085453, -8146.0485632477485, -15062.393553542322, 0.013984375, -0.10679687500000001, 0.989546875, 192.0, 0.0, 56.0, 126.0, 72.0, 15.0, 120.0, 0.0, 0.0, 0.0, 1.645922740996416E9, 0.0, 2022-02-27 11:45:40.996
226.0, -894.2709439123803, -3477.6632163123154, -1995.0720065917978, -9550.98981273053, 204.89844142179984, 223.51744455307062, -4951.358431739621, -1529.9098527324024, -2327.978888509141, -4585.996816873171, -3747.9852137547987, -2782.613370730087, -3056.757516474428, -1950.7037938480132, -8107.849431973628, -14972.919520487729, 0.013984375, -0.10679687500000001, 0.989546875, 192.0, 0.0, 0.0, 0.0, 0.0, 0.0, 0.0, 0.0, 0.0, 0.0, 1.645922741004543E9, 0.0, 2022-02-27 11:45:41.004
228.0, -479.5343255441577, -3164.783497426927, -1734.6741836874705, -9214.573706933703, 572.0928993335842, 426.15835978488445, -4848.830979923127, -1369.5584380100297, -2147.7791247104556, -4177.7869078858985, -3501.244306712664, -2657.3988982914566, -2814.50931006781, -1748.3310995496631, -7962.652499991954, -14626.556888408291, 0.013984375, -0.10679687500000001, 0.989546875, 192.0, 0.0, 0.0, 0.0, 0.0, 0.0, 0.0, 0.0, 0.0, 0.0, 1.64592274101254E9, 0.0, 2022-02-27 11:45:41.012
230.0, -886.8725164976736, -3473.058756954522, -2026.5656145293256, -9569.005318761507, 178.74690040909059, 175.90822886326657, -5063.340671460709, -1649.7822582462143, -3442.2133496061983, -4816.152729529468, -3659.8075818786124, -2815.671600779486, -2952.978366968437, -1934.9011105181112, -8255.281538400834, -15311.101414096525, 0.013984375, -0.10679687500000001, 0.989546875, 192.0, 0.0, 0.0, 0.0, 0.0, 0.0, 0.0, 0.0, 0.0, 0.0, 1.64592274101958E9, 0.0, 2022-02-27 11:45:41.019
232.0, -673.8156883496868, -3304.7054177171494, -1840.7332111279025, -9348.304194009805, 396.1399669814071, 367.2168096562397, -4854.955357903881, -1362.7188042067057, -1601.8824698784913, -4171.506067693957, -3616.176976701853, -2671.3687385760236, -2944.81998024225, -1823.5447196417715, -7934.735171167275, -14553.220814850429, 0.013984375, -0.10679687500000001, 0.989546875, 192.0, 0.0, 0.0, 0.0, 0.0, 0.0, 0.0, 0.0, 0.0, 0.0, 1.64592274103431E9, 0.0, 2022-02-27 11:45:41.034
234.0, -608.2803736067264, -3266.0816032983785, -1848.9586530874556, -9344.794970130322, 442.27396753716084, 318.6464689548575, -4969.485696492875, -1536.4365621133522, -3232.7775040599713, -4542.276804718591, -3511.995495795667, -2732.9254428059394, -2806.8426617196396, -1799.3601321411293, -8143.008726001826, -15047.149663823804, 0.012, -0.106, 0.988, 192.0, 0.0, 48.0, 126.0, 88.0, 15.0, 112.0, 0.0, 0.0, 0.0, 1.645922741042298E9, 0.0, 2022-02-27 11:45:41.042
236.0, -889.5770775767658, -3469.2142569082093, -1991.0486925898426, -9545.401876616703, 206.86539493386687, 221.8857672078332, -4955.828780630682, -1512.5872507795395, -2299.078082928429, -4572.4740114777105, -3740.430324128905, -2770.029338601749, -3046.498065769442, -1941.3384129212395, -8102.037978415249, -14958.301479613958, 0.012, -0.106, 0.988, 192.0, 0.0, 0.0, 0.0, 0.0, 0.0, 0.0, 0.0, 0.0, 0.0, 1.645922741049141E9, 0.0, 2022-02-27 11:45:41.049
238.0, -484.63052327996775, -3167.756279439483, -1740.016250612289, -9217.792358135266, 570.6847394329, 423.8114266170772, -4861.415012051465, -1356.639129714862, -2161.838371972844, -4179.083309064306, -3503.613591624927, -2661.064584382127, -2807.8261384756734, -1740.2621198012973, -7965.804095960152, -14625.305190718795, 0.012, -0.106, 0.988, 192.0, 0.0, 0.0, 0.0, 0.0, 0.0, 0.0, 0.0, 0.0, 0.0, 1.645922741056789E9, 0.0, 2022-02-27 11:45:41.056
240.0, -889.2641531543915, -3479.1384314463658, -2031.0583151648423, -9578.460106666102, 175.0365108295096, 164.46413570214938, -5045.7051450854715, -1656.9571682163678, -3447.7118787422037, -4823.081770310613, -3662.892122613445, -2823.1147316831034, -2954.6100443136747, -1928.128531948153, -8252.800494766296, -15311.928428641371, 0.012, -0.106, 0.988, 192.0, 0.0, 0.0, 0.0, 0.0, 0.0, 0.0, 0.0, 0.0, 0.0, 1.645922741064837E9, 0.0, 2022-02-27 11:45:41.064
242.0, -658.9517782869075, -3290.9814466215907, -1842.521350684327, -9341.822188117765, 409.59571714350193, 364.2440276436839, -4857.369346305054, -1386.6798742627948, -1588.2255540162987, -4164.487619934991, -3612.399531888906, -2665.1996571063587, -2939.7461342508955, -1815.5427951267716, -7926.979115841284, -14553.243166594884, 0.012, -0.106, 0.988, 192.0, 0.0, 0.0, 0.0, 0.0, 0.0, 0.0, 0.0, 0.0, 0.0, 1.645922741071936E9, 0.0, 2022-02-27 11:45:41.071
244.0, -592.2318210878159, -3245.339184443854, -1850.299757754774, -9331.540385668324, 446.1855228168396, 323.98853587967585, -4980.773327442805, -1532.4132481113968, -3215.5666608293845, -4523.993077754149, -3503.0100945246336, -2724.4988351462885, -2802.84169946214, -1792.5875535711712, -8143.276946935291, -15047.730809179642, 0.01, -0.098, 0.986, 192.0, 0.0, 40.0, 126.0, 120.0, 15.0, 104.0, 0.0, 0.0, 0.0, 1.645922741079445E9, 0.0, 2022-02-27 11:45:41.079
246.0, -883.8103275072966, -3460.608835292916, -1997.7542159264347, -9541.713838781578, 201.79154894251215, 240.97415697266544, -4953.638309674062, -1516.2529368702099, -2335.109094990384, -4565.164991040825, -3739.0668677171316, -2765.5142862217767, -3060.8478857097493, -1935.3704971516727, -8113.616182043098, -14969.25383439706, 0.01, -0.098, 0.986, 192.0, 0.0, 0.0, 0.0, 0.0, 0.0, 0.0, 0.0, 0.0, 0.0, 1.645922741086557E9, 0.0, 2022-02-27 11:45:41.086
248.0, -474.92986618636445, -3154.792267655405, -1739.300994789719, -9212.651456910546, 573.1434313229837, 432.1933307878174, -4851.9378724024145, -1360.7965541835492, -2128.1989965676066, -4164.554675168357, -3496.93042003279, -2646.9606336308284, -2816.5209670687877, -1738.0492971002218, -7959.880883679496, -14617.70559760399, 0.01, -0.098, 0.986, 192.0, 0.0, 0.0, 0.0, 0.0, 0.0, 0.0, 0.0, 0.0, 0.0, 1.645922741094486E9, 0.0, 2022-02-27 11:45:41.094
250.0, -874.1543739026039, -3459.290082370053, -2027.0797046517976, -9565.764315815488, 190.41451101476088, 182.63610394431402, -5049.124961987133, -1641.4897610532953, -3456.607873035416, -4810.698903882373, -3653.280872497663, -2806.730902997363, -2951.279634389834, -1911.52118581786, -8252.711087788473, -15307.972169872783, 0.01, -0.098, 0.986, 192.0, 0.0, 0.0, 0.0, 0.0, 0.0, 0.0, 0.0, 0.0, 0.0, 1.645922741101478E9, 0.0, 2022-02-27 11:45:41.101
252.0, -661.8128015771869, -3292.4790135000962, -1851.3055862552628, -9352.908653367598, 392.83190880202164, 358.70079501876774, -4856.72114571585, -1377.515659036119, -1597.3227140096087, -4165.024061801918, -3621.921375026867, -2662.4056890494453, -2951.4360966010213, -1798.913097252023, -7933.28230777768, -14558.764047475344, 0.01, -0.098, 0.986, 192.0, 0.0, 0.0, 0.0, 0.0, 0.0, 0.0, 0.0, 0.0, 0.0, 1.64592274110902E9, 0.0, 2022-02-27 11:45:41.109
254.0, -581.6370942160004, -3238.8571785518147, -1851.9314351000114, -9329.528728667347, 442.4527814928033, 326.15665509184066, -4983.902571666547, -1531.9438614778355, -3184.3412738253205, -4497.260391385602, -3503.859460813935, -2716.809835053663, -2806.3062198527123, -1769.0288149152775, -8143.008726001826, -15032.799843883497, 0.016, -0.10200000000000001, 0.988, 192.0, 0.0, 64.0, 126.0, 104.0, 15.0, 112.0, 0.0, 0.0, 0.0, 1.645922741117166E9, 0.0, 2022-02-27 11:45:41.117
0.0, -869.4605075669895, -3447.1083816419105, -2001.5316607393816, -9542.809074259887, 193.7225691941463, 219.13650263983044, -4969.84332440416, -1532.1897306668438, -2328.5153303760685, -4557.945377581761, -3731.8025507691564, -2761.4015652420003, -3055.170542618101, -1929.4025813821056, -8124.188557170458, -14977.635738567798, 0.016, -0.10200000000000001, 0.988, 192.0, 0.0, 0.0, 0.0, 0.0, 0.0, 0.0, 0.0, 0.0, 0.0, 1.645922741125104E9, 0.0, 2022-02-27 11:45:41.125
2.0, -467.08440388255167, -3151.0595263313685, -1742.363183780096, -9213.389064477571, 566.6837771754, 434.67437442235644, -4848.406296778477, -1371.8383159444709, -2104.9755340785428, -4152.127105251206, -3493.577658364494, -2644.971328374306, -2812.2964873667347, -1732.9530993644119, -7965.222950604314, -14617.99617028191, 0.016, -0.10200000000000001, 0.988, 192.0, 0.0, 0.0, 0.0, 0.0, 0.0, 0.0, 0.0, 0.0, 0.0, 1.645922741131663E9, 0.0, 2022-02-27 11:45:41.131
4.0, -861.6821004965426, -3452.070468910989, -2030.5665767868254, -9566.725440827066, 178.29986551998445, 170.74497589409066, -5058.892674314103, -1668.1553921884768, -3450.125867143377, -4809.424854448421, -3650.419849207384, -2805.5015570523215, -2946.921044221049, -1907.7884444938238, -8261.20475068149, -15313.56010598661, 0.016, -0.10200000000000001, 0.988, 192.0, 0.0, 0.0, 0.0, 0.0, 0.0, 0.0, 0.0, 0.0, 0.0, 1.645922741139822E9, 0.0, 2022-02-27 11:45:41.139
6.0, -647.9100165259858, -3277.5033447150404, -1848.265749009341, -9352.506321967403, 388.272152933139, 359.6172165414353, -4875.58601803613, -1378.8791154478927, -1584.5151644367177, -4162.408907700647, -3609.5161568541716, -2655.2084273348364, -2949.379736111133, -1805.7974345442576, -7943.720572438308, -14561.848588210178, 0.016, -0.10200000000000001, 0.988, 192.0, 0.0, 0.0, 0.0, 0.0, 0.0, 0.0, 0.0, 0.0, 0.0, 1.645922741148261E9, 0.0, 2022-02-27 11:45:41.148
8.0, -565.1191550635284, -3227.7036580686163, -1842.2307780064082, -9327.874699577655, 453.8968746539205, 336.5725680080138, -4966.334100524677, -1523.249032884721, -3153.495866476997, -4494.086443672949, -3493.130623475388, -2712.7194658183416, -2793.006931901805, -1771.040471916255, -8137.867824777106, -15031.481090960633, 0.016, -0.10400000000000001, 0.984, 192.0, 0.0, 64.0, 126.0, 96.0, 15.0, 96.0, 0.0, 0.0, 0.0, 1.645922741161348E9, 0.0, 2022-02-27 11:45:41.161
10.0, -862.0173766633721, -3449.120038642888, -2000.4587770055268, -9550.118094696772, 198.0364558740206, 227.02666843255383, -4946.396344470542, -1525.953593963813, -2352.8340283434427, -4574.552723712054, -3725.9016902329554, -2767.280074033746, -3046.6768797250843, -1932.0177354833766, -8119.494690834844, -14992.410241652757, 0.016, -0.10400000000000001, 0.984, 192.0, 0.0, 0.0, 0.0, 0.0, 0.0, 0.0, 0.0, 0.0, 0.0, 1.645922741169496E9, 0.0, 2022-02-27 11:45:41.169
12.0, -457.07082236657413, -3140.107171548268, -1733.4224859979734, -9210.170413276008, 569.2542277877603, 444.3526797715044, -4831.150750058979, -1344.032745842069, -2070.9114755286546, -4140.928881279097, -3483.385262892874, -2637.483493981778, -2804.741597740841, -1734.9424046209342, -7953.778857443197, -14606.105042231686, 0.016, -0.10400000000000001, 0.984, 192.0, 0.0, 0.0, 0.0, 0.0, 0.0, 0.0, 0.0, 0.0, 0.0, 1.645922741177299E9, 0.0, 2022-02-27 11:45:41.177
14.0, -849.3215858127578, -3442.3027565840193, -2020.9776784154988, -9557.98590874504, 194.9295633947329, 187.0393976020095, -5046.152179974578, -1653.984386203812, -3441.900425183824, -4798.718368854328, -3642.619090392481, -2796.516155781288, -2934.5605295372643, -1911.9682207069661, -8252.688736044018, -15311.012007118703, 0.016, -0.10400000000000001, 0.984, 192.0, 0.0, 0.0, 0.0, 0.0, 0.0, 0.0, 0.0, 0.0, 0.0, 1.645922741183927E9, 0.0, 2022-02-27 11:45:41.183
16.0, -645.0489932357066, -3276.229295281088, -1843.3483652291734, -9347.61128993169, 407.0029147866863, 372.24595215868385, -4860.476238784342, -1372.5312200225856, -1579.7989463566478, -4156.686861120089, -3608.9797149872443, -2643.6972789403535, -2947.0998581766917, -1811.1395014690759, -7945.709877694831, -14565.067239411741, 0.016, -0.10400000000000001, 0.984, 192.0, 0.0, 0.0, 0.0, 0.0, 0.0, 0.0, 0.0, 0.0, 0.0, 1.64592274119211E9, 0.0, 2022-02-27 11:45:41.192
18.0, -558.6818526604001, -3224.5073586115077, -1832.2618999793413, -9319.179870984539, 461.0717846240741, 345.02152741211984, -4966.6917284359615, -1521.8855764729474, -3137.8049418693713, -4489.034949426049, -3488.6826263287817, -2706.125701204026, -2791.576420256665, -1773.7450329953472, -8136.012629987315, -15023.412111212268, 0.014, -0.106, 0.988, 192.0, 0.0, 56.0, 126.0, 88.0, 15.0, 112.0, 0.0, 0.0, 0.0, 1.645922741200056E9, 0.0, 2022-02-27 11:45:41.200
20.0, -860.7880307183303, -3446.3707740748855, -1995.0496548473425, -9544.776027771954, 194.6166389723586, 220.03057241804274, -4952.565425940207, -1540.9963179822348, -2360.232455758149, -4581.258247048646, -3724.8511582435563, -2762.675614675953, -3042.474751767487, -1941.3831164101503, -8126.580193827176, -14998.646378355788, 0.014, -0.106, 0.988, 192.0, 0.0, 0.0, 0.0, 0.0, 0.0, 0.0, 0.0, 0.0, 0.0, 1.645922741207172E9, 0.0, 2022-02-27 11:45:41.207
22.0, -452.73458394224457, -3134.42982845662, -1730.4497039854175, -9204.493070184359, 565.5661899526347, 447.34781352851553, -4828.222671535334, -1364.0599088740241, -2065.927036515121, -4140.303032434348, -3479.83133552448, -2633.2143107908146, -2805.5909640301425, -1731.3437737636298, -7958.584482501088, -14609.256638199884, 0.014, -0.106, 0.988, 192.0, 0.0, 0.0, 0.0, 0.0, 0.0, 0.0, 0.0, 0.0, 0.0, 1.645922741213583E9, 0.0, 2022-02-27 11:45:41.213
24.0, -838.7045071964869, -3434.6808117247597, -2013.9815824009875, -9552.442676120125, 194.75074943909044, 190.861545903867, -5053.975290533936, -1645.311909355153, -3441.5875007614495, -4790.828203061606, -3630.303279197607, -2791.710530723397, -2927.6091370116637, -1903.8545374696896, -8256.600291323697, -15312.21900131929, 0.014, -0.106, 0.988, 192.0, 0.0, 0.0, 0.0, 0.0, 0.0, 0.0, 0.0, 0.0, 0.0, 1.645922741221717E9, 0.0, 2022-02-27 11:45:41.221
26.0, -651.12866772755, -3282.197211050655, -1839.682679138503, -9343.207996273995, 405.57240314154666, 362.3441293649828, -4855.447096281898, -1382.6565602608396, -1575.3956526989523, -4153.959948296541, -3602.9447439843116, -2643.7196306848086, -2937.622718527641, -1807.6079258451375, -7943.027668360194, -14565.760143489855, 0.014, -0.106, 0.988, 192.0, 0.0, 0.0, 0.0, 0.0, 0.0, 0.0, 0.0, 0.0, 0.0, 1.64592274122966E9, 0.0, 2022-02-27 11:45:41.229
28.0, -554.747945636266, -3223.166253944189, -1823.231795219397, -9304.628885344135, 475.68982549784494, 353.4257833273153, -4954.107696307623, -1531.2733091441762, -3129.9371278211033, -4483.469365056678, -3489.3755304068964, -2702.9517534913725, -2778.701815450408, -1767.9782829258781, -8126.937821738461, -15018.11474777636, 0.012, -0.106, 0.99, 192.0, 0.0, 48.0, 126.0, 88.0, 15.0, 120.0, 0.0, 0.0, 0.0, 1.645922741236811E9, 0.0, 2022-02-27 11:45:41.236
30.0, -874.8919814696291, -3460.027689937078, -2003.0515793623424, -9541.84794924831, 193.16377558276363, 226.02083993206503, -4959.159190554523, -1520.767989250182, -2413.340200583959, -4599.989008902194, -3730.304983890651, -2764.2625885322796, -3043.41352503461, -1931.9059767611, -8130.849377018139, -15011.610390139866, 0.012, -0.106, 0.99, 192.0, 0.0, 0.0, 0.0, 0.0, 0.0, 0.0, 0.0, 0.0, 0.0, 1.645922741244431E9, 0.0, 2022-02-27 11:45:41.244
32.0, -457.11552585548475, -3137.626127913729, -1730.3602970075963, -9200.335645715671, 576.295027291182, 464.6033602480126, -4835.1517123164795, -1337.707202161217, -2035.2380913779846, -4133.8210265423095, -3489.0179024956115, -2631.135598556471, -2808.966077442894, -1723.8559393711018, -7952.795380687164, -14593.968044992453, 0.012, -0.106, 0.99, 192.0, 0.0, 0.0, 0.0, 0.0, 0.0, 0.0, 0.0, 0.0, 0.0, 1.645922741252335E9, 0.0, 2022-02-27 11:45:41.252
34.0, -839.0397833633165, -3438.190035604243, -2009.9582683990322, -9549.849873763309, 212.87801419234447, 183.8654498893559, -5042.66530783955, -1652.1738949029323, -3452.763372989103, -4788.99536001627, -3627.5540146296044, -2789.5647632556875, -2917.4837967734097, -1893.32686583124, -8250.788837765318, -15306.407547760911, 0.012, -0.106, 0.99, 192.0, 0.0, 0.0, 0.0, 0.0, 0.0, 0.0, 0.0, 0.0, 0.0, 1.645922741260298E9, 0.0, 2022-02-27 11:45:41.260
36.0, -651.7321648278433, -3278.844449382359, -1840.2414727498858, -9346.605461431202, 408.7687025986556, 377.09628070548547, -4849.725049701339, -1376.8898101913703, -1573.2722369756982, -4155.569273897323, -3601.558935828082, -2642.289119039669, -2932.280651602823, -1802.6905420649698, -7937.707953179831, -14569.179960391517, 0.012, -0.106, 0.99, 192.0, 0.0, 0.0, 0.0, 0.0, 0.0, 0.0, 0.0, 0.0, 0.0, 1.645922741266888E9, 0.0, 2022-02-27 11:45:41.266
38.0, -545.4943234317689, -3207.9894194590356, -1819.1190742396207, -9298.54921085229, 475.4886597977471, 366.61331255594644, -4947.916263093503, -1509.6815240003496, -3104.2326216975002, -4465.297396814513, -3482.379434392385, -2697.8555557555624, -2769.962283368383, -1754.4554775304173, -8116.70072277793, -15003.20613422467, 0.012, -0.108, 0.992, 192.0, 0.0, 48.0, 126.0, 80.0, 15.5, 0.0, 0.0, 0.0, 0.0, 1.645922741281938E9, 0.0, 2022-02-27 11:45:41.281
40.0, -862.4644115524783, -3441.6322042503602, -2001.933992139577, -9534.628335789244, 200.38338904182783, 227.07137192146445, -4954.890007363559, -1529.7757422656707, -2394.9894183861516, -4585.862706406439, -3721.207823897341, -2760.5969024416095, -3034.5398824858526, -1923.8146452682788, -8127.22839441638, -15009.218753483148, 0.012, -0.108, 0.992, 192.0, 0.0, 0.0, 0.0, 0.0, 0.0, 0.0, 0.0, 0.0, 0.0, 1.645922741289024E9, 0.0, 2022-02-27 11:45:41.289
42.0, -459.14953460091766, -3131.077066788324, -1735.3223842766745, -9193.428956678981, 574.5292394792127, 459.9989008902194, -4833.542386715697, -1343.2504347861332, -2040.6248617917136, -4129.931823007086, -3483.8770012708906, -2627.6710781658985, -2800.7182837388855, -1715.0046485668004, -7952.124828353504, -14591.55405659128, 0.012, -0.108, 0.992, 192.0, 0.0, 0.0, 0.0, 0.0, 0.0, 0.0, 0.0, 0.0, 0.0, 1.645922741296637E9, 0.0, 2022-02-27 11:45:41.296
44.0, -844.9182921550623, -3434.256128580109, -2014.898003923655, -9541.982059715041, 211.82748220294502, 197.05297911798706, -5028.0919704546895, -1638.986365674301, -3467.806097007525, -4790.358816428044, -3632.158473987398, -2788.2907138217347, -2919.7413229633958, -1885.1237756161424, -8252.487570343921, -15304.060614593103, 0.012, -0.108, 0.992, 192.0, 0.0, 0.0, 0.0, 0.0, 0.0, 0.0, 0.0, 0.0, 0.0, 1.645922741304433E9, 0.0, 2022-02-27 11:45:41.304
46.0, -663.645644622522, -3285.393510507764, -1849.0927635541873, -9348.371249243171, 397.1010919929853, 361.24889388667276, -4853.77071544775, -1371.3242258219989, -1585.4986411927512, -4169.203838015061, -3613.695933067314, -2649.732249943286, -2945.110552920169, -1801.5058996088387, -7936.679772934887, -14567.347117346182, 0.011, -0.11, 0.992, 192.0, 0.0, 40.0, 126.0, 64.0, 15.5, 0.0, 0.0, 0.0, 0.0, 1.645922741312512E9, 0.0, 2022-02-27 11:45:41.312
48.0, -547.5283321772018, -3207.609439803295, -1819.499053895361, -9291.396652626592, 474.28166559716055, 360.4442310862817, -4949.011498571814, -1506.44052105433, -3098.465871628031, -4457.474286255156, -3484.8604780269243, -2694.5922010650875, -2777.9418561389275, -1752.8014484407245, -8117.125405922581, -14997.059404499461, 0.011, -0.11, 0.992, 192.0, 0.0, 0.0, 0.0, 0.0, 0.0, 0.0, 0.0, 0.0, 0.0, 1.645922741319265E9, 0.0, 2022-02-27 11:45:41.319
50.0, -874.9813884474503, -3449.2765008540755, -2005.934954397077, -9537.176434657149, 186.9946941130989, 229.5077120670929, -4974.64894946205, -1544.997280239735, -2458.7812970615983, -4602.268886836635, -3723.085370431587, -2760.574550697154, -3036.372725531188, -1926.2062819249968, -8136.191443942958, -15029.78235838203, 0.011, -0.11, 0.992, 192.0, 0.0, 0.0, 0.0, 0.0, 0.0, 0.0, 0.0, 0.0, 0.0, 1.645922741327218E9, 0.0, 2022-02-27 11:45:41.327
52.0, -464.5139532701914, -3133.9604418230588, -1738.0269453557667, -9195.239447979862, 558.3465764935704, 452.4887147532362, -4833.7435524157945, -1344.9938708536472, -2006.002009630443, -4116.453721100535, -3490.1354897183764, -2624.653592664432, -2811.4024175885224, -1713.7082473883925, -7949.1743980854035, -14581.495771586391, 0.011, -0.11, 0.992, 192.0, 0.0, 0.0, 0.0, 0.0, 0.0, 0.0, 0.0, 0.0, 0.0, 1.645922741334079E9, 0.0, 2022-02-27 11:45:41.334
54.0, -833.2953850383026, -3426.5224249985727, -2012.7969399448564, -9533.6001555443, 213.6826769927355, 200.51749950855967, -5032.9646507459465, -1636.2371011062983, -3485.0392919825667, -4780.702862823351, -3627.3528489295068, -2789.6318184890533, -2915.7180089614403, -1880.5193162583491, -8249.112456931169, -15308.866239650994, 0.011, -0.11, 0.992, 192.0, 0.0, 0.0, 0.0, 0.0, 0.0, 0.0, 0.0, 0.0, 0.0, 1.645922741342248E9, 0.0, 2022-02-27 11:45:41.342
56.0, -676.8555255956085, -3296.122347846311, -1864.9177986285447, -9360.932929627053, 375.6657690603458, 361.6512252868683, -4861.124439373546, -1375.995740413158, -1613.4159700174298, -4189.566277213845, -3626.0340960066437, -2657.2424360802697, -2959.415669371566, -1810.9606875134334, -7947.363906784524, -14588.60362632318, 0.0115, -0.108, 0.989, 192.0, 0.0, 48.0, 126.0, 88.0, 15.0, 104.0, 0.0, 0.0, 0.0, 1.645922741348917E9, 0.0, 2022-02-27 11:45:41.348
58.0, -560.9617305948414, -3220.595803331829, -1824.237623719886, -9296.716367806956, 472.89585744093154, 362.3441293649828, -4937.969736810892, -1505.0547128981011, -3068.045147424358, -4449.114733828871, -3483.362911148419, -2695.4639190988446, -2780.445251517922, -1749.2698728167861, -8109.861088974606, -14982.910750259252, 0.0115, -0.108, 0.989, 192.0, 0.0, 0.0, 0.0, 0.0, 0.0, 0.0, 0.0, 0.0, 0.0, 1.645922741356771E9, 0.0, 2022-02-27 11:45:41.356
60.0, -894.4050543791121, -3467.9178557298014, -2014.8309486902892, -9543.434923104634, 178.41162424226098, 222.7574852415902, -4983.790812944271, -1530.7815707661596, -2464.6821575977992, -4615.72463699873, -3737.7704665387237, -2771.9515886249055, -3053.874141439693, -1937.9185960195775, -8135.677353820486, -15028.597715925898, 0.0115, -0.108, 0.989, 192.0, 0.0, 0.0, 0.0, 0.0, 0.0, 0.0, 0.0, 0.0, 0.0, 1.645922741364787E9, 0.0, 2022-02-27 11:45:41.364
62.0, -476.8744679539762, -3143.4822849610196, -1739.368050023085, -9202.034378294275, 562.4145939844364, 459.14953460091766, -4833.497683226787, -1346.4467342432422, -2027.1914633740741, -4128.501311361946, -3499.634981111882, -2631.5379299566666, -2818.286754880757, -1716.8374916121354, -7947.989755629273, -14586.435507111015, 0.0115, -0.108, 0.989, 192.0, 0.0, 0.0, 0.0, 0.0, 0.0, 0.0, 0.0, 0.0, 0.0, 1.645922741371823E9, 0.0, 2022-02-27 11:45:41.371
64.0, -837.2516438068919, -3428.668192466282, -2010.517062010415, -9540.752713769998, 210.97811591364336, 203.892612921311, -5040.430133394019, -1651.212769891354, -3484.726367560192, -4784.055624491647, -3629.0292297636547, -2791.8222894456735, -2917.372038051133, -1888.7894617068127, -8244.128017917636, -15311.593152474541, 0.0115, -0.108, 0.989, 192.0, 0.0, 0.0, 0.0, 0.0, 0.0, 0.0, 0.0, 0.0, 0.0, 1.645922741379514E9, 0.0, 2022-02-27 11:45:41.379
66.0, -670.3735197035694, -3291.4284815106967, -1854.680699668014, -9354.8085516463, 387.7580628106669, 374.1011469484743, -4854.396564292499, -1359.7460221941499, -1594.5510976971505, -4186.012349845451, -3615.8193487905683, -2654.8955029124622, -2942.2942331188005, -1805.7527310553469, -7935.875110134496, -14578.902969229577, 0.012750000000000001, -0.107, 0.9875, 192.0, 0.0, 56.0, 126.0, 88.0, 15.0, 104.0, 0.0, 0.0, 0.0, 1.645922741387348E9, 0.0, 2022-02-27 11:45:41.387
68.0, -558.4806869603023, -3219.0758847088678, -1820.7060480959474, -9289.854382259176, 475.19808711982813, 372.51417309214753, -4921.4965011473305, -1484.5805149770397, -3080.2268481525, -4462.4140217797785, -3492.504774630639, -2703.10821570256, -2782.859239919095, -1746.0065181263112, -8105.010760427805, -14973.34420363238, 0.012750000000000001, -0.107, 0.9875, 192.0, 0.0, 0.0, 0.0, 0.0, 0.0, 0.0, 0.0, 0.0, 0.0, 1.645922741395502E9, 0.0, 2022-02-27 11:45:41.395
70.0, -880.8151937502854, -3459.5359515590612, -2012.126387611197, -9539.389257358225, 174.18714454020795, 223.53979629752592, -4982.405004788042, -1581.8553068465362, -2487.883268342408, -4624.799445247584, -3729.4109141124386, -2767.861219389584, -3046.4757140249867, -1930.587223838237, -8139.052467233238, -15040.488843976122, 0.012750000000000001, -0.107, 0.9875, 192.0, 0.0, 0.0, 0.0, 0.0, 0.0, 0.0, 0.0, 0.0, 0.0, 1.645922741409135E9, 0.0, 2022-02-27 11:45:41.409
72.0, -481.6130377785013, -3154.3452327662985, -1746.9005879045235, -9200.693273626957, 561.6769864174112, 461.85409568000983, -4840.516130985753, -1325.4584461997088, -1995.1167100807083, -4126.333192149781, -3495.8128328100247, -2631.157950300926, -2815.9845252018604, -1718.4244654684624, -7945.821636417108, -14581.249902397383, 0.012750000000000001, -0.107, 0.9875, 192.0, 0.0, 0.0, 0.0, 0.0, 0.0, 0.0, 0.0, 0.0, 0.0, 1.645922741417016E9, 0.0, 2022-02-27 11:45:41.417
74.0, -845.7229549554534, -3439.151160615821, -2018.3625243142278, -9539.210443402582, 215.8507962049003, 208.36296181237245, -5045.772200318837, -1633.4878365382954, -3495.9692950212116, -4794.76211008574, -3629.632726863948, -2795.4209203029777, -2914.0192763828372, -1885.5931622497037, -8243.144541161602, -15300.417280246887, 0.012750000000000001, -0.107, 0.9875, 192.0, 0.0, 0.0, 0.0, 0.0, 0.0, 0.0, 0.0, 0.0, 0.0, 1.64592274142417E9, 0.0, 2022-02-27 11:45:41.424
76.0, -686.2209065223822, -3308.75108346356, -1865.744813173391, -9367.571397730278, 391.31199017906073, 359.885437474899, -4836.626927450529, -1360.6624437168175, -1601.3907315004744, -4197.3893877732025, -3625.9446890288223, -2665.937264673384, -2949.4467913444987, -1811.6982950804586, -7934.958688611829, -14581.048736697287, 0.014375, -0.1065, 0.98875, 192.0, 0.0, 64.0, 126.0, 88.0, 15.0, 120.0, 0.0, 0.0, 0.0, 1.645922741431819E9, 0.0, 2022-02-27 11:45:41.431
78.0, -552.9598060798414, -3220.193471931633, -1818.6943910949697, -9296.157574195573, 500.09793044304024, 365.38396661090457, -4925.229242471367, -1484.4017010213972, -3054.6117490067186, -4459.97768163415, -3488.3026466730416, -2706.103349459571, -2775.2372950598356, -1755.5954164976379, -8098.104071391114, -14974.10416294386, 0.014375, -0.1065, 0.98875, 192.0, 0.0, 0.0, 0.0, 0.0, 0.0, 0.0, 0.0, 0.0, 0.0, 1.64592274143965E9, 0.0, 2022-02-27 11:45:41.439
80.0, -897.6460573251317, -3480.0772047134883, -2013.6910097230686, -9557.494170367023, 190.4815662481268, 223.51744455307062, -4983.991978644369, -1533.3743731229752, -2500.266134770648, -4638.3446023875, -3731.0425914576763, -2783.261571319291, -3038.920824399093, -1941.3831164101503, -8137.487845121365, -15044.445102744712, 0.014375, -0.1065, 0.98875, 192.0, 0.0, 0.0, 0.0, 0.0, 0.0, 0.0, 0.0, 0.0, 0.0, 1.645922741447775E9, 0.0, 2022-02-27 11:45:41.447
82.0, -492.87831698397605, -3165.275235804944, -1743.659584958504, -9212.852622610644, 560.7605648947435, 460.89297066843164, -4832.268337281745, -1323.8044171100162, -1998.5365269823703, -4128.456607873036, -3499.389111922874, -2638.6010812045433, -2818.4655688363996, -1730.2485382853197, -7941.083066592582, -14577.36069886216, 0.014375, -0.1065, 0.98875, 192.0, 0.0, 0.0, 0.0, 0.0, 0.0, 0.0, 0.0, 0.0, 0.0, 1.645922741454755E9, 0.0, 2022-02-27 11:45:41.454
84.0, -848.2710538233583, -3442.258053095109, -2015.3450388127612, -9543.546681826912, 210.7545984690903, 202.506804765082, -5032.338801901198, -1632.9290429269129, -3499.187946222776, -4799.254810721256, -3627.24109020723, -2795.867955192084, -2911.515881003843, -1887.3142465727624, -8242.898671972594, -15301.26664653619, 0.014375, -0.1065, 0.98875, 192.0, 0.0, 0.0, 0.0, 0.0, 0.0, 0.0, 0.0, 0.0, 0.0, 1.645922741461535E9, 0.0, 2022-02-27 11:45:41.461
86.0, -698.1567380615161, -3317.915298690236, -1867.912932385556, -9377.38381354616, 372.3353591365051, 358.36551885193813, -4848.585110734119, -1365.870400174904, -1614.7794264292033, -4212.029780391429, -3635.399476933417, -2671.7263664873085, -2961.4496781169987, -1823.6788301085032, -7940.390162514468, -14586.949597233486, 0.0161875, -0.10525000000000001, 0.988375, 192.0, 0.0, 72.0, 126.0, 96.0, 15.0, 112.0, 0.0, 0.0, 0.0, 1.64592274146954E9, 0.0, 2022-02-27 11:45:41.469
88.0, -543.4156111974253, -3207.7659020144824, -1807.8761467786012, -9287.038062457808, 491.2689913831939, 368.0885276899967, -4933.633498386562, -1472.6893869268165, -3034.919862141593, -4445.493751227111, -3486.6262658388932, -2701.2753726572246, -2775.3267020376566, -1754.4778292748726, -8098.171126624481, -14963.643546538777, 0.0161875, -0.10525000000000001, 0.988375, 192.0, 0.0, 0.0, 0.0, 0.0, 0.0, 0.0, 0.0, 0.0, 0.0, 1.645922741477555E9, 0.0, 2022-02-27 11:45:41.477
90.0, -891.119347944182, -3470.2424371531533, -2011.5452422553592, -9555.951899999607, 202.8644326763669, 235.05094469200907, -4967.228170302888, -1541.0410214711455, -2533.3020130755917, -4640.065686710559, -3725.1864344103856, -2770.856353146595, -3030.8741963951825, -1931.6377558276363, -8140.460627133922, -15060.136027352337, 0.0161875, -0.10525000000000001, 0.988375, 192.0, 0.0, 0.0, 0.0, 0.0, 0.0, 0.0, 0.0, 0.0, 0.0, 1.645922741484542E9, 0.0, 2022-02-27 11:45:41.484
92.0, -487.78211924816605, -3157.72034617905, -1743.0560878582107, -9208.337570230671, 570.8859051329977, 464.08927012554057, -4826.501587212275, -1320.1834345082564, -1958.0575177738092, -4127.093151461262, -3495.7234258322032, -2628.7886653886635, -2808.384932087056, -1713.015343310278, -7936.679772934887, -14570.588120292203, 0.0161875, -0.10525000000000001, 0.988375, 192.0, 0.0, 0.0, 0.0, 0.0, 0.0, 0.0, 0.0, 0.0, 0.0, 1.645922741492111E9, 0.0, 2022-02-27 11:45:41.492
94.0, -837.765733929364, -3435.552529758517, -2009.9135649101217, -9529.487434564524, 232.54754931301468, 206.55247051149257, -5040.81011304976, -1628.6375079914937, -3500.618457867916, -4788.637732104985, -3621.7202093267692, -2789.9447429114275, -2898.149537819569, -1865.007205606366, -8244.083314428724, -15296.59513194503, 0.0161875, -0.10525000000000001, 0.988375, 192.0, 0.0, 0.0, 0.0, 0.0, 0.0, 0.0, 0.0, 0.0, 0.0, 1.645922741500026E9, 0.0, 2022-02-27 11:45:41.500
96.0, -706.8962701435412, -3328.5547290509617, -1875.6466359670922, -9379.976615902975, 366.00981545565315, 351.0564984150527, -4856.117648615557, -1373.1570688673341, -1625.6423742344828, -4222.557452029879, -3638.5734246460706, -2672.3522153320573, -2954.990023969415, -1810.7371700688805, -7946.849816662052, -14603.713405574967, 0.01509375, -0.106625, 0.9881875, 192.0, 0.0, 56.0, 126.0, 80.0, 15.0, 112.0, 0.0, 0.0, 0.0, 1.64592274150715E9, 0.0, 2022-02-27 11:45:41.507
98.0, -548.7576781222436, -3218.5394428419404, -1814.134635226087, -9288.51327759186, 499.76265427621064, 374.52583009312514, -4928.582004139663, -1472.1082415709784, -3002.5098326813977, -4437.4694749676555, -3487.967370506212, -2704.762244792252, -2766.386004255534, -1748.018175127289, -8091.93498992145, -14953.495854556068, 0.01509375, -0.106625, 0.9881875, 192.0, 0.0, 0.0, 0.0, 0.0, 0.0, 0.0, 0.0, 0.0, 0.0, 1.645922741514711E9, 0.0, 2022-02-27 11:45:41.514
100.0, -903.6586765836092, -3481.9100477588236, -2017.7590272139344, -9560.824580290864, 196.71770295115746, 220.8575869628891, -4964.8141819017155, -1539.5434545926398, -2534.5090072761786, -4647.911149014371, -3735.9376234933884, -2783.842716675129, -3030.6059754617186, -1917.7796742653459, -8141.4664556344105, -15056.559748239488, 0.01509375, -0.106625, 0.9881875, 192.0, 0.0, 0.0, 0.0, 0.0, 0.0, 0.0, 0.0, 0.0, 0.0, 1.645922741529785E9, 0.0, 2022-02-27 11:45:41.529
102.0, -499.76265427621064, -3170.81846842986, -1755.8412856866464, -9216.406549979038, 561.3193585061263, 444.41973500487035, -4831.57543320363, -1336.2319870271667, -1951.0167182703876, -4132.457570130536, -3508.3968649383623, -2638.422267248901, -2811.2683071217907, -1714.0882270441327, -7933.885804877974, -14568.330594102215, 0.01509375, -0.106625, 0.9881875, 192.0, 0.0, 0.0, 0.0, 0.0, 0.0, 0.0, 0.0, 0.0, 0.0, 1.645922741536332E9, 0.0, 2022-02-27 11:45:41.536
104.0, -840.6714607085539, -3438.7264774711703, -2013.0875126227752, -9537.422303846157, 224.053886419998, 214.62145025985842, -5043.917005529047, -1652.7103367698596, -3514.5212429191165, -4786.961351270837, -3624.625936105959, -2794.035112146749, -2900.451767498466, -1870.2822172978185, -8251.213520909969, -15299.322044768578, 0.01509375, -0.106625, 0.9881875, 192.0, 0.0, 0.0, 0.0, 0.0, 0.0, 0.0, 0.0, 0.0, 0.0, 1.645922741544482E9, 0.0, 2022-02-27 11:45:41.544
106.0, -704.1470055755384, -3326.476016816618, -1872.8750196546341, -9385.944531672541, 375.8222312715329, 357.8514287294661, -4860.297424828699, -1375.191077612767, -1603.9611821128349, -4208.028818133929, -3634.9747937887664, -2667.4348315518896, -2948.4633145884654, -1800.6341815750816, -7945.2404910612695, -14600.092422973208, 0.012546874999999999, -0.1083125, 0.98909375, 192.0, 0.0, 40.0, 126.0, 72.0, 15.0, 120.0, 0.0, 0.0, 0.0, 1.645922741552347E9, 0.0, 2022-02-27 11:45:41.552
108.0, -540.3087187181376, -3208.324695625865, -1807.9208502675117, -9286.54632407979, 507.0493229686407, 374.19055392629554, -4924.759855837805, -1462.966378088758, -2997.3912832011324, -4430.898062097795, -3479.9877977356673, -2697.1850034219033, -2767.6824054339418, -1741.4691140018838, -8095.511269034299, -14951.90888069974, 0.012546874999999999, -0.1083125, 0.98909375, 192.0, 0.0, 0.0, 0.0, 0.0, 0.0, 0.0, 0.0, 0.0, 0.0, 1.645922741559354E9, 0.0, 2022-02-27 11:45:41.559
110.0, -899.8588800262071, -3471.382376120374, -2011.165262599619, -9561.65159483571, 196.8518134178893, 218.80122647300084, -4968.569274970207, -1535.8107132686036, -2558.939463965829, -4641.451494866788, -3724.5829373100923, -2774.410280514989, -3021.2182427904895, -1920.9312702335442, -8139.745371311352, -15069.322594323468, 0.012546874999999999, -0.1083125, 0.98909375, 192.0, 0.0, 0.0, 0.0, 0.0, 0.0, 0.0, 0.0, 0.0, 0.0, 1.645922741567009E9, 0.0, 2022-02-27 11:45:41.567
112.0, -493.3030001286269, -3162.2130468145665, -1745.0677448591882, -9212.226773765895, 574.7080534348552, 451.52758974165795, -4823.2382325218005, -1336.5449114495411, -1925.8039505248012, -4117.0348664563735, -3494.3599694204295, -2628.1181130550044, -2806.4850338083547, -1714.8705381000684, -7926.040342574161, -14567.369469090638, 0.012546874999999999, -0.1083125, 0.98909375, 192.0, 0.0, 0.0, 0.0, 0.0, 0.0, 0.0, 0.0, 0.0, 0.0, 1.645922741574892E9, 0.0, 2022-02-27 11:45:41.574
114.0, -839.0844868522271, -3434.837273935947, -2007.097245108753, -9527.296963607903, 230.7370580121348, 213.19093861471876, -5039.133732215611, -1631.9008626819686, -3510.6320393838932, -4777.908894766438, -3610.3208196545625, -2786.0108358872935, -2898.3507035196667, -1870.6398452091034, -8243.502169072886, -15298.02564359017, 0.012546874999999999, -0.1083125, 0.98909375, 192.0, 0.0, 0.0, 0.0, 0.0, 0.0, 0.0, 0.0, 0.0, 0.0, 1.645922741581786E9, 0.0, 2022-02-27 11:45:41.581
116.0, -703.2752875417814, -3322.296240603476, -1871.109231842665, -9376.66855772359, 376.40337662737096, 356.1079926619521, -4869.729860988839, -1388.6021242859513, -1610.2643740492315, -4207.872355922742, -3636.2935467116295, -2663.679738483398, -2955.0570792027806, -1804.3222194102073, -7945.262842805725, -14600.27123692885, 0.01, -0.108, 0.984, 192.0, 0.0, 40.0, 126.0, 80.0, 15.0, 96.0, 0.0, 0.0, 0.0, 1.645922741588874E9, 0.0, 2022-02-27 11:45:41.588
118.0, -526.9870790227747, -3202.334428111843, -1801.818824031213, -9274.521085562836, 509.97740149228594, 382.9300860083206, -4933.678201875473, -1462.0052530771798, -2979.1522597256017, -4410.557974643466, -3473.7293092881814, -2683.9527707043617, -2768.7552891677965, -1735.7023639324148, -8094.237219600346, -14942.901127684252, 0.01, -0.108, 0.984, 192.0, 0.0, 0.0, 0.0, 0.0, 0.0, 0.0, 0.0, 0.0, 0.0, 1.64592274159665E9, 0.0, 2022-02-27 11:45:41.596
120.0, -895.3661793906903, -3472.6564255543267, -2013.3110300673284, -9556.600100588812, 192.7614441825681, 233.2851568800398, -4969.977434870892, -1531.9662132222907, -2568.1707344258707, -4644.848960023995, -3721.654858786447, -2765.156658310492, -3026.247385292934, -1913.5328428188377, -8148.551958626743, -15066.819198944475, 0.01, -0.108, 0.984, 192.0, 0.0, 0.0, 0.0, 0.0, 0.0, 0.0, 0.0, 0.0, 0.0, 1.645922741604574E9, 0.0, 2022-02-27 11:45:41.604
122.0, -484.4964128132359, -3157.6309392012286, -1744.9336343924565, -9213.366712733115, 570.2600562882491, 452.8686944089764, -4829.742590158295, -1328.7888561235495, -1917.9808399654437, -4104.629648283679, -3495.83518455448, -2620.451464706834, -2809.279001865268, -1707.0697792851663, -7930.756560654231, -14560.373373076127, 0.01, -0.108, 0.984, 192.0, 0.0, 0.0, 0.0, 0.0, 0.0, 0.0, 0.0, 0.0, 0.0, 1.645922741612695E9, 0.0, 2022-02-27 11:45:41.612
124.0, -813.7152568954536, -3413.2454887921203, -1998.2012508155408, -9521.50786179398, 251.09949721091954, 226.6243370323583, -5037.457351381463, -1634.4936650387842, -3507.569850393516, -4766.08482194958, -3603.3470753845068, -2780.1546788400033, -2888.9182673595274, -1863.911970128056, -8247.436076097021, -15295.097565066526, 0.01, -0.108, 0.984, 192.0, 0.0, 0.0, 0.0, 0.0, 0.0, 0.0, 0.0, 0.0, 0.0, 1.645922741619218E9, 0.0, 2022-02-27 11:45:41.619
126.0, -696.9720956053849, -3314.4954817885737, -1872.4503365099833, -9385.09516538324, 372.983559725709, 358.9243124633208, -4871.495648800808, -1397.2075459012444, -1618.087484608589, -4208.788777445409, -3632.829026321057, -2656.169552346415, -2954.1630094245684, -1814.1569869705424, -7953.063601620627, -14618.577315637747, 0.01, -0.108, 0.988, 192.0, 0.0, 40.0, 126.0, 80.0, 15.0, 112.0, 0.0, 0.0, 0.0, 1.645922741627237E9, 0.0, 2022-02-27 11:45:41.627
128.0, -507.6081165800234, -3180.6308842457397, -1789.7935855142578, -9267.100306403674, 501.5731455770905, 391.2672866901501, -4946.753972381827, -1480.020759108157, -2943.769448252851, -4395.157622713759, -3467.44846909624, -2676.5319915451996, -2760.3063297636904, -1734.0706865871773, -8086.4588125299, -14933.759264202032, 0.01, -0.108, 0.988, 192.0, 0.0, 0.0, 0.0, 0.0, 0.0, 0.0, 0.0, 0.0, 0.0, 1.645922741635123E9, 0.0, 2022-02-27 11:45:41.635
130.0, -882.3351123732463, -3463.089878927455, -2010.673524221602, -9558.030612233952, 179.8197841429453, 226.69139226572423, -4982.539115254774, -1560.6435013584498, -2592.0200457596834, -4638.590471576509, -3712.0659604151206, -2764.5308094657435, -3018.334867755755, -1917.489101587427, -8152.128237739592, -15082.353661340912, 0.01, -0.108, 0.988, 192.0, 0.0, 0.0, 0.0, 0.0, 0.0, 0.0, 0.0, 0.0, 0.0, 1.645922741641685E9, 0.0, 2022-02-27 11:45:41.641
132.0, -476.11450864249576, -3155.1945990556, -1736.663488943993, -9215.512480200825, 563.6215881850229, 452.1757903308619, -4835.665802438951, -1346.290272032055, -1879.9828743914218, -4097.432386569069, -3493.6223618534045, -2624.9218135978954, -2807.8484902201285, -1713.9541165774008, -7923.760464639719, -14554.003125906363, 0.01, -0.108, 0.988, 192.0, 0.0, 0.0, 0.0, 0.0, 0.0, 0.0, 0.0, 0.0, 0.0, 1.645922741656833E9, 0.0, 2022-02-27 11:45:41.656
134.0, -798.7172363659425, -3410.8538521354026, -1987.1818407990745, -9522.960725183573, 237.57669181545876, 213.70502873719082, -5052.812999822259, -1645.6918890108932, -3485.016940238111, -4751.6232432869965, -3595.278095636141, -2779.417071272978, -2876.7812701202956, -1855.038327579299, -8238.093046914702, -15287.900303351917, 0.01, -0.108, 0.988, 192.0, 0.0, 0.0, 0.0, 0.0, 0.0, 0.0, 0.0, 0.0, 0.0, 1.645922741664812E9, 0.0, 2022-02-27 11:45:41.664
136.0, -684.1198425435832, -3310.136891619789, -1869.365795775151, -9381.965921159497, 372.04478645858603, 352.7775827381114, -4865.751250475794, -1392.580734798996, -1606.88926063648, -4209.079350123328, -3624.961212272789, -2659.1199826145153, -2946.7422302654068, -1817.3309346831961, -7946.71570619532, -14611.737681834422, 0.014, -0.108, 0.984, 192.0, 0.0, 56.0, 126.0, 80.0, 15.0, 96.0, 0.0, 0.0, 0.0, 1.645922741671463E9, 0.0, 2022-02-27 11:45:41.671
138.0, -505.4847008567692, -3181.793174957416, -1785.2338296453752, -9270.251902371872, 515.8335585395764, 384.852336031477, -4934.460512931409, -1473.6281601939393, -2929.53138703482, -4393.436538390701, -3466.2861783845638, -2680.331788102602, -2759.255797774291, -1738.3845732670516, -8084.804783440207, -14928.283086810481, 0.014, -0.108, 0.984, 192.0, 0.0, 0.0, 0.0, 0.0, 0.0, 0.0, 0.0, 0.0, 0.0, 1.645922741679357E9, 0.0, 2022-02-27 11:45:41.679
140.0, -881.4633943394894, -3464.0063004501226, -2006.15847184163, -9565.250225693015, 177.04816783048724, 218.24243286161817, -4988.305865324243, -1576.602646899539, -2605.811072088608, -4652.381497905433, -3712.8035679821455, -2772.935065380939, -3028.9966498609365, -1941.1819507100524, -8157.157380242036, -15092.479001579166, 0.014, -0.108, 0.984, 192.0, 0.0, 0.0, 0.0, 0.0, 0.0, 0.0, 0.0, 0.0, 0.0, 1.645922741687555E9, 0.0, 2022-02-27 11:45:41.687
142.0, -482.19418313433926, -3160.3802037692317, -1739.6809744454592, -9218.932297102487, 551.5963496680677, 450.14178158542893, -4823.417046477442, -1335.0249928265803, -1869.5669614752487, -4097.790014480354, -3492.147146719354, -2623.5136536972113, -2811.8494524776283, -1726.4487417279174, -7927.1579297969265, -14560.060448653752, 0.014, -0.108, 0.984, 192.0, 0.0, 0.0, 0.0, 0.0, 0.0, 0.0, 0.0, 0.0, 0.0, 1.645922741694576E9, 0.0, 2022-02-27 11:45:41.694
144.0, -798.8513468326744, -3408.1045875674, -1986.935971610066, -9515.36113206877, 241.68941279523526, 224.0091829310874, -5038.150255459578, -1621.1273218545107, -3507.1675189933208, -4761.770935269706, -3601.3801218724398, -2788.0448446327264, -2889.47706097091, -1872.8079644212683, -8240.887014971617, -15287.229751018258, 0.014, -0.108, 0.984, 192.0, 0.0, 0.0, 0.0, 0.0, 0.0, 0.0, 0.0, 0.0, 0.0, 1.645922741702088E9, 0.0, 2022-02-27 11:45:41.702
146.0, -700.9954096073401, -3321.804502225459, -1871.13158358712, -9387.687967740056, 349.80480072555554, 366.4121468558487, -4876.34597734761, -1391.7313685096942, -1615.8970136519688, -4213.907326925674, -3636.092381011532, -2658.963520403328, -2957.0687362037584, -1807.5632223562268, -7951.364869042024, -14618.376149937649, 0.014, -0.108, 0.982, 192.0, 0.0, 56.0, 126.0, 80.0, 15.0, 88.0, 0.0, 0.0, 0.0, 1.645922741708987E9, 0.0, 2022-02-27 11:45:41.708
148.0, -506.26701191270496, -3183.044872646913, -1787.8713354911013, -9262.607605768157, 508.9045177584312, 390.5743826120356, -4929.632536129062, -1458.9430640868027, -2912.0076193818595, -4381.612465573843, -3470.4659545977065, -2671.6593112539426, -2768.867047890073, -1732.1484365640208, -8086.168239851981, -14915.363778515313, 0.014, -0.108, 0.982, 192.0, 0.0, 0.0, 0.0, 0.0, 0.0, 0.0, 0.0, 0.0, 0.0, 1.645922741717193E9, 0.0, 2022-02-27 11:45:41.717
150.0, -890.3146851437909, -3469.080146441477, -2010.9864486439765, -9563.79736230342, 168.6439119152918, 212.11805488086404, -4992.910324682036, -1585.6103999150278, -2647.0276888641943, -4658.438820652821, -3715.239908127774, -2770.968111868872, -3023.632231191663, -1924.0158109683766, -8161.515970410821, -15108.684016309264, 0.014, -0.108, 0.982, 192.0, 0.0, 0.0, 0.0, 0.0, 0.0, 0.0, 0.0, 0.0, 0.0, 1.645922741724177E9, 0.0, 2022-02-27 11:45:41.724
152.0, -491.2689913831939, -3167.3092445503767, -1742.854922158113, -9220.496919214358, 551.328128734604, 448.21953156227255, -4850.619119479552, -1334.0191643260914, -1840.3755832166175, -4098.617029025201, -3500.21612646772, -2626.4417322208565, -2822.734752027363, -1720.883157358546, -7929.460159475823, -14554.763085217844, 0.014, -0.108, 0.982, 192.0, 0.0, 0.0, 0.0, 0.0, 0.0, 0.0, 0.0, 0.0, 0.0, 1.645922741731769E9, 0.0, 2022-02-27 11:45:41.731
154.0, -811.1001027941827, -3414.698352181715, -1989.349960011239, -9518.535079781423, 237.375526115361, 217.84010146142262, -5049.817866065248, -1642.3614790870524, -3502.965391035723, -4761.145086424957, -3597.669732292859, -2792.090510379137, -2896.3613982631446, -1872.8526679101788, -8246.005564451882, -15288.928483596861, 0.014, -0.108, 0.982, 192.0, 0.0, 0.0, 0.0, 0.0, 0.0, 0.0, 0.0, 0.0, 0.0, 1.645922741739731E9, 0.0, 2022-02-27 11:45:41.739
156.0, -716.5075202593232, -3334.589700053895, -1876.3171883007515, -9393.52177304289, 334.918538918321, 340.4170680543266, -4864.834828953127, -1398.3251331240099, -1618.087484608589, -4223.8091497193755, -3642.1944072478304, -2674.6544450109536, -2965.4729921189537, -1825.6010801316597, -7952.124828353504, -14623.897030818109, 0.01, -0.11, 0.986, 192.0, 0.0, 40.0, 126.0, 72.0, 15.0, 104.0, 0.0, 0.0, 0.0, 1.645922741747763E9, 0.0, 2022-02-27 11:45:41.747
158.0, -518.3816574074814, -3192.4102535736865, -1790.7323587813805, -9264.954538935965, 503.18247117787257, 382.0360162301083, -4926.056257016213, -1492.5824394920396, -2907.5819739797084, -4390.0390732334945, -3480.3007221580415, -2684.7797852492076, -2776.5560479826986, -1747.369974538085, -8081.452021771911, -14919.230630306081, 0.01, -0.11, 0.986, 192.0, 0.0, 0.0, 0.0, 0.0, 0.0, 0.0, 0.0, 0.0, 0.0, 1.645922741754483E9, 0.0, 2022-02-27 11:45:41.754
160.0, -899.7694730483859, -3478.087899456966, -2019.6812772370909, -9566.054888493407, 166.07346130293146, 206.10543562238644, -4984.08138562219, -1574.7251003652932, -2660.5281425151998, -4669.122954502458, -3720.716085519324, -2776.9583793828942, -3030.4495132505317, -1932.0624389722873, -8167.394479202567, -15112.617923333399, 0.01, -0.11, 0.986, 192.0, 0.0, 0.0, 0.0, 0.0, 0.0, 0.0, 0.0, 0.0, 0.0, 1.645922741762313E9, 0.0, 2022-02-27 11:45:41.762
162.0, -496.4545960968252, -3168.069203861857, -1744.5089512478057, -9216.518308701314, 553.9879863247855, 451.48288625274733, -4829.966107602848, -1338.7800858950718, -1846.075278052721, -4102.774453493887, -3501.0431410125666, -2625.23473802027, -2823.8746909945835, -1722.3583724925963, -7924.565127440111, -14547.610526992146, 0.01, -0.11, 0.986, 192.0, 0.0, 0.0, 0.0, 0.0, 0.0, 0.0, 0.0, 0.0, 0.0, 1.645922741776565E9, 0.0, 2022-02-27 11:45:41.776
164.0, -793.0398932742946, -3403.611886931883, -1978.777584883879, -9501.905381906674, 249.55722684350334, 216.92367993875504, -5045.5263311298295, -1646.8318279781138, -3495.5893153654715, -4759.178132912891, -3591.0089124451774, -2779.8417544176286, -2878.8152788657285, -1858.1452200585868, -8234.472064312944, -15286.045108562126, 0.01, -0.11, 0.986, 192.0, 0.0, 0.0, 0.0, 0.0, 0.0, 0.0, 0.0, 0.0, 0.0, 1.645922741784131E9, 0.0, 2022-02-27 11:45:41.784
166.0, -718.5191772603008, -3334.187368653699, -1883.335636059718, -9397.47803181148, 333.7785999511004, 333.73389646218976, -4890.338169376632, -1417.3911711443868, -1647.5023803117729, -4246.898501741708, -3643.3790497039618, -2673.0898228990823, -2966.948207253004, -1834.4300191915058, -7960.953767413351, -14643.27599326086, 0.016, -0.112, 0.986, 192.0, 0.0, 64.0, 126.0, 64.0, 15.0, 104.0, 0.0, 0.0, 0.0, 1.645922741791887E9, 0.0, 2022-02-27 11:45:41.791
168.0, -507.8539857690318, -3180.943808668114, -1785.6808645344813, -9258.07020164373, 516.6382213399675, 391.2225832012395, -4920.490672646842, -1464.061613567068, -2859.99511003436, -4371.91180848024, -3468.677815041282, -2677.806040979152, -2762.4297454869447, -1735.6129569545935, -8071.349033278112, -14902.6679876647, 0.016, -0.112, 0.986, 192.0, 0.0, 0.0, 0.0, 0.0, 0.0, 0.0, 0.0, 0.0, 0.0, 1.645922741799987E9, 0.0, 2022-02-27 11:45:41.799
170.0, -898.9648102479947, -3476.4562221117285, -2023.4140185611272, -9567.12777222726, 169.51562994904876, 205.3678280553613, -4987.210629845933, -1577.6308271444832, -2679.258904368747, -4670.508762658687, -3716.0669226726204, -2777.2713038052684, -3025.3309637702664, -1936.6668983300804, -8165.561636157231, -15118.652894336332, 0.016, -0.112, 0.986, 192.0, 0.0, 0.0, 0.0, 0.0, 0.0, 0.0, 0.0, 0.0, 0.0, 1.645922741806706E9, 0.0, 2022-02-27 11:45:41.806
172.0, -496.4769478412805, -3170.3043783073877, -1749.0687071166883, -9219.424035480504, 546.7683728657214, 448.55480772910215, -4837.141017573002, -1333.1027428034238, -1838.4533331934613, -4098.684084258567, -3503.0771497579995, -2626.3076217541247, -2827.6744875519857, -1727.0522388282109, -7925.258031518225, -14548.169320603529, 0.016, -0.112, 0.986, 192.0, 0.0, 0.0, 0.0, 0.0, 0.0, 0.0, 0.0, 0.0, 0.0, 1.645922741814568E9, 0.0, 2022-02-27 11:45:41.814
174.0, -793.0622450187499, -3400.393235730319, -1984.7007971645353, -9502.531230751423, 245.891540752833, 235.1627034142856, -5044.945185773991, -1645.3342610996083, -3498.8526700559464, -4750.326842108589, -3591.925333967845, -2780.6240654735643, -2872.1097555291362, -1851.260882766352, -8231.856910211673, -15283.049974805115, 0.016, -0.112, 0.986, 192.0, 0.0, 0.0, 0.0, 0.0, 0.0, 0.0, 0.0, 0.0, 0.0, 1.645922741822643E9, 0.0, 2022-02-27 11:45:41.822
176.0, -712.5736132351892, -3329.5382058069954, -1880.943999403, -9389.900790441132, 353.35872809394937, 338.7183354757232, -4871.808573223183, -1406.0141332166354, -1633.6890022383932, -4229.464141066568, -3639.9368810578444, -2671.525200787211, -2964.400108385099, -1818.3144114392296, -7955.656403977443, -14632.480100688947, 0.02, -0.114, 0.99, 192.0, 0.0, 80.0, 126.0, 56.0, 15.0, 120.0, 0.0, 0.0, 0.0, 1.645922741829842E9, 0.0, 2022-02-27 11:45:41.829
178.0, -500.5673170766017, -3176.0264248879466, -1783.7809662557802, -9252.59402425218, 517.1299597179842, 397.25755420417244, -4923.418751170487, -1453.802162862082, -2858.9892815338712, -4366.390927599779, -3465.839143495458, -2679.2142008798364, -2758.4287832294444, -1727.3428115061297, -8063.771791907763, -14898.488211451557, 0.02, -0.114, 0.99, 192.0, 0.0, 0.0, 0.0, 0.0, 0.0, 0.0, 0.0, 0.0, 0.0, 1.645922741836298E9, 0.0, 2022-02-27 11:45:41.836
180.0, -895.343827646235, -3473.5951988214492, -2026.5879662737807, -9564.982004759551, 162.47483044562705, 202.32799080943954, -4996.777176472804, -1577.0943852775558, -2678.5660002906325, -4676.387271450433, -3714.1223209050086, -2780.9146381514834, -3016.4796729659647, -1930.4307616270498, -8165.002842545849, -15116.03774023506, 0.02, -0.114, 0.99, 192.0, 0.0, 0.0, 0.0, 0.0, 0.0, 0.0, 0.0, 0.0, 0.0, 1.645922741844255E9, 0.0, 2022-02-27 11:45:41.844
182.0, -496.9239827303866, -3165.275235804944, -1752.0414891292442, -9218.373503491104, 545.4496199428582, 449.6276914629569, -4840.069096096647, -1335.583786437963, -1833.9159290690338, -4097.499441802435, -3503.3677224359185, -2627.849892121541, -2819.314935125701, -1727.3428115061297, -7923.067560561605, -14540.25680306635, 0.02, -0.114, 0.99, 192.0, 0.0, 0.0, 0.0, 0.0, 0.0, 0.0, 0.0, 0.0, 0.0, 1.645922741852255E9, 0.0, 2022-02-27 11:45:41.852
184.0, -790.4023874285683, -3403.7012939097044, -1982.8679541192002, -9506.107509864272, 256.4862676246485, 237.30847088199508, -5032.249394923377, -1635.0301069057116, -3506.2287457261978, -4742.928414693883, -3592.3500171124956, -2782.479260263355, -2871.6403688955747, -1848.1092867981538, -8236.10374165818, -15273.237558989234, 0.02, -0.114, 0.99, 192.0, 0.0, 0.0, 0.0, 0.0, 0.0, 0.0, 0.0, 0.0, 0.0, 1.645922741859454E9, 0.0, 2022-02-27 11:45:41.859
186.0, -715.5016917588343, -3333.293298875487, -1884.4532232824831, -9401.255476624427, 347.6143297689354, 343.143980877874, -4875.496611058308, -1411.1997379302668, -1644.1272668990216, -4252.88876925573, -3645.4577619383053, -2683.3939770929787, -2963.1931141845125, -1821.3989521740618, -7958.495075523267, -14635.251717001405, 0.016, -0.11, 0.99, 192.0, 0.0, 64.0, 126.0, 72.0, 15.0, 120.0, 0.0, 0.0, 0.0, 1.645922741867592E9, 0.0, 2022-02-27 11:45:41.867
188.0, -495.56052631861286, -3174.014767886969, -1781.1658121545092, -9255.097419631174, 537.134771005484, 404.3654089409601, -4909.672428330473, -1465.1792007898332, -2839.1409324575584, -4367.977901456106, -3466.6661580403043, -2687.909029472951, -2754.4054692274894, -1727.2757562727638, -8063.704736674397, -14892.81086835991, 0.016, -0.11, 0.99, 192.0, 0.0, 0.0, 0.0, 0.0, 0.0, 0.0, 0.0, 0.0, 0.0, 1.645922741874955E9, 0.0, 2022-02-27 11:45:41.874
190.0, -895.5002898574221, -3477.6632163123154, -2028.2419953634735, -9571.709879840599, 172.4213567282387, 220.8575869628891, -4977.353510541143, -1566.857286317025, -2714.3287914191237, -4696.012103082193, -3720.201995396852, -2794.973885413872, -3019.6089171897074, -1935.258738429396, -8169.830819348195, -15128.66647585231, 0.016, -0.11, 0.99, 192.0, 0.0, 0.0, 0.0, 0.0, 0.0, 0.0, 0.0, 0.0, 0.0, 1.645922741882162E9, 0.0, 2022-02-27 11:45:41.882
192.0, -490.1961076493392, -3160.335500280321, -1748.8675414165905, -9225.59311695017, 548.8917885889755, 468.85019169452096, -4835.2411192943, -1335.963766093703, -1815.3639811711291, -4096.292447601849, -3503.278315458097, -2630.9567846008285, -2817.9738304583825, -1730.2485382853197, -7917.881955847974, -14537.596945476169, 0.016, -0.11, 0.99, 192.0, 0.0, 0.0, 0.0, 0.0, 0.0, 0.0, 0.0, 0.0, 0.0, 1.645922741889626E9, 0.0, 2022-02-27 11:45:41.889
194.0, -777.9077622780517, -3390.647875147805, -1978.6434744171472, -9500.050187116884, 256.7097850692016, 235.02859294755376, -5047.158008475067, -1640.7968569751808, -3496.1928124657647, -4738.994507669748, -3580.2577233621746, -2780.601713729109, -2856.0164995213154, -1850.5456269437823, -8228.526500287831, -15274.891588078928, 0.016, -0.11, 0.99, 192.0, 0.0, 64.0, 126.0, 72.0, 15.0, 120.0, 0.0, 0.0, 0.0, 1.645922741904599E9, 0.0, 2022-02-27 11:45:41.904
196.0, -717.4909970153567, -3335.774342510026, -1890.2646768408629, -9400.897848713143, 344.79800996756677, 340.5288267766031, -4865.684195242428, -1404.9412494827807, -1650.6539762799712, -4246.339708130326, -3644.4072299489058, -2681.29291311418, -2962.2543409173895, -1826.1151702541317, -7960.774953457708, -14637.241022257927, 0.016, -0.11, 0.99, 192.0, 0.0, 0.0, 0.0, 0.0, 0.0, 0.0, 0.0, 0.0, 0.0, 1.645922741912272E9, 0.0, 2022-02-27 11:45:41.912
198.0, -491.0007704497302, -3170.080860862835, -1785.2114779009198, -9246.089666615686, 531.7256488472997, 412.81436834506616, -4908.219564940878, -1455.0091570626685, -2829.6190893195976, -4362.479372320101, -3474.221047666198, -2686.7243870168195, -2757.7805826402405, -1724.5041399603058, -8059.793181394718, -14875.868246062786, 0.016, -0.11, 0.99, 192.0, 0.0, 0.0, 0.0, 0.0, 0.0, 0.0, 0.0, 0.0, 0.0, 1.645922741919279E9, 0.0, 2022-02-27 11:45:41.919
200.0, -892.2592869114027, -3472.2317424096755, -2029.1137133972304, -9567.41834490518, 170.49910670508228, 223.18216838624102, -4985.467193778419, -1571.864077075014, -2729.0138875262605, -4689.775966379162, -3722.7724460092127, -2792.7834144572516, -3011.495233952431, -1920.3501248777063, -8168.936749569983, -15128.04062700756, 0.016, -0.11, 0.99, 192.0, 0.0, 0.0, 0.0, 0.0, 0.0, 0.0, 0.0, 0.0, 0.0, 1.645922741927251E9, 0.0, 2022-02-27 11:45:41.927
202.0, -490.62079079399, -3159.1285060797345, -1753.6731664744816, -9222.955611104442, 551.4175357124252, 463.6422352364344, -4820.466616209343, -1333.3933154813428, -1799.9636292414225, -4084.7589474629103, -3506.854594570946, -2631.6943921678535, -2811.6259350330756, -1708.7685118637696, -7912.584592412066, -14527.985695360387, 0.016, -0.11, 0.99, 192.0, 0.0, 0.0, 0.0, 0.0, 0.0, 0.0, 0.0, 0.0, 0.0, 1.645922741935364E9, 0.0, 2022-02-27 11:45:41.935
204.0, -763.7814597822976, -3378.644988375305, -1978.8893436061555, -9496.07157660384, 262.6777008387686, 239.49894183861517, -5034.149293202078, -1644.9095779549573, -3495.432853154284, -4730.992583154748, -3581.442365818306, -2781.02639687376, -2851.5014471413433, -1835.6146616476371, -8222.379770562622, -15269.504817665198, 0.014, -0.10600000000000001, 0.991, 192.0, 0.0, 48.0, 126.0, 104.0, 15.5, 0.0, 0.0, 0.0, 0.0, 1.645922741941897E9, 0.0, 2022-02-27 11:45:41.941
206.0, -724.7329622188762, -3335.7519907655706, -1896.009075165877, -9409.950305217542, 333.8009516955557, 336.32669881900534, -4884.68317802944, -1416.832377533004, -1657.5383135722059, -4250.9218157436635, -3649.2352067512525, -2680.778822991708, -2961.5614368392753, -1824.3270306977072, -7962.4960377807665, -14652.641374187635, 0.014, -0.10600000000000001, 0.991, 192.0, 0.0, 0.0, 0.0, 0.0, 0.0, 0.0, 0.0, 0.0, 0.0, 1.645922741949838E9, 0.0, 2022-02-27 11:45:41.949
208.0, -495.784043763166, -3170.7961166854047, -1781.2775708767858, -9245.754390448856, 522.5390818761686, 403.851318818488, -4921.720018591884, -1466.475601968241, -2803.802824473718, -4356.556160039444, -3474.310454644019, -2685.7185585163306, -2757.0653268176707, -1727.7004394174148, -8058.362669749578, -14874.929472795662, 0.014, -0.10600000000000001, 0.991, 192.0, 0.0, 0.0, 0.0, 0.0, 0.0, 0.0, 0.0, 0.0, 0.0, 1.645922741956993E9, 0.0, 2022-02-27 11:45:41.956
210.0, -904.3515806617238, -3475.517448844606, -2033.673469266113, -9567.708917583099, 158.540923421493, 203.37852279883896, -5007.662476022539, -1599.7814058996923, -2780.5346584957433, -4706.271553787178, -3725.1640826659304, -2794.5939057581313, -3016.0326380768583, -1926.9215377475666, -8182.19133403198, -15151.062923796526, 0.014, -0.10600000000000001, 0.991, 192.0, 0.0, 0.0, 0.0, 0.0, 0.0, 0.0, 0.0, 0.0, 0.0, 1.645922741966499E9, 0.0, 2022-02-27 11:45:41.966
212.0, -506.0211427236966, -3167.5774654838406, -1757.20474209842, -9222.888555871077, 539.0123175397298, 454.32155779857135, -4836.448113494887, -1342.1104958189126, -1779.6011900426377, -4090.6598079991113, -3516.8458243424684, -2630.219177033803, -2828.3673916301004, -1717.2174712678757, -7917.211403514315, -14530.533794228291, 0.014, -0.10600000000000001, 0.991, 192.0, 0.0, 0.0, 0.0, 0.0, 0.0, 0.0, 0.0, 0.0, 0.0, 1.645922741972492E9, 0.0, 2022-02-27 11:45:41.972
214.0, -770.5540383522557, -3385.641084389816, -1970.1721632685858, -9483.487544475502, 274.50177365562604, 249.7583925436011, -5033.791665290793, -1635.5218452837285, -3493.3317891754855, -4731.12669362148, -3582.761118741169, -2780.7134724513858, -2853.535455886776, -1828.5291586553049, -8220.546927517287, -15260.094733249514, 0.012, -0.10200000000000001, 0.9904999999999999, 192.0, 0.0, 40.0, 126.0, 120.0, 15.0, 120.0, 0.0, 0.0, 0.0, 1.645922741979475E9, 0.0, 2022-02-27 11:45:41.979
216.0, -753.3878986105799, -3368.81022081497, -1901.9322874465333, -9415.471186098002, 326.2013585807513, 342.56283552203604, -4889.734672276339, -1423.3367351694985, -1688.6966453429038, -4278.503868401512, -3658.7794016336684, -2693.765186520241, -2969.3845473986325, -1822.4494841634614, -7966.988738416284, -14662.006755114407, 0.012, -0.10200000000000001, 0.9904999999999999, 192.0, 0.0, 0.0, 0.0, 0.0, 0.0, 0.0, 0.0, 0.0, 0.0, 1.645922741987714E9, 0.0, 2022-02-27 11:45:41.987
218.0, -531.6362418694785, -3208.503509581508, -1779.5117830648164, -9246.313184060238, 530.9880412802746, 418.3576009699823, -4914.92508827747, -1453.7351076287162, -2783.55214399721, -4351.482314048089, -3477.5961610789495, -2688.7583957622523, -2753.5561029381875, -1712.7694741212697, -8049.377268478545, -14856.578690597857, 0.012, -0.10200000000000001, 0.9904999999999999, 192.0, 0.0, 0.0, 0.0, 0.0, 0.0, 0.0, 0.0, 0.0, 0.0, 1.645922741994035E9, 0.0, 2022-02-27 11:45:41.994
220.0, -969.1716395821143, -3552.2286358152196, -2034.6345942776913, -9580.739984600543, 164.44178395769407, 216.119017138364, -4996.844231706171, -1587.5773534270947, -2778.5677049836763, -4716.5757079810755, -3735.423533370916, -2809.279001865268, -3013.9539258425148, -1923.9040522461, -8172.177752516002, -15142.390446947868, 0.012, -0.10200000000000001, 0.9904999999999999, 192.0, 0.0, 0.0, 0.0, 0.0, 0.0, 0.0, 0.0, 0.0, 0.0, 1.645922742002176E9, 0.0, 2022-02-27 11:45:42.002
222.0, -611.6331352750225, -3277.7939173929594, -1762.367995067596, -9236.724285688912, 540.9569193073415, 465.1174503704847, -4830.055514580669, -1336.4108009828092, -1810.424245646506, -4123.807445026332, -3538.1023333194657, -2659.6340727369875, -2823.315897383201, -1723.3418492486298, -7906.974304553784, -14530.757311672845, 0.012, -0.10200000000000001, 0.9904999999999999, 192.0, 0.0, 0.0, 0.0, 0.0, 0.0, 0.0, 0.0, 0.0, 0.0, 1.645922742010125E9, 0.0, 2022-02-27 11:45:42.010
224.0, -918.2320139684695, -3525.8535773579574, -1980.9233523515884, -9494.708120192066, 286.0352737945645, 237.19671215971854, -5035.892729269592, -1638.5393307851948, -3540.315156020541, -4770.890447007471, -3618.836834292035, -2816.2303943908687, -2852.4849238973766, -1834.9664610584332, -8214.646066981086, -15264.02864027365, 0.011, -0.101, 0.99125, 192.0, 0.0, 40.0, 126.0, 112.0, 15.5, 0.0, 0.0, 0.0, 0.0, 1.645922742023742E9, 0.0, 2022-02-27 11:45:42.023
226.0, -920.824816325285, -3533.766094895136, -1911.677648029047, -9421.14852918965, 341.60171051045785, 338.6736319868126, -4890.673445543462, -1412.831415275504, -1729.3544685071074, -4319.0722845878945, -3701.560640521126, -2730.734971849319, -2972.4243846445543, -1831.5466441567714, -7963.121886625516, -14659.682173691055, 0.011, -0.101, 0.99125, 192.0, 0.0, 0.0, 0.0, 0.0, 0.0, 0.0, 0.0, 0.0, 0.0, 1.645922742031799E9, 0.0, 2022-02-27 11:45:42.031
228.0, -693.4628717259017, -3365.0774794909335, -1783.4680418334058, -9245.240300326384, 552.8480473575648, 427.0524295630967, -4925.273945960277, -1449.935311071314, -2829.730848041874, -4394.576477357921, -3523.372533723418, -2726.577547380632, -2758.674652418453, -1718.111541046088, -8046.113913788071, -14848.576766082857, 0.011, -0.101, 0.99125, 192.0, 0.0, 0.0, 0.0, 0.0, 0.0, 0.0, 0.0, 0.0, 0.0, 1.645922742039826E9, 0.0, 2022-02-27 11:45:42.039
230.0, -1116.5143390314984, -3685.020349624199, -2041.2954141253729, -9580.449411922624, 178.32221726443976, 212.52038628105956, -4997.268914850822, -1636.37121157303, -2863.1914094914687, -4761.949749225349, -3771.007510543765, -2838.6938975684525, -3006.2202222609785, -1921.7359330339352, -8175.1058310396475, -15155.153293031848, 0.011, -0.101, 0.99125, 192.0, 0.0, 0.0, 0.0, 0.0, 0.0, 0.0, 0.0, 0.0, 0.0, 1.645922742047012E9, 0.0, 2022-02-27 11:45:42.047
232.0, -721.5366627617673, -3382.064805276967, -1773.946198695445, -9240.92641364651, 550.7022798898554, 467.33027307156004, -4820.153691786968, -1317.7023908737174, -1835.7040686254584, -4141.018288256918, -3572.0322814026217, -2678.5212968017217, -2826.0875136956593, -1723.9900498378338, -7903.554487652122, -14526.465776737426, 0.011, -0.101, 0.99125, 192.0, 0.0, 0.0, 0.0, 0.0, 0.0, 0.0, 0.0, 0.0, 0.0, 1.645922742054403E9, 0.0, 2022-02-27 11:45:42.054
234.0, -970.7809651828964, -3583.409319330373, -1985.4384047315605, -9495.445727759092, 295.6241721658912, 263.6164741058915, -5004.868507965625, -1598.440301232374, -3566.3325865665183, -4785.396729158965, -3632.538453643138, -2834.9164527555054, -2853.4236971644996, -1836.5981384036706, -8211.516822757343, -15246.996610998704, 0.0095, -0.10350000000000001, 0.992625, 192.0, 0.0, 32.0, 126.0, 88.0, 15.5, 8.0, 0.0, 0.0, 0.0, 1.645922742062362E9, 0.0, 2022-02-27 11:45:42.062
236.0, -920.5789471362767, -3527.798179125569, -1911.1412061621197, -9423.607221079734, 332.97393715070933, 352.7775827381114, -4872.814401723672, -1399.4650720912305, -1750.2757013172748, -4327.633002714277, -3706.2545068567406, -2735.317079462657, -2977.654692847096, -1833.1559697575535, -7955.969328399817, -14658.85515914621, 0.0095, -0.10350000000000001, 0.992625, 192.0, 0.0, 0.0, 0.0, 0.0, 0.0, 0.0, 0.0, 0.0, 0.0, 1.64592274207052E9, 0.0, 2022-02-27 11:45:42.070
238.0, -648.2452926928154, -3322.743275492582, -1779.6011900426377, -9240.30056480176, 550.9034455899532, 421.4868451937253, -4907.8172335406825, -1422.062685735546, -2809.1001879096257, -4376.382157371301, -3513.31424871853, -2716.96629726485, -2755.992443083816, -1716.9939538233227, -8036.904995072484, -14839.278440389447, 0.0095, -0.10350000000000001, 0.992625, 192.0, 0.0, 0.0, 0.0, 0.0, 0.0, 0.0, 0.0, 0.0, 0.0, 1.645922742076473E9, 0.0, 2022-02-27 11:45:42.076
240.0, -1047.8050765758844, -3618.9932965032217, -2038.5685013018253, -9574.503847897513, 173.7848131400124, 217.0801421499422, -5006.813109733237, -1582.145879524455, -2859.9504065454494, -4746.169417639901, -3757.4400016593936, -2827.518025340799, -3005.1249867826687, -1921.5347673338376, -8169.607301903642, -15149.788874362574, 0.0095, -0.10350000000000001, 0.992625, 192.0, 0.0, 0.0, 0.0, 0.0, 0.0, 0.0, 0.0, 0.0, 0.0, 1.645922742084028E9, 0.0, 2022-02-27 11:45:42.084
242.0, -641.2939001672149, -3300.704455459649, -1768.0900416481545, -9232.075122842209, 540.5769396516013, 462.88227592495394, -4820.801892376172, -1320.45165544172, -1797.9966757293555, -4110.172880908594, -3546.663051445848, -2655.4319447793896, -2822.645345049542, -1713.0600467991885, -7898.994731783239, -14514.865221365122, 0.0095, -0.10350000000000001, 0.992625, 192.0, 0.0, 0.0, 0.0, 0.0, 0.0, 0.0, 0.0, 0.0, 0.0, 1.645922742092077E9, 0.0, 2022-02-27 11:45:42.092
244.0, -880.4575658390005, -3493.9799897646894, -1977.2129627720074, -9482.481715975013, 296.339427988461, 244.37162212987212, -5011.506976068852, -1620.4791212653067, -3536.9847460967003, -4745.297699606144, -3604.3976073739063, -2801.9476296839275, -2848.573368617698, -1834.5864814026932, -8205.548906987775, -15251.936346523327, 0.00975, -0.10575000000000001, 0.9943124999999999, 192.0, 0.0, 40.0, 126.0, 80.0, 15.5, 16.0, 0.0, 0.0, 0.0, 1.645922742099177E9, 0.0, 2022-02-27 11:45:42.099
246.0, -851.1991323470036, -3456.384355590863, -1919.7689795218682, -9426.691761814567, 336.46080928573724, 335.36557380742715, -4874.043747668713, -1429.7963893170822, -1741.849093657624, -4311.338581006358, -3689.6471607264475, -2715.6922478308975, -2979.5545911257973, -1842.655461151059, -7961.780781958197, -14675.261339576406, 0.00975, -0.10575000000000001, 0.9943124999999999, 192.0, 0.0, 0.0, 0.0, 0.0, 0.0, 0.0, 0.0, 0.0, 0.0, 1.64592274210669E9, 0.0, 2022-02-27 11:45:42.106
248.0, -576.2726755467266, -3247.7531728450267, -1782.3504546106406, -9242.111056102642, 555.8655328590313, 424.6607929063789, -4892.6180473110735, -1442.6486423788838, -2759.456963474389, -4345.3132325784245, -3496.416329910318, -2696.626209810521, -2758.0264518292493, -1714.8034828667026, -8036.2791462277355, -14838.093797933318, 0.00975, -0.10575000000000001, 0.9943124999999999, 192.0, 0.0, 0.0, 0.0, 0.0, 0.0, 0.0, 0.0, 0.0, 0.0, 1.645922742114689E9, 0.0, 2022-02-27 11:45:42.114
250.0, -983.6332182446979, -3558.2636068181523, -2045.7434112719789, -9582.952807301619, 163.54771417948177, 198.01410412956525, -4997.179507873, -1569.7406613517596, -2864.688976369974, -4736.848740202038, -3740.363268895539, -2815.872766479584, -3003.7391786264398, -1925.423970869061, -8170.657833893041, -15162.529368702099, 0.00975, -0.10575000000000001, 0.9943124999999999, 192.0, 0.0, 0.0, 0.0, 0.0, 0.0, 0.0, 0.0, 0.0, 0.0, 1.645922742122667E9, 0.0, 2022-02-27 11:45:42.122
252.0, -582.9111436499529, -3242.9922512760463, -1772.49333530585, -9242.088704358186, 533.4690849148137, 457.11552585548475, -4816.800930118672, -1321.4127804532982, -1768.559428281716, -4102.729750004977, -3541.5445019655826, -2647.0053371197387, -2833.150664943536, -1730.7402766633365, -7899.531173650167, -14516.072215565708, 0.00975, -0.10575000000000001, 0.9943124999999999, 192.0, 0.0, 0.0, 0.0, 0.0, 0.0, 0.0, 0.0, 0.0, 0.0, 1.645922742129383E9, 0.0, 2022-02-27 11:45:42.129
