%OpenBCI Raw EEG Data
%Number of channels = 16
%Sample Rate = 125 Hz
%Board = OpenBCI_GUI$BoardCytonSerialDaisy
Sample Index, EXG Channel 0, EXG Channel 1, EXG Channel 2, EXG Channel 3, EXG Channel 4, EXG Channel 5, EXG Channel 6, EXG Channel 7, EXG Channel 8, EXG Channel 9, EXG Channel 10, EXG Channel 11, EXG Channel 12, EXG Channel 13, EXG Channel 14, EXG Channel 15, Accel Channel 0, Accel Channel 1, Accel Channel 2, Other, Other, Other, Other, Other, Other, Other, Analog Channel 0, Analog Channel 1, Analog Channel 2, Timestamp, Other, Timestamp (Formatted)
0.0, 54.18062855966432, -2437.725953784699, -1977.7941081278454, -8928.426674416862, 280.80496559202265, 947.602206182743, -4487.3585685919015, -1420.7886363015934, 0.0, 0.0, 0.0, 0.0, 0.0, 0.0, 0.0, 0.0, 0.0, 0.0, 0.0, 192.0, 0.0, 0.0, 0.0, 0.0, 0.0, 0.0, 0.0, 0.0, 0.0, 1.645923198396658E9, 0.0, 2022-02-27 11:53:18.396
10.0, -124.52156836051564, -2572.1493449389154, -2085.8647925692553, -9073.645958142992, 119.53712934698217, 897.1096154582043, -4493.773519250574, -1415.513624610141, -1871.2209905649413, -3926.4191897415153, -3561.0128713861554, -2253.078192839407, -2919.1378258631025, -1627.3187550686307, -7445.634298996246, -14651.546138709324, 0.014, -0.1, 0.97, 192.0, 0.0, 56.0, 126.0, 112.0, 15.0, 40.0, 0.0, 0.0, 0.0, 1.645923198396662E9, 0.0, 2022-02-27 11:53:18.396
0.0, -70.899733412234, -1307.2194227241782, -1085.1324898162472, -4557.654804903842, 31.27009049297458, 395.3129524365607, -2312.9361644907194, -768.9447127514736, -1477.2267910512437, -2083.6072663792693, -1759.4399165439509, -1189.6939503781737, -1424.2084532032554, -808.2390795039034, -3815.465130265371, -7490.33778790686, 0.012, -0.10200000000000001, 0.986, 192.0, 0.0, 48.0, 126.0, 104.0, 15.0, 104.0, 0.0, 0.0, 0.0, 1.645923198503139E9, 0.0, 2022-02-27 11:53:18.503
2.0, 108.92005073071131, -2370.4248512297695, -1919.6125173106811, -8868.501647532183, 324.2120533242289, 1053.5494749008983, -4360.937101952684, -1299.1057394869017, -1983.2032302860298, -3897.4513289274373, -3549.6134817139487, -2324.2461471851047, -2925.306907332767, -1641.5121127977507, -7503.39120666876, -14629.350856465204, 0.012, -0.10200000000000001, 0.986, 192.0, 0.0, 0.0, 0.0, 0.0, 0.0, 0.0, 0.0, 0.0, 0.0, 1.645923198510574E9, 0.0, 2022-02-27 11:53:18.510
4.0, -4.7832733134357115, -2493.1582800338606, -2039.6860885245908, -8991.123317613998, 209.59230775741432, 932.537130419866, -4502.289533888046, -1435.898415553381, -1919.9477934775107, -3755.4059929139607, -3420.7333231846483, -2165.9510929526205, -2793.476318535366, -1500.606715751495, -7360.630614832714, -14578.679451785023, 0.012, -0.10200000000000001, 0.986, 192.0, 0.0, 0.0, 0.0, 0.0, 0.0, 0.0, 0.0, 0.0, 0.0, 1.645923198517132E9, 0.0, 2022-02-27 11:53:18.517
6.0, -45.5528551999158, -2519.9356698913184, -2076.7229290870346, -9012.849213224556, 166.00640606956554, 884.7938042633301, -4529.916290034806, -1442.9392150568028, -2138.860778672788, -4006.1925657025063, -3633.633689121448, -2417.0282384190846, -3018.8266061337717, -1741.5808727241604, -7596.016835691552, -14756.979317305007, 0.012, -0.10200000000000001, 0.986, 192.0, 0.0, 0.0, 0.0, 0.0, 0.0, 0.0, 0.0, 0.0, 0.0, 1.645923198525109E9, 0.0, 2022-02-27 11:53:18.525
8.0, 112.09399844336492, -2371.587141941445, -1917.7349707764354, -8870.692118488803, 333.64448948436853, 1036.696259581597, -4393.682407579709, -1329.101780545924, -1832.4407139349837, -3743.581920097103, -3405.24356427712, -2159.4020318272155, -2770.4540217463996, -1489.2296778237437, -7344.783228013901, -14503.599942159646, 0.012, -0.10200000000000001, 0.992, 192.0, 0.0, 48.0, 126.0, 104.0, 15.5, 0.0, 0.0, 0.0, 0.0, 1.645923198533103E9, 0.0, 2022-02-27 11:53:18.533
10.0, -113.68097229969172, -2587.8626212909962, -2141.7888571964336, -9088.42046122795, 99.3758558482952, 824.7123151674647, -4590.62362797542, -1516.7446752482267, -2084.8142605798557, -3927.3803147530934, -3546.953624123767, -2312.824405768443, -2915.6286019836193, -1633.8007609606698, -7495.366930409305, -14716.209735418528, 0.012, -0.10200000000000001, 0.992, 192.0, 0.0, 0.0, 0.0, 0.0, 0.0, 0.0, 0.0, 0.0, 0.0, 1.645923198540523E9, 0.0, 2022-02-27 11:53:18.540
12.0, 111.66931529871408, -2365.2168947716827, -1922.2723749008626, -8867.965205665256, 331.7445912056674, 1046.0839922528257, -4347.034316901483, -1265.0193291925584, -1984.2537622754292, -3900.8934975735547, -3555.089659105499, -2336.204330468694, -2925.6868869885075, -1654.0290896927227, -7500.038445000464, -14625.41694944107, 0.012, -0.10200000000000001, 0.992, 192.0, 0.0, 0.0, 0.0, 0.0, 0.0, 0.0, 0.0, 0.0, 0.0, 1.645923198547728E9, 0.0, 2022-02-27 11:53:18.547
14.0, -2.548098867905005, -2487.30212298657, -2035.193387889074, -8992.866753681512, 217.66128750578017, 916.1980052230365, -4491.247772127124, -1430.8245695620262, -1913.4434358410165, -3764.9948912852874, -3417.8499481499134, -2174.735328523556, -2777.8748009055616, -1493.029474381146, -7350.9746612280205, -14573.60560579367, 0.012, -0.10200000000000001, 0.992, 192.0, 0.0, 0.0, 0.0, 0.0, 0.0, 0.0, 0.0, 0.0, 0.0, 1.645923198555677E9, 0.0, 2022-02-27 11:53:18.555
16.0, -48.99502384603308, -2526.4400275278126, -2076.7229290870346, -9020.87348948401, 170.5214584495376, 896.8860980136512, -4519.478025374177, -1424.1413979698896, -2130.5235779909585, -4024.1857199890283, -3636.6735263673695, -2424.493721067157, -3010.3552949852105, -1737.91518663349, -7586.562047786957, -14755.817026593331, 0.012, -0.10200000000000001, 0.992, 192.0, 0.0, 48.0, 126.0, 104.0, 15.5, 0.0, 0.0, 0.0, 0.0, 1.645923198570827E9, 0.0, 2022-02-27 11:53:18.570
18.0, 116.09496070086489, -2369.083746562451, -1915.3433341197176, -8868.389888809907, 329.4423615267708, 1040.4737043945438, -4405.953515285672, -1305.677152356762, -1833.2453767353747, -3729.433265856894, -3405.288267766031, -2169.3262063653715, -2768.7552891677965, -1496.9186779163692, -7343.106847179753, -14504.717529382413, 0.012, -0.10200000000000001, 0.992, 192.0, 0.0, 0.0, 0.0, 0.0, 0.0, 0.0, 0.0, 0.0, 0.0, 1.645923198577347E9, 0.0, 2022-02-27 11:53:18.577
20.0, -110.55172807594873, -2585.6945020788316, -2140.067772873375, -9084.128926292531, 100.11346341532034, 833.1836263160261, -4599.676084479819, -1521.3938380949305, -2074.1301267302188, -3917.6573059150346, -3540.449266487273, -2308.443463855203, -2908.632505969108, -1635.0971621390775, -7492.371796652294, -14712.409938861125, 0.012, -0.10200000000000001, 0.992, 192.0, 0.0, 0.0, 0.0, 0.0, 0.0, 0.0, 0.0, 0.0, 0.0, 1.645923198585468E9, 0.0, 2022-02-27 11:53:18.585
22.0, 109.56825131991522, -2369.016691329085, -1917.422046354061, -8865.70767947527, 333.39862029536016, 1051.4484109220996, -4360.0430321744725, -1296.4682336411756, -1978.6881779060577, -3912.58345992368, -3553.994423627189, -2335.6455368573115, -2927.0726951447364, -1658.6782525394265, -7504.017055513508, -14632.189528011028, 0.012, -0.10200000000000001, 0.992, 192.0, 0.0, 0.0, 0.0, 0.0, 0.0, 0.0, 0.0, 0.0, 0.0, 1.645923198593981E9, 0.0, 2022-02-27 11:53:18.593
24.0, -10.907651294189847, -2504.915297617352, -2032.1759023876075, -8988.038776879166, 224.16564514227454, 914.3875139221566, -4478.84255395443, -1416.0500664770684, -1918.1149504321756, -3771.499248921782, -3420.9791923736566, -2170.019110443486, -2786.6366847320423, -1507.8263292105592, -7354.126257196219, -14578.187713407007, 0.012, -0.10200000000000001, 0.992, 192.0, 0.0, 0.0, 0.0, 0.0, 0.0, 0.0, 0.0, 0.0, 0.0, 1.645923198600338E9, 0.0, 2022-02-27 11:53:18.600
26.0, -61.288483296451965, -2535.5371875211226, -2076.4770598980263, -9020.895841228466, 166.3863857253058, 890.0688159547825, -4522.5178626201, -1438.222996976733, -2131.2388338135283, -4030.064228780774, -3639.4227909353726, -2425.7677705011097, -3016.658486921607, -1747.72760244937, -7589.087794910407, -14760.242671995482, 0.011, -0.10300000000000001, 0.992, 192.0, 0.0, 40.0, 126.0, 96.0, 15.5, 0.0, 0.0, 0.0, 0.0, 1.645923198608012E9, 0.0, 2022-02-27 11:53:18.608
28.0, 102.28158262748512, -2382.718310680188, -1915.2762788863515, -8870.870932444446, 345.71443149023435, 1035.0869339808148, -4377.924427738718, -1310.3039634590107, -1840.4426384499836, -3749.013393999743, -3406.29409626652, -2167.38160459776, -2769.1799723124473, -1501.2325645962435, -7339.552919811359, -14510.126651540597, 0.011, -0.10300000000000001, 0.992, 192.0, 0.0, 0.0, 0.0, 0.0, 0.0, 0.0, 0.0, 0.0, 0.0, 1.645923198615921E9, 0.0, 2022-02-27 11:53:18.615
30.0, -121.68289681469165, -2601.0501505196276, -2143.8899211752323, -9093.047272330197, 103.60033555034823, 809.8260533602302, -4597.396206545378, -1514.1071694025004, -2088.636408881713, -3918.037285570775, -3550.485199747706, -2318.4570453711804, -2912.342895548689, -1637.2205778623318, -7487.588523338858, -14717.461433108025, 0.011, -0.10300000000000001, 0.992, 192.0, 0.0, 0.0, 0.0, 0.0, 0.0, 0.0, 0.0, 0.0, 0.0, 1.645923198622061E9, 0.0, 2022-02-27 11:53:18.622
32.0, 99.28644887047398, -2385.0875955924507, -1922.004153967399, -8870.178028366332, 327.3189458035166, 1039.4455241495996, -4358.567817040422, -1296.937620274737, -1987.9865035994655, -3928.006163597842, -3561.594016741993, -2344.0944962614176, -2929.9337184350156, -1661.0028339627784, -7504.0617590024185, -14635.609344912691, 0.011, -0.10300000000000001, 0.992, 192.0, 0.0, 0.0, 0.0, 0.0, 0.0, 0.0, 0.0, 0.0, 0.0, 1.64592319862971E9, 0.0, 2022-02-27 11:53:18.629
34.0, -2.3692849122625486, -2488.6432276538885, -2025.8280069623004, -8986.563561745115, 221.5281392965483, 935.5546159213325, -4509.732664791663, -1420.1404357123895, -1921.3783051226503, -3763.2738069622287, -3415.547718471017, -2169.370909854282, -2777.5395247387323, -1495.3540558044979, -7351.846379261778, -14580.311129130261, 0.011, -0.10300000000000001, 0.992, 192.0, 0.0, 0.0, 0.0, 0.0, 0.0, 0.0, 0.0, 0.0, 0.0, 1.64592319863755E9, 0.0, 2022-02-27 11:53:18.637
36.0, -56.90754138321178, -2537.973527666751, -2079.3827866772162, -9021.253469139752, 164.8441153578896, 898.7189410589864, -4530.788008068563, -1431.7633428291492, -2126.455560500093, -4020.452978664992, -3631.510273398194, -2422.012677432618, -3006.1531670276127, -1739.882140145557, -7588.573704787935, -14762.231977252004, 0.0125, -0.10250000000000001, 0.989, 192.0, 0.0, 56.0, 126.0, 104.0, 15.0, 104.0, 0.0, 0.0, 0.0, 1.645923198645706E9, 0.0, 2022-02-27 11:53:18.645
38.0, 108.45066409714987, -2383.724139180677, -1912.3482003627064, -8862.46667652925, 334.40444879584896, 1038.5738061158427, -4372.716471280632, -1295.3729981628655, -1844.2200832629305, -3749.5945393555808, -3403.8577561208913, -2161.1231161502737, -2769.805821157196, -1494.9740761487576, -7342.458646590549, -14512.071253308208, 0.0125, -0.10250000000000001, 0.989, 192.0, 0.0, 0.0, 0.0, 0.0, 0.0, 0.0, 0.0, 0.0, 0.0, 1.645923198652278E9, 0.0, 2022-02-27 11:53:18.652
40.0, -121.41467588122796, -2599.8208045745855, -2141.990022896531, -9090.141545551009, 101.54397506045999, 808.4178934595459, -4590.221296575224, -1520.4997683167182, -2085.12718500223, -3932.074181088708, -3540.8068943985577, -2304.59896380889, -2907.8054914242616, -1636.2594528507536, -7486.694453560645, -14722.177651188094, 0.0125, -0.10250000000000001, 0.989, 192.0, 0.0, 0.0, 0.0, 0.0, 0.0, 0.0, 0.0, 0.0, 0.0, 1.645923198660243E9, 0.0, 2022-02-27 11:53:18.660
42.0, 103.1756524056974, -2370.4919064631354, -1921.1771394225527, -8865.238292841708, 332.1245708614076, 1044.2511492074907, -4360.95945369714, -1268.2379803941228, -1983.9855413419655, -3899.8206138397, -3553.726202693725, -2342.015784027074, -2922.4235322980326, -1655.727822271326, -7505.447567158648, -14642.381923482648, 0.0125, -0.10250000000000001, 0.989, 192.0, 0.0, 0.0, 0.0, 0.0, 0.0, 0.0, 0.0, 0.0, 0.0, 1.645923198668208E9, 0.0, 2022-02-27 11:53:18.668
44.0, -14.349819940307134, -2506.6363819404105, -2033.0252686769093, -8984.753070444236, 215.60492701589192, 919.7966360803409, -4499.003827453116, -1414.8877757653925, -1922.741761534424, -3760.368080183039, -3408.0375323340336, -2163.4029940847154, -2769.0458618457155, -1513.8389484690367, -7351.9134344951435, -14581.853399497677, 0.0125, -0.10250000000000001, 0.989, 192.0, 0.0, 0.0, 0.0, 0.0, 0.0, 0.0, 0.0, 0.0, 0.0, 1.64592319867557E9, 0.0, 2022-02-27 11:53:18.675
46.0, -78.40991954921718, -2561.6663767893765, -2082.735548345512, -9026.014390708731, 169.22505727112977, 896.506118357911, -4529.692772590252, -1433.1044474964676, -2126.7237814335563, -4036.2333102504385, -3634.080724010554, -2425.9018809678414, -3004.7673588713837, -1733.7801139092583, -7590.004216433074, -14765.115352286739, 0.013250000000000001, -0.10325000000000001, 0.9884999999999999, 192.0, 0.0, 56.0, 126.0, 96.0, 15.0, 112.0, 0.0, 0.0, 0.0, 1.645923198690113E9, 0.0, 2022-02-27 11:53:18.690
48.0, 76.13004161477586, -2413.071979650495, -1914.8515957417007, -8865.28299633062, 355.57155079502473, 1060.299701726401, -4383.713529552642, -1297.8987452863153, -1857.6311299361146, -3763.6314348735136, -3412.1502533138105, -2179.4962500925362, -2758.317024507168, -1486.7933376781152, -7342.257480890451, -14514.06055856473, 0.013250000000000001, -0.10325000000000001, 0.9884999999999999, 192.0, 0.0, 0.0, 0.0, 0.0, 0.0, 0.0, 0.0, 0.0, 0.0, 1.645923198697884E9, 0.0, 2022-02-27 11:53:18.697
50.0, -175.05886257396492, -2667.1219071295154, -2150.4389823006372, -9094.298970019696, 104.29323962846276, 824.0641145782608, -4611.187232874302, -1493.8117854370817, -2101.734531132523, -3950.8496464311656, -3553.793257927091, -2319.3511151493926, -2902.150500077069, -1628.1457696134771, -7491.5000786185365, -14719.607200575734, 0.013250000000000001, -0.10325000000000001, 0.9884999999999999, 192.0, 0.0, 0.0, 0.0, 0.0, 0.0, 0.0, 0.0, 0.0, 0.0, 1.645923198705122E9, 0.0, 2022-02-27 11:53:18.705
52.0, 18.95427929810039, -2468.325491944014, -1930.9448517495218, -8869.28395858812, 332.23632958368415, 1060.1655912596693, -4346.989613412573, -1258.2243988781452, -2019.0777801367976, -3953.263634832339, -3582.3587873409733, -2362.981720326152, -2943.769448252851, -1675.4197091364515, -7515.662314374723, -14636.793987368821, 0.013250000000000001, -0.10325000000000001, 0.9884999999999999, 192.0, 0.0, 0.0, 0.0, 0.0, 0.0, 0.0, 0.0, 0.0, 0.0, 1.645923198712412E9, 0.0, 2022-02-27 11:53:18.712
54.0, -134.84807429886752, -2620.9879065737614, -2042.1894839035851, -8995.057224638133, 216.94603168321035, 927.0386012838604, -4482.910571445295, -1406.5282233391076, -1970.9991778134322, -3815.822758176656, -3442.5486257730277, -2196.8412037898547, -2782.6804259634528, -1497.8127476945815, -7352.494579850982, -14581.585178564213, 0.013250000000000001, -0.10325000000000001, 0.9884999999999999, 192.0, 0.0, 0.0, 0.0, 0.0, 0.0, 0.0, 0.0, 0.0, 0.0, 1.645923198720613E9, 0.0, 2022-02-27 11:53:18.720
56.0, -235.76620051457888, -2712.898279773984, -2095.0066560514756, -9046.801513052167, 173.94127535119955, 880.7704902613748, -4507.27397290158, -1413.6360780758953, -2184.6595030617123, -4079.8862671716533, -3680.438242010861, -2470.3818524339026, -3019.2512892784225, -1762.0997741341323, -7587.545524542991, -14764.176579019617, 0.014625, -0.104625, 0.98825, 192.0, 0.0, 64.0, 126.0, 88.0, 15.0, 112.0, 0.0, 0.0, 0.0, 1.645923198727721E9, 0.0, 2022-02-27 11:53:18.727
58.0, -108.11538793032027, -2593.2717434491806, -1916.840900998223, -8879.342243593008, 367.0826991895079, 1055.6058353907868, -4336.618403985311, -1272.328349629444, -1913.845767241212, -3815.2192610763627, -3458.4630678252065, -2223.3503727138486, -2765.804858899696, -1523.7631230071931, -7342.995088457476, -14517.413320233027, 0.014625, -0.104625, 0.98825, 192.0, 0.0, 0.0, 0.0, 0.0, 0.0, 0.0, 0.0, 0.0, 0.0, 1.645923198735235E9, 0.0, 2022-02-27 11:53:18.735
60.0, -400.3197431945495, -2866.5888746486753, -2157.122153892774, -9107.598257970603, 113.39039962177273, 831.5295972263333, -4567.578979441998, -1480.95953237528, -2177.350482624827, -4004.4714813794476, -3616.4899011242273, -2378.918514122786, -2903.536308233298, -1624.0106968892453, -7474.937435977154, -14713.549877828345, 0.014625, -0.104625, 0.98825, 192.0, 0.0, 0.0, 0.0, 0.0, 0.0, 0.0, 0.0, 0.0, 0.0, 1.645923198742162E9, 0.0, 2022-02-27 11:53:18.742
62.0, -183.66428418925813, -2658.2706163252137, -1934.1411512066306, -8883.812592484068, 341.7134692327344, 1061.529047671443, -4355.840904216874, -1254.8045819764832, -2089.8881065712103, -4004.9632197574642, -3647.201198005819, -2427.95824145773, -2929.3302213347224, -1658.4547350948735, -7507.6380381152685, -14637.643353658123, 0.014625, -0.104625, 0.98825, 192.0, 0.0, 0.0, 0.0, 0.0, 0.0, 0.0, 0.0, 0.0, 0.0, 1.645923198750304E9, 0.0, 2022-02-27 11:53:18.750
64.0, -304.40840773682686, -2782.926295152461, -2043.4635333375377, -9002.343893330562, 229.01597368907616, 920.5565953918214, -4487.425623825267, -1408.7857495290934, -2030.7230389980125, -3858.5369418307478, -3494.672893842804, -2251.155942816251, -2767.3694810115676, -1510.1285588894557, -7347.9795274710095, -14583.93211173202, 0.014625, -0.104625, 0.98825, 192.0, 0.0, 0.0, 0.0, 0.0, 0.0, 0.0, 0.0, 0.0, 0.0, 1.645923198757467E9, 0.0, 2022-02-27 11:53:18.757
66.0, -354.65512927235716, -2829.887310253061, -2102.8521183552884, -9050.802475309667, 165.5146676915488, 876.5236588148665, -4509.0844642024595, -1420.475711879219, -2226.703134382145, -4113.726808276989, -3725.4099518549388, -2513.4983674881896, -3014.5574229428084, -1755.2824920752637, -7585.466812308648, -14767.037602309896, 0.0123125, -0.1053125, 0.989125, 192.0, 0.0, 40.0, 126.0, 88.0, 15.0, 120.0, 0.0, 0.0, 0.0, 1.645923198764786E9, 0.0, 2022-02-27 11:53:18.764
68.0, -151.52247566252657, -2625.748828142742, -1921.646526056114, -8877.174124380843, 348.91073094734327, 1049.7049748545855, -4358.679575762699, -1281.6937305562176, -1948.2451019579296, -3834.039429907731, -3484.704015815737, -2250.127762571307, -2770.3646147685786, -1483.8876108989252, -7341.4081146011495, -14514.39583473156, 0.0123125, -0.1053125, 0.989125, 192.0, 0.0, 0.0, 0.0, 0.0, 0.0, 0.0, 0.0, 0.0, 0.0, 1.645923198772752E9, 0.0, 2022-02-27 11:53:18.772
70.0, -372.15654518086257, -2844.214778448913, -2159.6255492717683, -9108.022941115254, 92.98325693407737, 805.4004079580794, -4594.982218144205, -1499.7126459732826, -2176.344654124338, -4002.83980403421, -3618.47920638075, -2373.978778598163, -2917.5732037512307, -1647.8823599675131, -7481.844125013844, -14722.669389566112, 0.0123125, -0.1053125, 0.989125, 192.0, 0.0, 0.0, 0.0, 0.0, 0.0, 0.0, 0.0, 0.0, 0.0, 1.645923198780783E9, 0.0, 2022-02-27 11:53:18.780
72.0, -112.25046065455207, -2593.6964265938313, -1928.6426220706253, -8876.9953104252, 329.30825106003897, 1044.854646307784, -4356.891436206274, -1267.4109658492764, -2066.776402804423, -4005.0526267352852, -3635.2653664666855, -2415.038933162562, -2938.1144569056582, -1680.9405900169124, -7504.844070058355, -14642.068999060273, 0.0123125, -0.1053125, 0.989125, 192.0, 0.0, 0.0, 0.0, 0.0, 0.0, 0.0, 0.0, 0.0, 0.0, 1.645923198787501E9, 0.0, 2022-02-27 11:53:18.787
74.0, -199.0422843745094, -2684.4221573379227, -2038.1214664127192, -9000.466346796316, 217.70599099469078, 913.0240575103829, -4480.407176066301, -1405.3882843718868, -1999.385893271672, -3836.073438653164, -3467.8731522408907, -2222.7245238691003, -2766.967149611372, -1500.897288429414, -7342.615108801736, -14582.03221345332, 0.0123125, -0.1053125, 0.989125, 192.0, 0.0, 0.0, 0.0, 0.0, 0.0, 0.0, 0.0, 0.0, 0.0, 1.645923198795461E9, 0.0, 2022-02-27 11:53:18.795
76.0, -238.2919476380286, -2714.77582630823, -2095.5878014073137, -9045.750981062769, 155.50108617557123, 861.8385627077297, -4520.774426552585, -1428.6564503498614, -2180.1668024261958, -4075.035938624852, -3691.502355516238, -2473.198172235271, -3007.986010072948, -1748.5099135053056, -7580.638835506301, -14762.835474352298, 0.01015625, -0.10665625000000001, 0.9875625, 192.0, 0.0, 32.0, 126.0, 80.0, 15.0, 104.0, 0.0, 0.0, 0.0, 1.645923198803437E9, 0.0, 2022-02-27 11:53:18.803
78.0, -29.683116636647778, -2514.1912715663043, -1909.4871770724271, -8866.825266698035, 344.5521407785584, 1048.9450155431052, -4375.622198059821, -1270.361396117377, -1898.7583397338797, -3775.947246068388, -3439.866416438391, -2206.318343438905, -2753.310233749179, -1515.2918118586317, -7340.782265756401, -14514.664055665024, 0.01015625, -0.10665625000000001, 0.9875625, 192.0, 0.0, 0.0, 0.0, 0.0, 0.0, 0.0, 0.0, 0.0, 0.0, 1.645923198817081E9, 0.0, 2022-02-27 11:53:18.817
80.0, -268.24328520814004, -2742.4025824549894, -2155.825752714366, -9110.99572312781, 88.19998362064167, 787.9213437940292, -4576.720842924219, -1503.9371256753357, -2128.5342727344364, -3967.4569925614587, -3575.496801793194, -2351.8058480984987, -2899.736511675896, -1636.2371011062983, -7476.85968600031, -14720.076587209296, 0.01015625, -0.10665625000000001, 0.9875625, 192.0, 0.0, 0.0, 0.0, 0.0, 0.0, 0.0, 0.0, 0.0, 0.0, 1.645923198825087E9, 0.0, 2022-02-27 11:53:18.825
82.0, -12.628735617248491, -2501.003742337673, -1923.9487557350108, -8873.150810378887, 318.55706197703626, 1018.3454773837898, -4379.287884150492, -1289.382730648843, -2028.8007889748562, -3962.9642919259422, -3601.4024736168953, -2388.529764238568, -2934.5605295372643, -1676.6043515925828, -7514.0976922628515, -14651.680249176055, 0.01015625, -0.10665625000000001, 0.9875625, 192.0, 0.0, 0.0, 0.0, 0.0, 0.0, 0.0, 0.0, 0.0, 0.0, 1.645923198833033E9, 0.0, 2022-02-27 11:53:18.833
84.0, -114.2174141666191, -2605.364037199502, -2034.0087454329428, -8991.346835058552, 201.9480111536993, 894.1815369345591, -4506.469310101189, -1418.508758367152, -1970.2839219908622, -3812.626458719547, -3430.188111089243, -2182.9384187386536, -2760.8874751195285, -1502.216041352277, -7351.511103094948, -14596.091460715708, 0.01015625, -0.10665625000000001, 0.9875625, 192.0, 0.0, 0.0, 0.0, 0.0, 0.0, 0.0, 0.0, 0.0, 0.0, 1.645923198840167E9, 0.0, 2022-02-27 11:53:18.840
86.0, -179.95389460967715, -2660.483439026289, -2101.3992549656937, -9047.427361896916, 127.60610909534802, 847.4663910229673, -4530.743304579652, -1439.5864533885067, -2161.212523128095, -4062.7201274299778, -3667.5859889490594, -2450.421744635313, -3016.792597388339, -1748.4205065274843, -7591.635893778312, -14772.960814590553, 0.012, -0.106, 0.986, 192.0, 0.0, 48.0, 126.0, 88.0, 15.0, 104.0, 0.0, 0.0, 0.0, 1.64592319884768E9, 0.0, 2022-02-27 11:53:18.847
88.0, 30.174855014664534, -2456.1437912158717, -1906.9167264600667, -8865.081830630521, 337.0196028971199, 1031.82357929034, -4379.421994617223, -1290.1426899603237, -1890.1529181185865, -3784.664426405958, -3426.1424453428326, -2191.0297502314747, -2762.2732832757574, -1506.7534454767044, -7346.370201870228, -14523.291829024773, 0.012, -0.106, 0.986, 192.0, 0.0, 0.0, 0.0, 0.0, 0.0, 0.0, 0.0, 0.0, 0.0, 1.645923198855729E9, 0.0, 2022-02-27 11:53:18.855
90.0, -212.6768484922467, -2692.044102197183, -2152.9200259351765, -9110.146356838508, 75.16891660319766, 780.2993989347696, -4615.903450954372, -1515.671791514372, -2111.748112648501, -3959.678585491012, -3558.017737629144, -2323.6873535737222, -2902.463424499443, -1629.889205680991, -7483.6322645702685, -14730.403093147648, 0.012, -0.106, 0.986, 192.0, 0.0, 0.0, 0.0, 0.0, 0.0, 0.0, 0.0, 0.0, 0.0, 1.645923198862848E9, 0.0, 2022-02-27 11:53:18.862
92.0, 28.67728813615896, -2455.67440458231, -1927.7262005479577, -8875.65420575788, 313.2820502855838, 1019.5077680954657, -4374.862238748341, -1288.555716103997, -2011.031152132887, -3953.7553732103556, -3587.857316476979, -2378.918514122786, -2938.0026981833817, -1676.6267033370382, -7519.350352209849, -14656.351763767216, 0.012, -0.106, 0.986, 192.0, 0.0, 0.0, 0.0, 0.0, 0.0, 0.0, 0.0, 0.0, 0.0, 1.645923198869244E9, 0.0, 2022-02-27 11:53:18.869
94.0, -64.01539611999942, -2553.7315075077427, -2028.3090505968394, -8989.44693677985, 195.55541223948148, 911.6606010986092, -4515.0076764831165, -1409.2998396515657, -1960.8291340862675, -3793.7392346548127, -3418.4981487391174, -2178.7586425255113, -2764.3072920211903, -1489.6990644573052, -7349.499446093971, -14589.832972268221, 0.012, -0.106, 0.986, 192.0, 0.0, 0.0, 0.0, 0.0, 0.0, 0.0, 0.0, 0.0, 0.0, 1.645923198877356E9, 0.0, 2022-02-27 11:53:18.877
96.0, -131.78588530849044, -2617.8586623500187, -2095.856022340777, -9046.242719440785, 144.07934475890931, 868.4993825554112, -4536.4206476713, -1437.2395202206994, -2131.1717785801625, -4012.4287024055366, -3645.3460032160287, -2435.490779339168, -3008.1648240285904, -1727.499273717317, -7591.904114711776, -14773.519608201936, 0.014, -0.106, 0.982, 192.0, 0.0, 56.0, 126.0, 88.0, 15.0, 88.0, 0.0, 0.0, 0.0, 1.645923198885464E9, 0.0, 2022-02-27 11:53:18.885
98.0, 75.99593114804401, -2421.6103460324225, -1897.7078077444803, -8859.89622591689, 340.0594401430416, 1042.1277334842364, -4369.944854968173, -1276.7539950315947, -1871.1762870760308, -3775.4108042014605, -3409.713913168182, -2180.14445068174, -2757.6464721735088, -1494.5940964930173, -7342.16807391263, -14523.671808680512, 0.014, -0.106, 0.982, 192.0, 0.0, 0.0, 0.0, 0.0, 0.0, 0.0, 0.0, 0.0, 0.0, 1.645923198892662E9, 0.0, 2022-02-27 11:53:18.892
100.0, -173.33777825090627, -2655.9907383907725, -2141.8782641742546, -9102.90439163499, 80.89096318375626, 790.7823670843086, -4619.837357978507, -1519.5162915606847, -2097.3759409637382, -3949.329727808205, -3538.8846443754014, -2307.7505597770883, -2895.959066862949, -1616.0087723742454, -7477.731404034067, -14730.850128036755, 0.014, -0.106, 0.982, 192.0, 0.0, 0.0, 0.0, 0.0, 0.0, 0.0, 0.0, 0.0, 0.0, 1.645923198899994E9, 0.0, 2022-02-27 11:53:18.899
102.0, 65.55766648741562, -2424.0243344335954, -1916.9303079760443, -8870.714470233259, 305.81656763751124, 1030.1024949672812, -4393.637704090798, -1278.2739136545556, -1997.9777333709876, -3937.30448929125, -3571.4511360467836, -2362.8699616038757, -2932.9288521920266, -1668.5800753331275, -7522.39018945577, -14660.95622312501, 0.014, -0.106, 0.982, 192.0, 0.0, 0.0, 0.0, 0.0, 0.0, 0.0, 0.0, 0.0, 0.0, 1.645923198908027E9, 0.0, 2022-02-27 11:53:18.908
104.0, -44.3011575104186, -2533.3690683089576, -2023.481073794493, -8983.993111132755, 205.63604898882497, 920.4448366695449, -4506.357551378912, -1411.8926420083812, -1950.2791107033624, -3781.110499037564, -3403.3660177428746, -2163.4253458291705, -2755.4336494724334, -1481.0042358641906, -7351.6228618172245, -14595.219742681951, 0.014, -0.106, 0.982, 192.0, 0.0, 0.0, 0.0, 0.0, 0.0, 0.0, 0.0, 0.0, 0.0, 1.645923198916558E9, 0.0, 2022-02-27 11:53:18.916
106.0, -117.65958281273637, -2600.647819119432, -2098.404121208682, -9043.895786272979, 122.1522834482531, 853.0766788812493, -4549.80934260003, -1460.8876658544143, -2132.5575867363914, -4025.7950455898103, -3641.009764791699, -2430.8416164924643, -3010.7799781298613, -1731.1202563190766, -7599.302542126482, -14777.542922203891, 0.012, -0.10400000000000001, 0.988, 192.0, 0.0, 48.0, 126.0, 96.0, 15.0, 112.0, 0.0, 0.0, 0.0, 1.645923198922524E9, 0.0, 2022-02-27 11:53:18.922
108.0, 84.1543178742311, -2405.472386535691, -1901.619363024159, -8857.571644493539, 333.95741390674283, 1044.4523149075885, -4359.327776351903, -1275.7705182755612, -1876.3842435341173, -3763.2961587066843, -3406.5623171999837, -2186.5594013404134, -2760.440440230422, -1491.9118871583805, -7352.159303684152, -14530.287925039283, 0.012, -0.10400000000000001, 0.988, 192.0, 0.0, 0.0, 0.0, 0.0, 0.0, 0.0, 0.0, 0.0, 0.0, 1.645923198937635E9, 0.0, 2022-02-27 11:53:18.937
110.0, -162.51953393453766, -2647.8547034090407, -2146.7956479544223, -9094.500135719793, 77.49349802654959, 802.4052742010682, -4625.805273748073, -1518.6222217824725, -2098.359417719772, -3939.360849781138, -3535.464827473739, -2313.405551124281, -2894.282686028801, -1610.443188004874, -7478.67017730119, -14729.889003025175, 0.012, -0.10400000000000001, 0.988, 192.0, 0.0, 0.0, 0.0, 0.0, 0.0, 0.0, 0.0, 0.0, 0.0, 1.645923198945789E9, 0.0, 2022-02-27 11:53:18.945
112.0, 67.99400663304408, -2421.409180332325, -1921.71358128948, -8866.981728909223, 307.49294847165925, 1024.91689025365, -4385.233448175603, -1295.1494807183124, -2001.2187363170071, -3936.8351026576884, -3571.4287843023285, -2362.0429470590293, -2935.4545993154766, -1665.7637555317588, -7523.820701100911, -14664.085467348752, 0.012, -0.10400000000000001, 0.988, 192.0, 0.0, 0.0, 0.0, 0.0, 0.0, 0.0, 0.0, 0.0, 0.0, 1.645923198952148E9, 0.0, 2022-02-27 11:53:18.952
114.0, -30.934814326144974, -2523.3107833040694, -2017.4013993026495, -8980.372128530995, 213.36975257036121, 913.6722580995868, -4492.208897138703, -1400.3367901249874, -1948.938006036044, -3784.954999083877, -3401.935506097735, -2164.2970638629276, -2756.193608783914, -1485.1393085884224, -7344.179730913607, -14595.487963615415, 0.012, -0.10400000000000001, 0.988, 192.0, 0.0, 0.0, 0.0, 0.0, 0.0, 0.0, 0.0, 0.0, 0.0, 1.64592319896028E9, 0.0, 2022-02-27 11:53:18.960
116.0, -113.90448974424478, -2600.0666737635943, -2100.08050204283, -9051.830655554611, 116.07260895640958, 858.7540219728974, -4551.418668200811, -1446.0461075360904, -2136.7150112050786, -4039.3402027297266, -3642.507331670205, -2437.6365468068775, -3009.7294461404617, -1734.6294801985598, -7585.489164053102, -14781.767401905943, 0.012, -0.10400000000000001, 0.984, 192.0, 0.0, 48.0, 126.0, 96.0, 15.0, 96.0, 0.0, 0.0, 0.0, 1.645923198968361E9, 0.0, 2022-02-27 11:53:18.968
118.0, 112.11635018782023, -2384.1711740697833, -1896.0761303992429, -8853.011888624655, 348.6648617583349, 1051.694280111108, -4386.351035398368, -1283.548925346008, -1865.0966125841871, -3760.144562738486, -3405.95882009969, -2185.665331562201, -2759.3005012632016, -1493.2753435701543, -7350.572329827825, -14531.360808773139, 0.012, -0.10400000000000001, 0.984, 192.0, 0.0, 0.0, 0.0, 0.0, 0.0, 0.0, 0.0, 0.0, 0.0, 1.645923198974823E9, 0.0, 2022-02-27 11:53:18.974
120.0, -169.56033343795937, -2662.5621512606326, -2149.56726426688, -9104.42431025795, 77.09116662635405, 791.6987886069761, -4603.028846148115, -1520.566823550084, -2095.900725829688, -3935.2257770569063, -3533.207301283753, -2308.9128504887644, -2896.76372966334, -1605.2575832912426, -7478.67017730119, -14728.86082278023, 0.012, -0.10400000000000001, 0.984, 192.0, 0.0, 0.0, 0.0, 0.0, 0.0, 0.0, 0.0, 0.0, 0.0, 1.645923198983477E9, 0.0, 2022-02-27 11:53:18.983
122.0, 67.90459965522285, -2423.040857677562, -1926.4968546029156, -8874.402508068384, 297.3676082334052, 1027.397933888189, -4383.266494663536, -1277.6257130653516, -2016.3285155687947, -3954.3365185661937, -3583.364615841462, -2381.332502523959, -2945.8034569982838, -1675.5761713476386, -7521.920802822209, -14669.09225810674, 0.012, -0.10400000000000001, 0.984, 192.0, 0.0, 0.0, 0.0, 0.0, 0.0, 0.0, 0.0, 0.0, 0.0, 1.645923198989922E9, 0.0, 2022-02-27 11:53:18.989
124.0, -23.268165977974654, -2515.68883844481, -2019.3907045591718, -8973.599549961036, 200.80807218647865, 920.5118919029107, -4497.908591974806, -1403.7566070266494, -1950.0332415143541, -3787.2795805072287, -3402.7848723870366, -2163.961787696098, -2757.0206233287604, -1476.4891834842185, -7349.097114693775, -14592.291664158305, 0.012, -0.10400000000000001, 0.984, 192.0, 0.0, 0.0, 0.0, 0.0, 0.0, 0.0, 0.0, 0.0, 0.0, 1.645923198998088E9, 0.0, 2022-02-27 11:53:18.998
126.0, -108.24949839705211, -2596.5127463952003, -2100.7510543764897, -9049.416667153439, 123.85101602685643, 851.2214840914588, -4539.102857005937, -1446.023755791635, -2128.713086690079, -4034.6016329052013, -3640.026288035666, -2434.596709560956, -3011.0034955744145, -1727.655735928504, -7586.450289064681, -14778.481695471013, 0.012, -0.10200000000000001, 0.986, 192.0, 0.0, 48.0, 126.0, 104.0, 15.0, 104.0, 0.0, 0.0, 0.0, 1.645923199004442E9, 0.0, 2022-02-27 11:53:19.004
128.0, 103.801501250446, -2394.9447148972413, -1893.4833280424273, -8852.85542641347, 338.76303896463384, 1046.2181027195577, -4378.751442283564, -1262.9182652137597, -1869.365795775151, -3765.9336645524104, -3409.445692234718, -2191.4320816316704, -2765.6260449440533, -1484.379349276942, -7353.813332773845, -14526.577535459703, 0.012, -0.10200000000000001, 0.986, 192.0, 0.0, 0.0, 0.0, 0.0, 0.0, 0.0, 0.0, 0.0, 0.0, 1.645923199012572E9, 0.0, 2022-02-27 11:53:19.012
130.0, -153.22120824112991, -2638.5563777156326, -2143.4875897750367, -9102.390301512516, 84.06491089640986, 794.3586461971577, -4603.453529292766, -1506.5522797766066, -2091.8550600832773, -3931.8283118996997, -3532.2014727832643, -2308.6446295553005, -2892.248677283368, -1597.859155876536, -7477.150258678229, -14727.542069857369, 0.012, -0.10200000000000001, 0.986, 192.0, 0.0, 0.0, 0.0, 0.0, 0.0, 0.0, 0.0, 0.0, 0.0, 1.645923199020577E9, 0.0, 2022-02-27 11:53:19.020
132.0, 75.6606549812144, -2413.9660494287073, -1925.3122121467845, -8873.039051656611, 298.7981198785448, 1024.0675239643483, -4413.530756656022, -1285.6052858358962, -2002.515137495415, -3938.287966047283, -3579.542467539605, -2381.824240901976, -2946.8316372432278, -1664.9143892424572, -7531.576756426902, -14666.946490639031, 0.012, -0.10200000000000001, 0.986, 192.0, 0.0, 0.0, 0.0, 0.0, 0.0, 0.0, 0.0, 0.0, 0.0, 1.645923199027549E9, 0.0, 2022-02-27 11:53:19.027
134.0, -20.16127349868697, -2517.87930940143, -2014.7862452013787, -8973.264273794208, 217.54952878350363, 923.1941012375476, -4500.456690842711, -1420.0063252456578, -1937.6056715972034, -3778.6741588919353, -3397.286343251031, -2167.4263080866704, -2756.1489052950033, -1465.67093916785, -7352.651042062169, -14590.190600179507, 0.012, -0.10200000000000001, 0.986, 192.0, 0.0, 0.0, 0.0, 0.0, 0.0, 0.0, 0.0, 0.0, 0.0, 1.645923199035047E9, 0.0, 2022-02-27 11:53:19.035
136.0, -117.12314094580901, -2607.8674325784964, -2109.825862625344, -9056.077487001121, 106.03667569597671, 834.0329926053278, -4564.561493940531, -1453.2433692506993, -2134.7257059485564, -4046.805685377799, -3644.273119482174, -2438.977651474196, -3017.731370655462, -1723.498311459817, -7593.938123457208, -14784.516666473946, 0.014, -0.10200000000000001, 0.984, 192.0, 0.0, 56.0, 126.0, 104.0, 15.0, 96.0, 0.0, 0.0, 0.0, 1.645923199043197E9, 0.0, 2022-02-27 11:53:19.043
138.0, 107.17661466319737, -2394.6094387304115, -1894.8244327097457, -8852.073115357533, 334.2032830957512, 1034.081105480326, -4376.337453882391, -1274.071785696958, -1872.584446976715, -3770.1581442544634, -3413.6254684478604, -2198.450529390637, -2774.5890944706316, -1493.409454036886, -7361.569388099836, -14534.557108230247, 0.014, -0.10200000000000001, 0.984, 192.0, 0.0, 0.0, 0.0, 0.0, 0.0, 0.0, 0.0, 0.0, 0.0, 1.645923199052016E9, 0.0, 2022-02-27 11:53:19.052
140.0, -144.28051045900708, -2636.1870928033704, -2143.8452176863216, -9098.299932277196, 74.27484682498537, 787.5860676271997, -4625.447645836788, -1518.1975386378217, -2086.6024001362803, -3929.7943031542663, -3525.5630046800384, -2295.3229898599375, -2891.689883671985, -1605.8387286470806, -7478.960749979109, -14731.386569903681, 0.014, -0.10200000000000001, 0.984, 192.0, 0.0, 0.0, 0.0, 0.0, 0.0, 0.0, 0.0, 0.0, 0.0, 1.645923199064733E9, 0.0, 2022-02-27 11:53:19.064
142.0, 66.09410835434298, -2429.232290891682, -1935.7057733185022, -8880.459830815773, 290.2150500077069, 1017.0937796942926, -4414.849509578885, -1293.1154719728795, -2012.2381463334737, -3948.5474167522693, -3586.6503222763927, -2383.1206420803837, -2963.2378176734233, -1654.6996420263818, -7544.294899021972, -14674.300214564826, 0.014, -0.10200000000000001, 0.984, 192.0, 0.0, 0.0, 0.0, 0.0, 0.0, 0.0, 0.0, 0.0, 0.0, 1.645923199072921E9, 0.0, 2022-02-27 11:53:19.072
144.0, -16.27206996346354, -2516.4711495007455, -2016.708495224535, -8974.560674972616, 206.84304318941156, 909.5595371198103, -4510.55967933651, -1405.902374494359, -1943.1265524776643, -3794.9238771109435, -3401.734340397637, -2165.1017266633185, -2762.3626902535784, -1485.4298812663415, -7353.008669973454, -14592.403422880581, 0.014, -0.10200000000000001, 0.984, 192.0, 0.0, 0.0, 0.0, 0.0, 0.0, 0.0, 0.0, 0.0, 0.0, 1.645923199082358E9, 0.0, 2022-02-27 11:53:19.082
146.0, -113.18923392167497, -2600.6925226083426, -2108.8200341248553, -9056.144542234486, 105.79080650696832, 842.5490072427997, -4590.601276230965, -1461.0664798100568, -2129.4283425126487, -4050.024336579363, -3638.729886857258, -2435.557834572534, -3016.010286332403, -1735.2553290433084, -7597.939085714708, -14787.6906141866, 0.016, -0.10200000000000001, 0.984, 192.0, 0.0, 64.0, 126.0, 104.0, 15.0, 96.0, 0.0, 0.0, 0.0, 1.645923199088445E9, 0.0, 2022-02-27 11:53:19.088
148.0, 112.87630949930066, -2384.037063603051, -1891.5610780192708, -8850.933176390312, 346.1614663793405, 1042.7759340734403, -4397.772776815031, -1288.1757364482567, -1870.461031253461, -3774.561437912159, -3410.093892823922, -2195.142471211251, -2773.3597485255896, -1497.0080848941905, -7368.967815514543, -14539.027457121309, 0.016, -0.10200000000000001, 0.984, 192.0, 0.0, 0.0, 0.0, 0.0, 0.0, 0.0, 0.0, 0.0, 0.0, 1.645923199095443E9, 0.0, 2022-02-27 11:53:19.095
150.0, -134.91512953223344, -2621.2337757627697, -2134.859816415288, -9096.914124120965, 82.72380622909144, 793.799852585775, -4628.174558660336, -1520.5221200611736, -2080.165097733152, -3916.159739036529, -3517.3375627204855, -2295.2335828821165, -2884.962008590938, -1600.7872344001812, -7471.629377797768, -14732.660619337634, 0.016, -0.10200000000000001, 0.984, 192.0, 0.0, 0.0, 0.0, 0.0, 0.0, 0.0, 0.0, 0.0, 0.0, 1.645923199103476E9, 0.0, 2022-02-27 11:53:19.103
152.0, 77.29233232645183, -2419.4198750758023, -1928.106180203698, -8876.749441236192, 299.91570710131015, 1012.5340238254099, -4399.091529737893, -1283.325407901455, -2006.806672430834, -3958.3151290792384, -3580.123612895443, -2386.8980868933304, -2948.5303698218313, -1675.1514882029878, -7534.303669250449, -14681.877455935177, 0.016, -0.10200000000000001, 0.984, 192.0, 0.0, 0.0, 0.0, 0.0, 0.0, 0.0, 0.0, 0.0, 0.0, 1.645923199110015E9, 0.0, 2022-02-27 11:53:19.110
154.0, -7.443130903617252, -2509.2738877861366, -2006.6949137085576, -8969.844456892546, 214.77791247104557, 919.1931389800476, -4505.12820543387, -1404.7177320382277, -1938.0303547418541, -3791.2134875313627, -3393.441843204718, -2173.5283343229694, -2749.3092714916793, -1465.514476956663, -7341.899852979166, -14593.31984440325, 0.016, -0.10200000000000001, 0.986, 192.0, 0.0, 64.0, 126.0, 104.0, 15.0, 112.0, 0.0, 0.0, 0.0, 1.645923199117045E9, 0.0, 2022-02-27 11:53:19.117
156.0, -107.2883733854739, -2601.653647619921, -2104.8190718673554, -9056.45746665686, 111.4010943652504, 826.7910274018083, -4578.978369114205, -1475.9080381283807, -2132.4234762696597, -4039.7201823854666, -3635.175959488864, -2437.8600642514307, -3004.4767861934647, -1719.1844247799427, -7589.892457710798, -14793.233846811516, 0.016, -0.10200000000000001, 0.986, 192.0, 0.0, 0.0, 0.0, 0.0, 0.0, 0.0, 0.0, 0.0, 0.0, 1.645923199125135E9, 0.0, 2022-02-27 11:53:19.125
158.0, 111.0434664539655, -2389.9602758837077, -1890.5105460298714, -8849.167388578342, 338.5618732645361, 1033.4552566355774, -4371.978863713606, -1269.8249542504495, -1876.808926678768, -3796.622609689547, -3416.7547126716036, -2209.760512085022, -2773.9855973703384, -1498.7068174727938, -7361.815257288845, -14542.73784670089, 0.016, -0.10200000000000001, 0.986, 192.0, 0.0, 0.0, 0.0, 0.0, 0.0, 0.0, 0.0, 0.0, 0.0, 1.645923199133145E9, 0.0, 2022-02-27 11:53:19.133
160.0, -145.50985640404897, -2633.6613456799205, -2138.8831304172436, -9094.298970019696, 78.45462303812779, 787.3401984381912, -4627.526358071132, -1522.511425317696, -2093.777310106434, -3925.5027682188475, -3526.0994465469657, -2305.5824405649237, -2889.09708131517, -1599.1108535660333, -7470.467087086093, -14729.82194779181, 0.016, -0.10200000000000001, 0.986, 192.0, 0.0, 0.0, 0.0, 0.0, 0.0, 0.0, 0.0, 0.0, 0.0, 1.645923199139622E9, 0.0, 2022-02-27 11:53:19.139
162.0, 64.10480309782065, -2427.0641716795176, -1934.8564070292007, -8881.555066294082, 291.01971280809795, 999.1900323855916, -4414.670695623243, -1302.5702598774744, -2023.034038905387, -3958.6280535016126, -3588.572572299549, -2388.462709005202, -2958.767468782362, -1674.5703428471497, -7545.077210077908, -14687.174819371085, 0.016, -0.10200000000000001, 0.986, 192.0, 0.0, 0.0, 0.0, 0.0, 0.0, 0.0, 0.0, 0.0, 0.0, 1.645923199147669E9, 0.0, 2022-02-27 11:53:19.147
164.0, -6.61611635877089, -2500.8696318709412, -2006.8513759197447, -8966.514046968705, 218.28713635052878, 919.3496011912348, -4495.65106578482, -1393.0277696881021, -1948.0886397467423, -3786.6984351513906, -3398.381578729341, -2167.0686801753855, -2757.1770855399473, -1471.2141717927661, -7345.900815236666, -14590.235303668416, 0.015, -0.10500000000000001, 0.985, 192.0, 0.0, 56.0, 126.0, 80.0, 15.0, 96.0, 0.0, 0.0, 0.0, 1.645923199155685E9, 0.0, 2022-02-27 11:53:19.155
166.0, -106.77428326300183, -2596.065711506094, -2108.3282957468386, -9059.385545180505, 109.12121643080908, 839.442114763512, -4574.932703367795, -1458.4513257087858, -2135.5303687489472, -4035.1380747721287, -3633.141950743431, -2435.468427594713, -3009.148300784624, -1718.558575935194, -7588.21607687665, -14788.78584966491, 0.015, -0.10500000000000001, 0.985, 192.0, 0.0, 0.0, 0.0, 0.0, 0.0, 0.0, 0.0, 0.0, 0.0, 1.645923199162734E9, 0.0, 2022-02-27 11:53:19.162
168.0, 113.65862055523641, -2389.3120752945038, -1892.522203030849, -8845.144074576387, 341.24408259917294, 1042.4630096510662, -4386.44044237619, -1271.5236868290528, -1877.9488656459887, -3781.2893129932063, -3412.9772678586564, -2206.3853986722706, -2777.0477863607152, -1487.3074278005872, -7366.3526614132725, -14537.149910587063, 0.015, -0.10500000000000001, 0.985, 192.0, 0.0, 0.0, 0.0, 0.0, 0.0, 0.0, 0.0, 0.0, 0.0, 1.645923199170247E9, 0.0, 2022-02-27 11:53:19.170
170.0, -138.15613247825294, -2626.844063621052, -2137.2738048164615, -9087.951074594388, 78.1640503602088, 790.7823670843086, -4624.084189425014, -1513.7495414912155, -2091.7433013610007, -3935.2257770569063, -3520.9808970667004, -2300.0615596844627, -2887.66656967003, -1589.119623794511, -7470.1318109192625, -14724.882212267186, 0.015, -0.10500000000000001, 0.985, 192.0, 0.0, 0.0, 0.0, 0.0, 0.0, 0.0, 0.0, 0.0, 0.0, 1.645923199185258E9, 0.0, 2022-02-27 11:53:19.185
172.0, 70.11742235629825, -2418.4140465753135, -1933.1800261950525, -8870.155676621876, 294.3501227319387, 1007.8401574897955, -4410.088588009905, -1289.516841115575, -2025.4033238176494, -3956.9963761563754, -3586.8514879764903, -2386.205182815216, -2959.661538560574, -1672.3575201460744, -7543.087904821385, -14681.09514487924, 0.015, -0.10500000000000001, 0.985, 192.0, 0.0, 0.0, 0.0, 0.0, 0.0, 0.0, 0.0, 0.0, 0.0, 1.645923199192439E9, 0.0, 2022-02-27 11:53:19.192
174.0, -3.531575623938516, -2498.2544777696703, -2002.515137495415, -8960.68024166587, 217.7730462280567, 914.566327877799, -4511.677266559275, -1402.862537248437, -1938.9020727756113, -3769.3758331985277, -3390.804337358992, -2158.1726858821735, -2751.4550389593887, -1457.1996280192886, -7342.972736713021, -14586.569617577747, 0.0115, -0.10450000000000001, 0.9835, 192.0, 0.0, 32.0, 126.0, 96.0, 15.0, 88.0, 0.0, 0.0, 0.0, 1.645923199201622E9, 0.0, 2022-02-27 11:53:19.201
176.0, -107.10955942983145, -2591.2153829592926, -2106.1378247902185, -9051.651841598969, 109.92587923120013, 829.0262018473389, -4592.389415787389, -1476.3327212730314, -2135.195092582118, -4028.5666619022686, -3630.9067762979007, -2427.600613546445, -3007.0695885502805, -1712.5683084211719, -7590.585361788912, -14789.389346765203, 0.0115, -0.10450000000000001, 0.9835, 192.0, 0.0, 0.0, 0.0, 0.0, 0.0, 0.0, 0.0, 0.0, 0.0, 1.645923199207936E9, 0.0, 2022-02-27 11:53:19.207
178.0, 125.10271371635363, -2368.1673250397835, -1884.1179471156536, -8836.113969816442, 344.66389950083493, 1049.9955475325046, -4375.935122482196, -1265.3099018704775, -1870.1481068310866, -3778.5400484252036, -3409.3339335124415, -2194.449567133137, -2773.4044520145003, -1486.1004336000008, -7369.07957423682, -14538.714532698934, 0.0115, -0.10450000000000001, 0.9835, 192.0, 0.0, 0.0, 0.0, 0.0, 0.0, 0.0, 0.0, 0.0, 0.0, 1.645923199215105E9, 0.0, 2022-02-27 11:53:19.215
180.0, -128.32136491791783, -2619.646801906443, -2132.870511158766, -9086.252342015785, 85.093091141354, 793.8222043302303, -4622.273698124135, -1507.2004803658106, -2079.963932033054, -3922.01589608382, -3510.8108533395357, -2287.052844411474, -2878.0776712987035, -1582.5258591801953, -7462.711031760101, -14718.131985441683, 0.0115, -0.10450000000000001, 0.9835, 192.0, 0.0, 0.0, 0.0, 0.0, 0.0, 0.0, 0.0, 0.0, 0.0, 1.645923199222596E9, 0.0, 2022-02-27 11:53:19.222
182.0, 75.45948928111665, -2410.9038604383304, -1932.3753633946615, -8882.158563394376, 290.2821052410728, 993.9597241830497, -4407.24991646408, -1292.6237335948626, -2019.6812772370909, -3946.044021373275, -3586.046825176099, -2388.172136327283, -2957.3593088816774, -1679.2865609272196, -7543.423180988215, -14689.030014160875, 0.0115, -0.10450000000000001, 0.9835, 192.0, 0.0, 0.0, 0.0, 0.0, 0.0, 0.0, 0.0, 0.0, 0.0, 1.645923199230546E9, 0.0, 2022-02-27 11:53:19.230
184.0, 9.767712326969187, -2481.11068977245, -1996.9048496371329, -8955.360526485507, 222.8245404749561, 923.1270460041817, -4510.202051425225, -1391.9101824653367, -1932.6212325836698, -3771.3204349661396, -3386.1998780011986, -2155.021089913975, -2748.124629035548, -1463.1675437888557, -7341.251652389962, -14587.061355955764, 0.00975, -0.10625000000000001, 0.98075, 192.0, 0.0, 32.0, 126.0, 80.0, 15.0, 72.0, 0.0, 0.0, 0.0, 1.645923199237599E9, 0.0, 2022-02-27 11:53:19.237
186.0, -111.51285308752693, -2592.6235428599766, -2111.792816137411, -9055.272824200729, 97.4759575695941, 837.0281263623389, -4586.24268606218, -1456.640834407906, -2130.702391946601, -4013.836862306221, -3624.6482878504144, -2417.542328541557, -3002.733350125951, -1700.3642559485743, -7589.579533288424, -14782.862637384253, 0.00975, -0.10625000000000001, 0.98075, 192.0, 0.0, 0.0, 0.0, 0.0, 0.0, 0.0, 0.0, 0.0, 0.0, 1.64592319924487E9, 0.0, 2022-02-27 11:53:19.244
188.0, 114.86561475582299, -2373.1294123088614, -1890.8905256856117, -8837.32096401703, 342.65224249985727, 1054.622358634753, -4378.729090539109, -1261.1748291462457, -1877.9265139015336, -3770.98515879931, -3418.5652039724832, -2210.2969539519495, -2784.5579724976988, -1500.9196401738693, -7372.253521949473, -14538.870994910121, 0.00975, -0.10625000000000001, 0.98075, 192.0, 0.0, 0.0, 0.0, 0.0, 0.0, 0.0, 0.0, 0.0, 0.0, 1.645923199252224E9, 0.0, 2022-02-27 11:53:19.252
190.0, -135.29510918797365, -2620.4961681957448, -2135.508017004492, -9087.906371105477, 86.54595453094895, 796.6161723871437, -4601.95596241426, -1506.1275966319558, -2088.636408881713, -3917.2102710259287, -3520.22093775522, -2291.3667310913484, -2885.6102091801417, -1584.381053969986, -7461.347575348327, -14719.406034875636, 0.00975, -0.10625000000000001, 0.98075, 192.0, 0.0, 0.0, 0.0, 0.0, 0.0, 0.0, 0.0, 0.0, 0.0, 1.645923199260636E9, 0.0, 2022-02-27 11:53:19.260
192.0, 78.4993265270384, -2409.5404040265566, -1935.2363866849407, -8877.867028458957, 282.81662259300026, 1005.4261690886223, -4415.676524123732, -1296.0882539854354, -2021.3129545823283, -3962.1149256366407, -3594.6298950469372, -2389.602647972423, -2966.1435444526132, -1679.3536161605855, -7544.607823444346, -14692.00279617343, 0.00975, -0.10625000000000001, 0.98075, 192.0, 0.0, 0.0, 0.0, 0.0, 0.0, 0.0, 0.0, 0.0, 0.0, 1.64592319926824E9, 0.0, 2022-02-27 11:53:19.268
194.0, 18.57429964236017, -2472.259398968148, -1992.1886315570632, -8948.207968259809, 220.9469939407103, 923.8199500822963, -4508.279801402068, -1399.1074441799456, -1921.8923952451225, -3753.5507981241703, -3384.769366356059, -2141.9229676631653, -2750.2703965032574, -1450.3599942159647, -7342.391591357183, -14584.98264372142, 0.008875000000000001, -0.10512500000000001, 0.982375, 192.0, 0.0, 32.0, 126.0, 96.0, 15.0, 96.0, 0.0, 0.0, 0.0, 1.645923199274838E9, 0.0, 2022-02-27 11:53:19.274
196.0, -98.25826862552985, -2577.4690601192788, -2102.9191735886543, -9053.372925922027, 96.11250115782038, 822.5665476997552, -4594.177555343814, -1492.7836051921374, -2120.0853133303303, -4002.3480656561933, -3623.2624796941855, -2414.234270362171, -3000.9675623139815, -1698.889040814524, -7586.897323953787, -14791.646872955189, 0.008875000000000001, -0.10512500000000001, 0.982375, 192.0, 0.0, 0.0, 0.0, 0.0, 0.0, 0.0, 0.0, 0.0, 0.0, 1.645923199283012E9, 0.0, 2022-02-27 11:53:19.283
198.0, 132.67995508670273, -2357.930226079253, -1873.746737688391, -8832.9847255927, 338.85244594245506, 1046.9780620310382, -4377.812669016441, -1275.3458351309105, -1860.1121735706538, -3760.2786732052177, -3413.2454887921203, -2196.9976660010416, -2778.992388128327, -1487.9332766453358, -7375.159248728663, -14549.219852592929, 0.008875000000000001, -0.10512500000000001, 0.982375, 192.0, 0.0, 0.0, 0.0, 0.0, 0.0, 0.0, 0.0, 0.0, 0.0, 1.645923199290979E9, 0.0, 2022-02-27 11:53:19.290
200.0, -117.68193455719168, -2605.6322581329655, -2120.1076650747855, -9080.686757646414, 78.18640210466411, 798.381960199113, -4603.989971159694, -1513.414265324386, -2062.7530888024676, -3903.0169132968085, -3503.613591624927, -2279.6097135078567, -2873.7190811299183, -1577.5190684222066, -7459.693546258634, -14724.077549466796, 0.008875000000000001, -0.10512500000000001, 0.982375, 192.0, 0.0, 0.0, 0.0, 0.0, 0.0, 0.0, 0.0, 0.0, 0.0, 1.645923199298147E9, 0.0, 2022-02-27 11:53:19.298
202.0, 77.78407070446858, -2414.4801395511795, -1930.4978168604157, -8883.343205850508, 276.2899132120506, 1001.179337642114, -4414.849509578885, -1307.778216335561, -2008.5277567538926, -3951.2072743424505, -3585.331569353529, -2389.0215026165847, -2964.7130328074736, -1674.95032250289, -7550.35222176936, -14697.05429042033, 0.008875000000000001, -0.10512500000000001, 0.982375, 192.0, 0.0, 0.0, 0.0, 0.0, 0.0, 0.0, 0.0, 0.0, 0.0, 1.645923199312566E9, 0.0, 2022-02-27 11:53:19.312
204.0, 26.39741020171764, -2471.9017710568633, -1984.5890384422587, -8948.610299660004, 224.47856956464884, 921.8753483146845, -4489.4596325707, -1407.1093686949455, -1910.9623922064773, -3769.1299640095194, -3382.735357610626, -2155.1328486362518, -2748.728126135841, -1455.2997297405875, -7341.07283843432, -14584.8932367436, 0.0104375, -0.1065625, 0.9861875, 192.0, 0.0, 48.0, 126.0, 80.0, 15.0, 120.0, 0.0, 0.0, 0.0, 1.645923199320535E9, 0.0, 2022-02-27 11:53:19.320
206.0, -102.14747216075328, -2585.001598000717, -2109.5576416918807, -9059.22908296932, 90.8598412108232, 815.928079596529, -4599.720787968729, -1494.504689515196, -2119.32535401885, -4021.391751932115, -3624.961212272789, -2417.4529215637353, -3007.3825129726547, -1704.7004943729037, -7590.004216433074, -14797.435974769114, 0.0104375, -0.1065625, 0.9861875, 192.0, 0.0, 0.0, 0.0, 0.0, 0.0, 0.0, 0.0, 0.0, 0.0, 1.645923199327706E9, 0.0, 2022-02-27 11:53:19.327
208.0, 134.02105975402114, -2363.495810448624, -1877.6582929680699, -8836.51630121664, 338.8971494313657, 1041.6806985951303, -4377.566799827433, -1276.7539950315947, -1865.2754265398296, -3763.787897084701, -3419.548680728517, -2200.641000347257, -2788.9612661553942, -1499.4667767842743, -7380.590722631303, -14548.906928170554, 0.0104375, -0.1065625, 0.9861875, 192.0, 0.0, 0.0, 0.0, 0.0, 0.0, 0.0, 0.0, 0.0, 0.0, 1.645923199335154E9, 0.0, 2022-02-27 11:53:19.335
210.0, -127.58375735089271, -2616.1822815158703, -2123.9745168655536, -9084.307740248172, 86.54595453094895, 801.1759282560264, -4600.458395535755, -1509.2791926001541, -2065.3905946481937, -3899.3065237172277, -3507.6592573713374, -2288.1257281453286, -2875.66368289753, -1588.0467400606562, -7463.806267238411, -14725.955096001042, 0.0104375, -0.1065625, 0.9861875, 192.0, 0.0, 0.0, 0.0, 0.0, 0.0, 0.0, 0.0, 0.0, 0.0, 1.645923199343188E9, 0.0, 2022-02-27 11:53:19.343
212.0, 67.18934383265304, -2422.5714710440006, -1933.2023779395079, -8883.969054695255, 282.10136677043045, 1009.337724368301, -4415.4530066791785, -1300.6256581098626, -2018.6530969921469, -3971.0779751632185, -3596.1945171588086, -2406.500566780635, -2966.7246898084513, -1681.4546801393844, -7551.82743690341, -14700.250589877438, 0.0104375, -0.1065625, 0.9861875, 192.0, 0.0, 0.0, 0.0, 0.0, 0.0, 0.0, 0.0, 0.0, 0.0, 1.645923199351191E9, 0.0, 2022-02-27 11:53:19.351
214.0, 11.42174141666191, -2484.3516927184696, -1986.555991954326, -8949.459665949305, 230.22296788966275, 919.6625256136091, -4487.649141269821, -1394.2347638886886, -1916.8632527426785, -3763.5867313846034, -3386.088119278922, -2156.9209881926763, -2740.5920911541098, -1464.1286688004338, -7343.911509980144, -14587.106059444674, 0.013218750000000001, -0.10228125, 0.98909375, 192.0, 0.0, 64.0, 126.0, 120.0, 15.5, 0.0, 0.0, 0.0, 0.0, 1.64592319935777E9, 0.0, 2022-02-27 11:53:19.357
216.0, -113.05512345494313, -2597.94325804034, -2109.289420758417, -9063.677080115924, 97.1183296583092, 819.5043587093782, -4582.644055204875, -1475.5951137060063, -2127.1708163226626, -4020.2294612204387, -3631.465569909283, -2425.678363523288, -3000.11819602468, -1723.4089044819957, -7586.494992553591, -14798.26298931396, 0.013218750000000001, -0.10228125, 0.98909375, 192.0, 0.0, 0.0, 0.0, 0.0, 0.0, 0.0, 0.0, 0.0, 0.0, 1.6459231993648E9, 0.0, 2022-02-27 11:53:19.364
218.0, 128.05314398445415, -2369.1508017958167, -1873.7243859439357, -8834.079961071011, 343.88158844489914, 1051.7166318555633, -4404.768872829542, -1279.8161840219718, -1865.4989439843828, -3772.4156704444495, -3418.8557766504023, -2206.8100818169214, -2784.7144347088856, -1504.0488843976123, -7382.132992998719, -14555.970079418432, 0.013218750000000001, -0.10228125, 0.98909375, 192.0, 0.0, 0.0, 0.0, 0.0, 0.0, 0.0, 0.0, 0.0, 0.0, 1.64592319937286E9, 0.0, 2022-02-27 11:53:19.372
220.0, -135.4292196547055, -2617.478682694278, -2123.840406398822, -9086.207638526874, 88.33409408737351, 790.737663595398, -4589.416633774833, -1517.7058002598048, -2070.039757494898, -3914.9303930914875, -3507.9498300492564, -2290.3832543353146, -2877.764746876329, -1586.4597662043293, -7465.504999817014, -14729.82194779181, 0.013218750000000001, -0.10228125, 0.98909375, 192.0, 0.0, 0.0, 0.0, 0.0, 0.0, 0.0, 0.0, 0.0, 0.0, 1.645923199380091E9, 0.0, 2022-02-27 11:53:19.380
222.0, 53.10774482580958, -2428.561738558023, -1938.4773896309603, -8890.719281520758, 279.7991370915338, 991.4339770596001, -4419.744541614597, -1320.7645798640942, -2026.2303383624958, -3976.062414176752, -3606.453967863795, -2410.009790660118, -2977.006492257892, -1692.1388139890212, -7555.604881716357, -14709.86183999322, 0.013218750000000001, -0.10228125, 0.98909375, 192.0, 0.0, 0.0, 0.0, 0.0, 0.0, 0.0, 0.0, 0.0, 0.0, 1.645923199387556E9, 0.0, 2022-02-27 11:53:19.387
224.0, 2.0563604898882497, -2486.9891985641957, -1985.9971983429432, -8953.728849140269, 226.601985287903, 922.8364733262626, -4487.783251736552, -1407.0870169504901, -1920.8195115112678, -3765.4866296633045, -3396.056997305989, -2159.8490667163214, -2751.2091697703804, -1459.85948560947, -7343.21860590203, -14591.956387991475, 0.016, -0.098, 0.992, 192.0, 0.0, 64.0, 126.0, 120.0, 15.5, 0.0, 0.0, 0.0, 0.0, 1.645923199395535E9, 0.0, 2022-02-27 11:53:19.395
226.0, -126.98026025059943, -2610.035551790661, -2108.551813191392, -9074.249455243285, 101.65573378273652, 814.3187539957469, -4587.360273284945, -1476.0197968506573, -2128.1095895897856, -4033.685211382534, -3634.416000177384, -2427.712372268721, -3004.7673588713837, -1714.4235032109623, -7582.583437273913, -14794.887875901208, 0.016, -0.098, 0.992, 192.0, 0.0, 0.0, 0.0, 0.0, 0.0, 0.0, 0.0, 0.0, 0.0, 1.645923199403509E9, 0.0, 2022-02-27 11:53:19.403
228.0, 117.413713623728, -2377.242133288638, -1872.942074888, -8849.390906022896, 347.5025710466589, 1048.9003120541945, -4374.661073048243, -1274.8540967528936, -1870.2375138089078, -3788.620685174547, -3431.4621605231955, -2216.667201121712, -2788.827155688662, -1510.9779251787575, -7377.640292363202, -14551.812654949745, 0.016, -0.098, 0.992, 192.0, 0.0, 0.0, 0.0, 0.0, 0.0, 0.0, 0.0, 0.0, 0.0, 1.645923199410842E9, 0.0, 2022-02-27 11:53:19.410
230.0, -133.37285916481724, -2619.847967606541, -2121.247604042006, -9089.761565895267, 84.66840799670315, 794.8280328307192, -4622.810139991062, -1516.543509548129, -2068.609245849758, -3904.067445286208, -3514.901222574857, -2290.495013057591, -2882.503316700854, -1595.5792779420947, -7458.777124735967, -14731.34186641477, 0.016, -0.098, 0.992, 192.0, 0.0, 0.0, 0.0, 0.0, 0.0, 0.0, 0.0, 0.0, 0.0, 1.645923199417934E9, 0.0, 2022-02-27 11:53:19.417
232.0, 55.409974504706206, -2430.685154281277, -1938.7009070755134, -8894.13909842242, 276.8710585678886, 994.7867387278961, -4436.150722044793, -1320.9880973086474, -2024.9562889285432, -3982.253847390872, -3608.2644591646745, -2403.9971714016406, -2981.3874341711326, -1697.078549513644, -7560.186989329695, -14711.404110360636, 0.016, -0.098, 0.992, 192.0, 0.0, 0.0, 0.0, 0.0, 0.0, 0.0, 0.0, 0.0, 0.0, 1.645923199432452E9, 0.0, 2022-02-27 11:53:19.432
234.0, 2.3022296788966274, -2488.531468931612, -1986.287771020862, -8955.271119507684, 230.51354056758174, 923.8870053156621, -4489.146708148326, -1404.2259936602109, -1922.8088167677902, -3768.302949464673, -3397.9568955846903, -2156.026918414464, -2761.4909722198217, -1461.9158460993585, -7343.240957646484, -14588.134239689618, 0.014, -0.098, 0.986, 192.0, 0.0, 56.0, 126.0, 120.0, 15.0, 104.0, 0.0, 0.0, 0.0, 1.645923199440477E9, 0.0, 2022-02-27 11:53:19.440
236.0, -134.53514987649322, -2615.8023018601302, -2117.447807484604, -9079.345652979095, 87.21650686460816, 813.0894080507051, -4599.1843461018025, -1478.992578863213, -2135.7538861935004, -4033.707563126989, -3639.6463083799254, -2430.4169333478135, -3012.12108279718, -1719.7655701357808, -7580.6611872507565, -14797.257160813471, 0.014, -0.098, 0.986, 192.0, 0.0, 0.0, 0.0, 0.0, 0.0, 0.0, 0.0, 0.0, 0.0, 1.645923199447529E9, 0.0, 2022-02-27 11:53:19.447
238.0, 113.70332404414702, -2380.796060657032, -1877.9041621570782, -8844.808798409558, 334.8067801960445, 1053.7506406009961, -4392.341302912391, -1272.8647914963713, -1879.8264121802347, -3792.3087230096726, -3440.2463960941313, -2224.9149948257204, -2806.663847763997, -1519.2927741161316, -7380.590722631303, -14555.59009976269, 0.014, -0.098, 0.986, 192.0, 0.0, 0.0, 0.0, 0.0, 0.0, 0.0, 0.0, 0.0, 0.0, 1.645923199455051E9, 0.0, 2022-02-27 11:53:19.455
240.0, -128.56723410692624, -2614.5059006817223, -2115.0785225723416, -9084.352443737083, 89.76460573251316, 793.8892595635963, -4613.6235730199305, -1524.2995648741205, -2069.6374260947023, -3913.4775297018923, -3512.643696384871, -2285.756443233066, -2878.8376306101836, -1578.2566759892318, -7449.501150787014, -14721.350636643248, 0.014, -0.098, 0.986, 192.0, 0.0, 0.0, 0.0, 0.0, 0.0, 0.0, 0.0, 0.0, 0.0, 1.645923199463025E9, 0.0, 2022-02-27 11:53:19.463
242.0, 55.409974504706206, -2432.0709624375063, -1938.8350175422452, -8899.19059266932, 263.0353287500535, 975.0277966294046, -4451.349908274402, -1315.6236786393738, -2027.5937947742696, -3979.057547933763, -3610.8125580325795, -2410.099197637939, -2982.437966160532, -1696.8773838135462, -7556.521303239025, -14713.818098761809, 0.014, -0.098, 0.986, 192.0, 0.0, 0.0, 0.0, 0.0, 0.0, 0.0, 0.0, 0.0, 0.0, 1.645923199471065E9, 0.0, 2022-02-27 11:53:19.471
244.0, 18.730761853547317, -2480.5295444166118, -1970.3733289686834, -8952.253634006218, 243.52225584057044, 898.2048509365143, -4500.523746076077, -1380.734310237683, -1909.8001014948013, -3764.8607808185557, -3390.6925786367156, -2159.334976593849, -2744.7271638783413, -1470.5659712035622, -7332.914451708133, -14581.920454731042, 0.016, -0.10200000000000001, 0.986, 192.0, 0.0, 64.0, 126.0, 104.0, 15.0, 104.0, 0.0, 0.0, 0.0, 1.645923199477689E9, 0.0, 2022-02-27 11:53:19.477
246.0, -126.24265268357429, -2612.4495401918343, -2112.441016726615, -9075.545856421693, 90.43515806617238, 803.9698963129397, -4602.9394391702945, -1478.3667300184645, -2128.1319413342408, -4030.5559671587907, -3631.2867559536407, -2429.299346125048, -3003.716826881984, -1727.3204597616746, -7574.179181358717, -14797.570085235846, 0.016, -0.10200000000000001, 0.986, 192.0, 0.0, 0.0, 0.0, 0.0, 0.0, 0.0, 0.0, 0.0, 0.0, 1.645923199484696E9, 0.0, 2022-02-27 11:53:19.484
248.0, 124.0298299824989, -2378.426775744769, -1869.4775544974275, -8836.739818661192, 349.51422804763655, 1068.301626241401, -4368.134363667294, -1273.3788816188433, -1870.5727899757374, -3793.4710137213488, -3432.669154723782, -2221.1375500127733, -2800.226545360869, -1510.0838554005452, -7375.829801062322, -14552.080875883208, 0.016, -0.10200000000000001, 0.986, 192.0, 0.0, 0.0, 0.0, 0.0, 0.0, 0.0, 0.0, 0.0, 0.0, 1.645923199492939E9, 0.0, 2022-02-27 11:53:19.492
250.0, -129.23778644058544, -2624.318316497602, -2117.7607319069784, -9087.101708305087, 97.02892268048797, 813.2011667729815, -4594.579886744009, -1493.700026714805, -2069.2797981834174, -3917.5902506816687, -3512.3307719624963, -2290.4279578242254, -2877.384767220589, -1572.1546497529328, -7446.818941452378, -14716.120328440706, 0.016, -0.10200000000000001, 0.986, 192.0, 0.0, 0.0, 0.0, 0.0, 0.0, 0.0, 0.0, 0.0, 0.0, 1.645923199500716E9, 0.0, 2022-02-27 11:53:19.500
252.0, 57.6004454613263, -2437.6141950624224, -1938.4326861420498, -8900.889325247923, 269.5173346420926, 1000.0393986748933, -4434.9437278442065, -1322.2844984870553, -2031.773570987412, -3983.1255654246293, -3610.2090609322863, -2417.4082180748246, -2986.3048179513003, -1691.825889566647, -7552.676803192712, -14705.95028471354, 0.016, -0.10200000000000001, 0.986, 192.0, 0.0, 0.0, 0.0, 0.0, 0.0, 0.0, 0.0, 0.0, 0.0, 1.64592319950729E9, 0.0, 2022-02-27 11:53:19.507
254.0, 16.003849029999856, -2485.1340037744053, -1973.0778900477756, -8951.828950861567, 236.30264238150627, 932.5818339087766, -4508.36920837989, -1408.4057698733534, -1915.6339067976364, -3768.4817634203155, -3390.647875147805, -2163.581808040358, -2749.9798238253384, -1462.9440263443025, -7333.49559706397, -14585.206161165974, 0.016, -0.10200000000000001, 0.988, 192.0, 0.0, 64.0, 126.0, 104.0, 15.0, 112.0, 0.0, 0.0, 0.0, 1.645923199515465E9, 0.0, 2022-02-27 11:53:19.515
0.0, -127.71786781762455, -2615.779950115675, -2112.0386853264195, -9075.925836077433, 89.78695747696847, 812.2400417614034, -4581.90644763785, -1473.1140700714673, -2136.290328060428, -4025.1244932561513, -3636.1594362448977, -2428.7405525136655, -3006.533146683353, -1718.916203846479, -7577.0178529045415, -14794.954931134575, 0.016, -0.10200000000000001, 0.988, 192.0, 0.0, 0.0, 0.0, 0.0, 0.0, 0.0, 0.0, 0.0, 0.0, 1.645923199523408E9, 0.0, 2022-02-27 11:53:19.523
2.0, 135.51862663252672, -2369.977816340663, -1861.7885544048017, -8834.817568638036, 354.29750136107225, 1054.7341173570296, -4401.214945461148, -1268.2156286496675, -1877.166554590053, -3793.8062898881785, -3437.184207103754, -2224.7138291256224, -2797.901963937517, -1517.1023031595116, -7380.166039486652, -14552.460855538948, 0.016, -0.10200000000000001, 0.988, 192.0, 0.0, 0.0, 0.0, 0.0, 0.0, 0.0, 0.0, 0.0, 0.0, 1.645923199529924E9, 0.0, 2022-02-27 11:53:19.529
4.0, -113.77037927751294, -2610.0802552795717, -2104.550850933892, -9083.391318725506, 97.02892268048797, 801.8911840785962, -4622.877195224428, -1528.546396320629, -2052.9183212421326, -3898.233639983373, -3493.3094374310303, -2274.1558878607616, -2856.3964791770554, -1571.2382282302653, -7447.958880419598, -14718.266095908415, 0.016, -0.10200000000000001, 0.988, 192.0, 0.0, 0.0, 0.0, 0.0, 0.0, 0.0, 0.0, 0.0, 0.0, 1.645923199537921E9, 0.0, 2022-02-27 11:53:19.537
6.0, 44.72584065506943, -2452.1204772139167, -1946.322851934773, -8912.266363175675, 267.95271253022105, 983.5214595224214, -4428.282907996525, -1312.7626553490943, -2037.741486756979, -3990.5910480727016, -3612.1089592109875, -2419.978668687185, -2976.715919579973, -1701.3253809601524, -7560.231692818606, -14719.093110453263, 0.016, -0.10200000000000001, 0.988, 192.0, 0.0, 0.0, 0.0, 0.0, 0.0, 0.0, 0.0, 0.0, 0.0, 1.645923199545983E9, 0.0, 2022-02-27 11:53:19.545
8.0, 15.959145541089242, -2486.855088097464, -1971.647378402636, -8953.013593317699, 247.25499716460672, 939.9132060901173, -4449.919396629261, -1371.123060121901, -1922.3617818786838, -3769.55464715417, -3400.2367735191315, -2170.2649796324945, -2750.315099992168, -1472.443517737808, -7327.147701638663, -14575.326690116728, 0.02, -0.106, 0.988, 192.0, 0.0, 80.0, 126.0, 88.0, 15.0, 112.0, 0.0, 0.0, 0.0, 1.645923199559561E9, 0.0, 2022-02-27 11:53:19.559
10.0, -135.7421440770798, -2624.720647897798, -2117.9171941181653, -9083.078394303131, 81.09212888385402, 803.1652335125486, -4602.313590325545, -1490.7272447022492, -2138.6819647171455, -4032.7017346265, -3638.5287211571604, -2430.9310234702857, -3000.5875826582414, -1727.0075353393001, -7570.066460378941, -14793.435012511614, 0.02, -0.106, 0.988, 192.0, 0.0, 0.0, 0.0, 0.0, 0.0, 0.0, 0.0, 0.0, 0.0, 1.645923199567784E9, 0.0, 2022-02-27 11:53:19.567
12.0, 123.82866428240112, -2379.9913978566406, -1869.8351824087124, -8839.399676251374, 339.0536116425528, 1034.1928642026025, -4366.659148533243, -1268.7297187721394, -1886.777804705835, -3809.4078075179827, -3450.0811636544663, -2242.3940589897707, -2804.8533564631175, -1544.796114539637, -7389.062033779864, -14562.586195777201, 0.02, -0.106, 0.988, 192.0, 0.0, 0.0, 0.0, 0.0, 0.0, 0.0, 0.0, 0.0, 0.0, 1.645923199575664E9, 0.0, 2022-02-27 11:53:19.575
14.0, -115.31264964492914, -2615.0423425486497, -2107.5906881798137, -9075.679966888425, 93.47499531209414, 797.4431869319901, -4624.687686525308, -1512.8331199685479, -2059.2662166674395, -3907.710779632423, -3497.064530499522, -2276.3687105618374, -2856.6647001105193, -1575.4627079323184, -7444.874339684766, -14715.29331389586, 0.02, -0.106, 0.988, 192.0, 0.0, 0.0, 0.0, 0.0, 0.0, 0.0, 0.0, 0.0, 0.0, 1.645923199582687E9, 0.0, 2022-02-27 11:53:19.582
16.0, 51.923102369678304, -2449.0359364790843, -1945.808761812301, -8905.851412517002, 261.2918926825396, 975.0948518627706, -4447.371297761357, -1332.521597447586, -2036.4897890674818, -3983.572600313735, -3610.8125580325795, -2419.24106112016, -2978.7946318143167, -1703.4264449389511, -7572.279283080016, -14720.702436054044, 0.02, -0.106, 0.988, 192.0, 0.0, 0.0, 0.0, 0.0, 0.0, 0.0, 0.0, 0.0, 0.0, 1.645923199590321E9, 0.0, 2022-02-27 11:53:19.590
18.0, 30.219558503575147, -2474.0698902690283, -1964.4054131991165, -8934.908680308901, 237.15200867080793, 939.019136311905, -4494.354664606412, -1385.6293422733954, -1904.4356828255277, -3758.7140510933464, -3382.9141715662686, -2161.614854528291, -2738.625137642043, -1465.2909595121098, -7339.485864577993, -14577.137181417607, 0.016, -0.1, 0.99, 192.0, 0.0, 64.0, 126.0, 112.0, 15.0, 120.0, 0.0, 0.0, 0.0, 1.645923199598326E9, 0.0, 2022-02-27 11:53:19.598
20.0, -125.39328639427262, -2617.6574966499206, -2113.156272549185, -9072.394260453495, 83.59552426284841, 806.7415126253978, -4619.971468445238, -1496.8069191940929, -2124.510958732481, -4031.360629959182, -3622.9495552718113, -2422.437360577269, -2992.1833267430457, -1711.8307008541467, -7585.332701841915, -14795.469021257046, 0.016, -0.1, 0.99, 192.0, 0.0, 0.0, 0.0, 0.0, 0.0, 0.0, 0.0, 0.0, 0.0, 1.64592319960635E9, 0.0, 2022-02-27 11:53:19.606
22.0, 125.14741720526425, -2379.2314385451605, -1862.8614381386565, -8834.303478515563, 357.5608560515471, 1041.0101462614712, -4360.110087407838, -1271.3448728734104, -1879.1111563576649, -3805.496252238304, -3440.402858305318, -2237.6778409097005, -2797.4549290484106, -1526.2888701306429, -7391.900705325688, -14559.680468998013, 0.016, -0.1, 0.99, 192.0, 0.0, 0.0, 0.0, 0.0, 0.0, 0.0, 0.0, 0.0, 0.0, 1.645923199612457E9, 0.0, 2022-02-27 11:53:19.612
24.0, -115.98320197858835, -2611.2425459912474, -2102.583897421825, -9076.484629688815, 89.60814352132601, 798.8289950882191, -4608.795596217585, -1512.2743263571651, -2064.250655680973, -3900.4688144289034, -3497.511565388628, -2286.538754289002, -2857.3352524441784, -1581.5647341686172, -7445.746057718523, -14716.589715074268, 0.016, -0.1, 0.99, 192.0, 0.0, 0.0, 0.0, 0.0, 0.0, 0.0, 0.0, 0.0, 0.0, 1.645923199619912E9, 0.0, 2022-02-27 11:53:19.619
26.0, 41.037802819943764, -2453.7745063036095, -1944.4453054005273, -8907.885421262434, 251.79240128903407, 971.2056483275471, -4443.1021145703935, -1329.2805945015664, -2045.8551699942554, -3987.17123117104, -3613.0700842225656, -2426.818302490509, -2981.7227103379623, -1714.6470206555155, -7572.055765635463, -14727.229145434994, 0.016, -0.1, 0.99, 192.0, 0.0, 0.0, 0.0, 0.0, 0.0, 0.0, 0.0, 0.0, 0.0, 1.645923199627862E9, 0.0, 2022-02-27 11:53:19.627
28.0, 19.267203720474686, -2482.004759550662, -1965.1430207661417, -8940.071933278077, 234.33568886943925, 941.343717735257, -4485.033987168549, -1392.9830661991914, -1916.0585899422874, -3774.0249960452315, -3386.66926463476, -2174.0647761898967, -2746.090620290115, -1468.9119421138696, -7339.061181433342, -14579.595873307691, 0.016, -0.10200000000000001, 0.992, 192.0, 0.0, 64.0, 126.0, 104.0, 15.5, 0.0, 0.0, 0.0, 0.0, 1.6459231996359E9, 0.0, 2022-02-27 11:53:19.635
30.0, -138.9384435341887, -2626.285270009669, -2117.6936766736126, -9078.920969834444, 70.45269852312786, 810.7871783718084, -4629.225090649735, -1487.7097592007829, -2142.9064444191986, -4039.250795751905, -3627.732828585247, -2430.014601947618, -3001.3251902252664, -1708.8355670971355, -7583.343396585393, -14794.284378800916, 0.016, -0.10200000000000001, 0.992, 192.0, 0.0, 0.0, 0.0, 0.0, 0.0, 0.0, 0.0, 0.0, 0.0, 1.645923199642529E9, 0.0, 2022-02-27 11:53:19.642
32.0, 121.83935902587879, -2376.3704152548808, -1867.2423800518968, -8832.649449425871, 338.51716977562546, 1037.5679776153538, -4369.810744501441, -1274.2729513970557, -1896.0984821436982, -3796.3767405005387, -3449.209445620709, -2239.667146166223, -2814.0846269231592, -1539.7446202927376, -7399.209725762574, -14559.054620153263, 0.016, -0.10200000000000001, 0.992, 192.0, 0.0, 0.0, 0.0, 0.0, 0.0, 0.0, 0.0, 0.0, 0.0, 1.645923199650706E9, 0.0, 2022-02-27 11:53:19.650
34.0, -115.8267397674012, -2613.7682931146974, -2098.962914820065, -9072.930702320422, 97.20773663613042, 793.285762463303, -4618.809177733562, -1516.2976403591206, -2061.188466690596, -3905.0285702977862, -3492.6835885862815, -2279.83323095241, -2858.542246644765, -1588.0690918051114, -7444.293194328928, -14710.353578371238, 0.016, -0.10200000000000001, 0.992, 192.0, 0.0, 0.0, 0.0, 0.0, 0.0, 0.0, 0.0, 0.0, 0.0, 1.645923199658592E9, 0.0, 2022-02-27 11:53:19.658
36.0, 37.260358006996874, -2461.0611749960394, -1946.7251833349687, -8909.271229418664, 253.82641003446702, 967.7858314258852, -4438.207082534681, -1328.9900218236473, -2050.7054985410573, -4001.789272044811, -3610.723151054758, -2434.5743578165007, -2992.1386232541354, -1719.497349202317, -7569.999405145575, -14724.748101800455, 0.015, -0.10300000000000001, 0.99, 192.0, 0.0, 56.0, 126.0, 96.0, 15.0, 112.0, 0.0, 0.0, 0.0, 1.645923199665766E9, 0.0, 2022-02-27 11:53:19.665
38.0, 24.452808434105926, -2474.4722216692235, -1962.9972532984323, -8938.395552443928, 241.89057849533305, 933.4759036869889, -4491.627751782865, -1382.4777463051971, -1923.389962123628, -3766.4477546748826, -3385.5963809009054, -2174.2659418899943, -2751.3656319815677, -1473.7622706606712, -7337.228338388007, -14574.700841271979, 0.015, -0.10300000000000001, 0.99, 192.0, 0.0, 0.0, 0.0, 0.0, 0.0, 0.0, 0.0, 0.0, 0.0, 1.645923199680322E9, 0.0, 2022-02-27 11:53:19.680
40.0, -142.91705404723336, -2628.542796199655, -2120.0406098414196, -9079.122135534542, 67.92695139967816, 795.4091781865571, -4626.766398759652, -1508.9439164333246, -2140.6936217181233, -4032.9029003265982, -3621.496691882216, -2428.3829246023806, -3006.5107949388976, -1716.8598433565908, -7582.0693471514405, -14798.218285825049, 0.015, -0.10300000000000001, 0.99, 192.0, 0.0, 0.0, 0.0, 0.0, 0.0, 0.0, 0.0, 0.0, 0.0, 1.645923199688218E9, 0.0, 2022-02-27 11:53:19.688
42.0, 123.80631253794581, -2376.236304788149, -1862.5038102273716, -8829.74372264668, 337.80191395305565, 1043.625300362742, -4395.515250625044, -1279.9279427442484, -1895.5396885323155, -3805.496252238304, -3441.989832161645, -2234.5262449415022, -2818.778493258774, -1537.509445847207, -7403.992999076009, -14566.542454545792, 0.015, -0.10300000000000001, 0.99, 192.0, 0.0, 0.0, 0.0, 0.0, 0.0, 0.0, 0.0, 0.0, 0.0, 1.64592319969491E9, 0.0, 2022-02-27 11:53:19.694
44.0, -116.20671942314142, -2607.5321564116666, -2102.4274352106377, -9070.293196474695, 92.82679472289023, 812.9776493284285, -4640.468018110754, -1515.9847159367462, -2067.826934793822, -3892.422186424993, -3487.2074111947313, -2273.217114593639, -2861.447973423955, -1565.9632165388127, -7449.94818567612, -14711.471165594003, 0.015, -0.10300000000000001, 0.99, 192.0, 0.0, 0.0, 0.0, 0.0, 0.0, 0.0, 0.0, 0.0, 0.0, 1.645923199702776E9, 0.0, 2022-02-27 11:53:19.702
46.0, 40.45665746410578, -2451.2487591801596, -1948.9156542915887, -8910.925258508356, 259.70491882621275, 974.3125408068348, -4444.107943070882, -1338.8024376395272, -2055.779344532412, -3984.801946258777, -3611.1925376883196, -2424.270203622604, -2995.849012833716, -1702.1970989939093, -7578.090736638396, -14722.736444799477, 0.014499999999999999, -0.1005, 0.987, 192.0, 0.0, 56.0, 126.0, 120.0, 15.0, 96.0, 0.0, 0.0, 0.0, 1.645923199710842E9, 0.0, 2022-02-27 11:53:19.710
48.0, 23.13405551124281, -2470.4489076672685, -1963.131363765164, -8935.19925298682, 246.78561053104528, 939.9802613234832, -4469.767745705574, -1374.8558014459375, -1919.165482421575, -3755.1154202360417, -3381.9083430657797, -2167.023976686475, -2740.6814981319308, -1462.6534536663835, -7335.529605809404, -14569.31407085825, 0.014499999999999999, -0.1005, 0.987, 192.0, 0.0, 0.0, 0.0, 0.0, 0.0, 0.0, 0.0, 0.0, 0.0, 1.645923199718115E9, 0.0, 2022-02-27 11:53:19.718
50.0, -143.94523429217747, -2628.2745752661917, -2123.8180546543663, -9081.446716957893, 75.72771021458033, 794.5151084083449, -4618.25038412218, -1494.1247098594558, -2149.7907817114333, -4008.964182014964, -3623.6201076054704, -2425.2313286341823, -2998.754739612906, -1707.4050554519958, -7580.080041894918, -14790.886913643708, 0.014499999999999999, -0.1005, 0.987, 192.0, 0.0, 0.0, 0.0, 0.0, 0.0, 0.0, 0.0, 0.0, 0.0, 1.645923199725504E9, 0.0, 2022-02-27 11:53:19.725
52.0, 121.10175145885367, -2377.6668164332887, -1866.907103885067, -8829.676667413314, 341.93698667728745, 1047.1792277311358, -4389.882611022307, -1274.362358374877, -1903.653371769592, -3798.924839368444, -3450.8858264548576, -2247.0655735809296, -2817.571499058187, -1532.0109167112014, -7408.753920644989, -14562.362678332649, 0.014499999999999999, -0.1005, 0.987, 192.0, 0.0, 0.0, 0.0, 0.0, 0.0, 0.0, 0.0, 0.0, 0.0, 1.645923199732529E9, 0.0, 2022-02-27 11:53:19.732
54.0, -116.51964384551572, -2610.102607024027, -2102.9191735886543, -9070.181437752419, 97.76653024751309, 808.4178934595459, -4621.692552768297, -1513.861300213492, -2071.4926208844927, -3880.0840234856637, -3488.54851586205, -2270.40079479227, -2859.637482123075, -1563.2586554597206, -7446.5954240078245, -14709.168935915106, 0.014499999999999999, -0.1005, 0.987, 192.0, 0.0, 0.0, 0.0, 0.0, 0.0, 0.0, 0.0, 0.0, 0.0, 1.645923199740546E9, 0.0, 2022-02-27 11:53:19.740
56.0, 28.409067202695276, -2456.8590470384415, -1957.4093171846055, -8911.081720719543, 245.93624424174362, 965.9306366360947, -4468.247827082614, -1345.060926087013, -2068.8774667832217, -3990.07695795023, -3620.602622104004, -2432.830921748987, -2999.112367524191, -1716.9939538233227, -7578.582475016413, -14731.811253048332, 0.01525, -0.09825, 0.9855, 192.0, 0.0, 64.0, 126.5, 0.0, 15.0, 96.0, 0.0, 0.0, 0.0, 1.645923199747734E9, 0.0, 2022-02-27 11:53:19.747
58.0, 22.061171777388072, -2478.070852526528, -1961.7008521200244, -8928.940764539333, 246.13740994184138, 942.4836567024776, -4481.860039455895, -1375.2804845905882, -1920.908918489089, -3743.179588696908, -3380.5672383984615, -2162.6206830287797, -2748.035222057727, -1468.4649072247635, -7337.630669788203, -14570.364602847649, 0.01525, -0.09825, 0.9855, 192.0, 0.0, 0.0, 0.0, 0.0, 0.0, 0.0, 0.0, 0.0, 0.0, 1.645923199755181E9, 0.0, 2022-02-27 11:53:19.755
60.0, -152.97533905212154, -2642.870264395507, -2122.0746185868525, -9083.726594892334, 78.02993989347695, 792.0787682627164, -4619.993820189693, -1496.9857331497353, -2149.0755258888635, -4018.329562941738, -3620.401456403906, -2421.364476843414, -2996.2960477228225, -1699.9619245483786, -7575.0285476480185, -14788.696442687089, 0.01525, -0.09825, 0.9855, 192.0, 0.0, 0.0, 0.0, 0.0, 0.0, 0.0, 0.0, 0.0, 0.0, 1.645923199763122E9, 0.0, 2022-02-27 11:53:19.763
62.0, 100.11346341532034, -2399.6162294884, -1863.6437491945924, -8830.235461024698, 348.46369605823713, 1040.6748700946416, -4382.126555696315, -1271.4342798512316, -1898.8253949672455, -3801.0259033472425, -3449.0529834095223, -2252.7429166725774, -2813.0564466782153, -1536.3248033910756, -7405.535269443425, -14563.748486488877, 0.01525, -0.09825, 0.9855, 192.0, 0.0, 0.0, 0.0, 0.0, 0.0, 0.0, 0.0, 0.0, 0.0, 1.645923199770307E9, 0.0, 2022-02-27 11:53:19.770
64.0, -163.9947490685879, -2659.142334358971, -2102.695656144101, -9069.08620227411, 92.69268425615839, 804.2381172464035, -4633.20370116278, -1508.0721983995675, -2072.967836018543, -3887.147174733541, -3496.6621990993262, -2279.6097135078567, -2854.988319276371, -1569.0477572736452, -7444.7178774735785, -14706.57613355829, 0.01525, -0.09825, 0.9855, 192.0, 0.0, 0.0, 0.0, 0.0, 0.0, 0.0, 0.0, 0.0, 0.0, 1.64592319977782E9, 0.0, 2022-02-27 11:53:19.777
66.0, -42.065983064887895, -2535.112504376472, -1959.845657330234, -8915.775587055157, 248.3949361318274, 963.7625174239299, -4460.491771756622, -1339.2047690397226, -2077.616998865247, -4005.5667168577575, -3634.9747937887664, -2447.2477969226597, -2997.3912832011324, -1710.3554857200963, -7578.515419783047, -14729.084340224785, 0.015625, -0.102125, 0.98675, 192.0, 0.0, 64.0, 126.0, 88.0, 15.0, 112.0, 0.0, 0.0, 0.0, 1.645923199785766E9, 0.0, 2022-02-27 11:53:19.785
68.0, -71.97261714608874, -2571.881124005452, -1966.6629393891026, -8935.512177409193, 254.8098867905005, 933.9899938094609, -4450.522893729555, -1379.41555731482, -1940.6678605875804, -3775.4778594348268, -3407.1434625558213, -2184.4583373616147, -2747.5658354241655, -1460.4406309653082, -7328.645268517169, -14571.146913903585, 0.015625, -0.102125, 0.98675, 192.0, 0.0, 0.0, 0.0, 0.0, 0.0, 0.0, 0.0, 0.0, 0.0, 1.645923199793789E9, 0.0, 2022-02-27 11:53:19.793
70.0, -275.21702947819585, -2759.5240187077547, -2141.2300635850506, -9094.455432230883, 72.7996316909351, 781.1711169685266, -4611.2766398521235, -1514.2636316136875, -2176.992854713542, -4050.3372610017377, -3653.4149829643948, -2449.393564390369, -3000.0064373024034, -1710.3554857200963, -7569.574722000924, -14799.179410836627, 0.015625, -0.102125, 0.98675, 192.0, 0.0, 0.0, 0.0, 0.0, 0.0, 0.0, 0.0, 0.0, 0.0, 1.645923199807416E9, 0.0, 2022-02-27 11:53:19.807
72.0, -41.26132026449684, -2529.569271751556, -1883.1121186151647, -8840.494911729684, 341.7805244661003, 1043.9382247851163, -4380.450174862168, -1272.8200880074608, -1955.777639839368, -3842.0860579116415, -3503.568888136016, -2289.220963623639, -2832.994202732349, -1546.181922695866, -7408.597458433803, -14572.823294737733, 0.015625, -0.102125, 0.98675, 192.0, 0.0, 0.0, 0.0, 0.0, 0.0, 0.0, 0.0, 0.0, 0.0, 1.645923199815407E9, 0.0, 2022-02-27 11:53:19.815
74.0, -308.3423147609609, -2795.063292391693, -2118.1630633071736, -9084.50890594827, 106.19313790716386, 809.5578324267665, -4595.764529200141, -1503.0430558971234, -2129.9200808906653, -3919.132521049085, -3546.528940979116, -2315.283097658527, -2867.549999660254, -1554.4297163998745, -7436.112455858285, -14702.798688745343, 0.015625, -0.102125, 0.98675, 192.0, 0.0, 0.0, 0.0, 0.0, 0.0, 0.0, 0.0, 0.0, 0.0, 1.645923199823507E9, 0.0, 2022-02-27 11:53:19.823
76.0, -192.18029882673014, -2677.29195085668, -1987.4947652214487, -8934.327534953063, 244.57278782996988, 952.2290172849915, -4464.984472392139, -1344.0774493309796, -2140.7830286959447, -4061.80370590731, -3689.3118845596177, -2497.7403876471985, -3014.468015964987, -1733.8695208870795, -7575.632044748312, -14734.515814127424, 0.0148125, -0.1060625, 0.988375, 192.0, 0.0, 56.0, 126.0, 72.0, 15.0, 120.0, 0.0, 0.0, 0.0, 1.645923199830063E9, 0.0, 2022-02-27 11:53:19.830
78.0, -184.62540920083634, -2667.703052485353, -1983.002064585932, -8937.926165810368, 256.0168809910871, 937.2980519888464, -4466.727908459653, -1373.9393799232698, -1999.162375827119, -3807.172633072452, -3454.8867887123574, -2215.4602069211255, -2762.6309111870423, -1472.9352561158248, -7336.088399420786, -14571.012803436854, 0.0148125, -0.1060625, 0.988375, 192.0, 0.0, 0.0, 0.0, 0.0, 0.0, 0.0, 0.0, 0.0, 0.0, 1.645923199837991E9, 0.0, 2022-02-27 11:53:19.837
80.0, -357.78437349610016, -2829.4179236195, -2156.0045666700084, -9097.249400287796, 72.82198343539041, 780.9699512684288, -4625.022962692137, -1510.0838554005452, -2227.06076229343, -4069.1797815775612, -3690.2506578267407, -2473.578151891011, -3012.3446002417327, -1715.9881253228339, -7570.40173654577, -14800.609922481766, 0.0148125, -0.1060625, 0.988375, 192.0, 0.0, 0.0, 0.0, 0.0, 0.0, 0.0, 0.0, 0.0, 0.0, 1.645923199845957E9, 0.0, 2022-02-27 11:53:19.845
82.0, -78.25345733803003, -2561.845190745019, -1892.7233687309467, -8840.539615218595, 351.0564984150527, 1029.0966664667924, -4382.908866752251, -1277.4692508541646, -1983.4043959861276, -3863.9013605000214, -3525.473597702217, -2308.823443510943, -2845.5782348606867, -1559.056527502123, -7417.225231793551, -14577.494809328891, 0.0148125, -0.1060625, 0.988375, 192.0, 0.0, 0.0, 0.0, 0.0, 0.0, 0.0, 0.0, 0.0, 0.0, 1.645923199853201E9, 0.0, 2022-02-27 11:53:19.853
84.0, -304.00607633663134, -2782.3898532855337, -2122.566356964869, -9077.624568656036, 109.65765829773645, 795.6773991200208, -4599.810194946551, -1499.578535506551, -2136.513845504981, -3932.8564921446437, -3552.0051183706664, -2315.9983534810967, -2866.7900403487733, -1579.150745767444, -7437.9676506480755, -14707.805479503331, 0.0148125, -0.1060625, 0.988375, 192.0, 0.0, 0.0, 0.0, 0.0, 0.0, 0.0, 0.0, 0.0, 0.0, 1.64592319985985E9, 0.0, 2022-02-27 11:53:19.859
86.0, -148.95202505016627, -2623.5583571861216, -1991.3839687566722, -8932.181767485354, 240.32595638346154, 954.598302197254, -4467.912550915784, -1343.451600486231, -2141.8112089408887, -4043.0058888203966, -3691.6588177274252, -2487.5032886866675, -3019.7653794008947, -1734.6518319430152, -7586.852620464876, -14738.717942085023, 0.01540625, -0.10703125, 0.9901875, 192.0, 0.0, 64.0, 126.0, 80.0, 15.5, 0.0, 0.0, 0.0, 0.0, 1.645923199867536E9, 0.0, 2022-02-27 11:53:19.867
88.0, -120.74412354756875, -2611.130787268971, -1977.8164598723008, -8935.758046598203, 253.06645072298656, 946.2163980265138, -4490.2419436266355, -1377.0686241470128, -1979.6493029176359, -3798.298990523695, -3445.5661112744942, -2210.743988841056, -2761.6027309420983, -1477.6738259403498, -7341.11754192323, -14572.35390810417, 0.01540625, -0.10703125, 0.9901875, 192.0, 0.0, 0.0, 0.0, 0.0, 0.0, 0.0, 0.0, 0.0, 0.0, 1.645923199875517E9, 0.0, 2022-02-27 11:53:19.875
90.0, -277.27338996808413, -2757.4006029845004, -2146.7732962099667, -9096.377682254039, 72.62081773529265, 773.3033029202585, -4624.263003380657, -1513.123692646467, -2196.215354945106, -4049.3090807567933, -3667.8542098825233, -2459.7424220731764, -3004.141510026635, -1722.470131214873, -7579.320082583437, -14799.581742236824, 0.01540625, -0.10703125, 0.9901875, 192.0, 0.0, 0.0, 0.0, 0.0, 0.0, 0.0, 0.0, 0.0, 0.0, 1.645923199884453E9, 0.0, 2022-02-27 11:53:19.884
92.0, 6.303191936396591, -2488.0397305535953, -1881.9945313923993, -8832.60474593696, 351.369422837427, 1033.1870357021137, -4390.128480211315, -1278.0950996989131, -1953.7212793494798, -3843.3601073455943, -3505.4240829258065, -2291.925524702731, -2836.995164989849, -1564.733870593771, -7417.851080638299, -14582.769821020345, 0.01540625, -0.10703125, 0.9901875, 192.0, 0.0, 0.0, 0.0, 0.0, 0.0, 0.0, 0.0, 0.0, 0.0, 1.645923199890198E9, 0.0, 2022-02-27 11:53:19.890
94.0, -215.40376131579416, -2704.784596536708, -2111.993981837509, -9067.990966795798, 108.36125711932864, 810.9883440719061, -4604.012322904149, -1497.7903959501264, -2093.7102548730677, -3907.1519860210406, -3521.517338933628, -2294.0042369370744, -2852.060240752726, -1565.02444327169, -7441.119246616274, -14706.062043435819, 0.01540625, -0.10703125, 0.9901875, 192.0, 0.0, 0.0, 0.0, 0.0, 0.0, 0.0, 0.0, 0.0, 0.0, 1.64592319989839E9, 0.0, 2022-02-27 11:53:19.898
96.0, -74.45366078062783, -2563.36510936798, -1983.5608581973147, -8932.695857607825, 239.14131392733026, 947.0657643158155, -4469.655986983298, -1353.2193128132, -2102.8297666108333, -4040.7260108859555, -3666.8036778931237, -2473.7569658466537, -3008.298934495322, -1722.0007445813114, -7582.7398994851, -14745.44581716607, 0.013703125, -0.106515625, 0.99109375, 192.0, 0.0, 48.0, 126.0, 88.0, 15.5, 0.0, 0.0, 0.0, 0.0, 1.645923199905337E9, 0.0, 2022-02-27 11:53:19.905
98.0, -45.75402090001356, -2544.656699258888, -1964.070137032287, -8926.9067557939, 261.87303803837756, 947.2892817603686, -4474.863943441384, -1372.5088682781302, -1936.9574710079994, -3776.371929213039, -3415.8829946378464, -2187.8558025188213, -2747.074097046149, -1466.9002851128919, -7331.282774362895, -14571.661004026057, 0.013703125, -0.106515625, 0.99109375, 192.0, 0.0, 0.0, 0.0, 0.0, 0.0, 0.0, 0.0, 0.0, 0.0, 1.645923199912859E9, 0.0, 2022-02-27 11:53:19.912
100.0, -222.22104337466283, -2709.634925083509, -2140.6936217181233, -9096.109461320575, 74.38660554726191, 778.4218524005238, -4638.165788431858, -1512.3413815905312, -2170.086165676852, -4029.9524700584975, -3648.207026506308, -2438.9329479852854, -2991.5798296427524, -1704.5887356506273, -7565.014966132041, -14800.900495159685, 0.013703125, -0.106515625, 0.99109375, 192.0, 0.0, 0.0, 0.0, 0.0, 0.0, 0.0, 0.0, 0.0, 0.0, 1.645923199927949E9, 0.0, 2022-02-27 11:53:19.927
102.0, 51.74428841403585, -2449.7064888127434, -1877.9935691348994, -8839.399676251374, 345.73678323468965, 1019.9548029845719, -4369.0284334455055, -1280.933771244737, -1930.0284302268542, -3835.112313641586, -3490.671931585304, -2286.181126377717, -2829.79790327524, -1566.924341550391, -7409.893859612211, -14586.971948977942, 0.013703125, -0.106515625, 0.99109375, 192.0, 0.0, 0.0, 0.0, 0.0, 0.0, 0.0, 0.0, 0.0, 0.0, 1.645923199935067E9, 0.0, 2022-02-27 11:53:19.935
104.0, -175.3494352518839, -2666.5184100292217, -2106.7413218905117, -9064.861722572055, 110.30585888694036, 815.3692859851463, -4612.349523585978, -1513.3695618354752, -2083.026121023431, -3897.071349271697, -3512.2413649846753, -2285.5776292774235, -2850.8755982965945, -1574.8145073431144, -7426.501205742504, -14709.079528937285, 0.013703125, -0.106515625, 0.99109375, 192.0, 0.0, 0.0, 0.0, 0.0, 0.0, 0.0, 0.0, 0.0, 0.0, 1.645923199942539E9, 0.0, 2022-02-27 11:53:19.942
106.0, -35.472218450572306, -2526.5294345056336, -1975.4248232155828, -8929.834834317546, 242.0470407065202, 959.1357063216814, -4474.059280640993, -1372.7770892115939, -2093.598496150791, -4022.934022299531, -3656.1865992768526, -2458.53542787259, -3004.8344141047496, -1719.050314313211, -7579.2530273500715, -14747.993916033975, 0.0118515625, -0.1042578125, 0.9925468749999999, 192.0, 0.0, 40.0, 126.0, 104.0, 15.5, 8.0, 0.0, 0.0, 0.0, 1.645923199950482E9, 0.0, 2022-02-27 11:53:19.950
108.0, -22.754075855502588, -2517.588736723511, -1962.3043492203176, -8927.9572877833, 259.03436649255354, 950.6420434286647, -4467.756088704597, -1372.5312200225856, -1922.8982237456114, -3771.3204349661396, -3407.0540555780003, -2186.447642618137, -2738.4686754308555, -1455.3667849739534, -7323.236146358985, -14575.438448839004, 0.0118515625, -0.1042578125, 0.9925468749999999, 192.0, 0.0, 0.0, 0.0, 0.0, 0.0, 0.0, 0.0, 0.0, 0.0, 1.64592319995913E9, 0.0, 2022-02-27 11:53:19.959
110.0, -208.11709262336407, -2697.0732446996267, -2145.8121711983886, -9095.729481664835, 66.20586707661953, 782.6016286136662, -4604.48170953771, -1493.1188813589672, -2165.6605202747014, -4051.320737757771, -3645.1224857714756, -2443.850331765453, -2990.395187186621, -1708.500290930306, -7558.130628839806, -14799.313521303358, 0.0118515625, -0.1042578125, 0.9925468749999999, 192.0, 0.0, 0.0, 0.0, 0.0, 0.0, 0.0, 0.0, 0.0, 0.0, 1.645923199965106E9, 0.0, 2022-02-27 11:53:19.965
112.0, 71.190306090153, -2430.4392850922686, -1881.100461614187, -8829.296687757575, 340.95350992125395, 1053.9965097900044, -4390.128480211315, -1263.6558727807849, -1928.2179389259743, -3843.4048108345046, -3490.2025449517423, -2281.8672396978427, -2833.0165544768042, -1561.828143814581, -7408.575106689347, -14583.529780331824, 0.0118515625, -0.1042578125, 0.9925468749999999, 192.0, 0.0, 0.0, 0.0, 0.0, 0.0, 0.0, 0.0, 0.0, 0.0, 1.645923199973078E9, 0.0, 2022-02-27 11:53:19.973
114.0, -164.28532174650692, -2657.3988982914566, -2106.6295631682356, -9064.504094660771, 108.62947805279232, 814.4305127180235, -4600.681912980308, -1498.43859653933, -2071.358510417761, -3891.706930602423, -3502.8089288245355, -2278.6485884962785, -2841.890197025561, -1561.2917019476536, -7426.99294412052, -14706.598485302746, 0.0118515625, -0.1042578125, 0.9925468749999999, 192.0, 0.0, 0.0, 0.0, 0.0, 0.0, 0.0, 0.0, 0.0, 0.0, 1.645923199980241E9, 0.0, 2022-02-27 11:53:19.980
116.0, -55.52173322698275, -2554.0891354190276, -1984.3655209977057, -8932.248822718719, 234.8497789919113, 951.9160928626172, -4463.688071213731, -1355.2533215586332, -2097.6665136416573, -4029.03604853583, -3656.9689103327887, -2466.8949802988745, -3000.341713469233, -1723.6771254154594, -7578.180143616217, -14751.212567235538, 0.012, -0.10200000000000001, 0.998, 192.0, 0.0, 48.0, 126.0, 104.0, 15.5, 24.0, 0.0, 0.0, 0.0, 1.64592319998832E9, 0.0, 2022-02-27 11:53:19.988
118.0, -63.09897459733184, -2567.3437198810243, -1957.9457590515328, -8921.81055805809, 274.7252911001791, 950.5526364508435, -4473.83576319644, -1385.5622870400296, -1929.0002499819102, -3784.1503362834856, -3410.2056515461986, -2192.236744432061, -2732.836035828118, -1464.9556833452802, -7322.8785184477, -14576.533684317314, 0.012, -0.10200000000000001, 0.998, 192.0, 0.0, 0.0, 0.0, 0.0, 0.0, 0.0, 0.0, 0.0, 0.0, 1.645923199994721E9, 0.0, 2022-02-27 11:53:19.994
120.0, -306.2859542710727, -2789.78828070024, -2148.4049735552044, -9099.194002055407, 76.71118697061384, 777.05839598875, -4601.330113569512, -1528.121713175978, -2183.5642675834024, -4055.768734904377, -3653.280872497663, -2448.365384145425, -2976.470050390965, -1700.8783460710463, -7552.92267238172, -14808.343626063303, 0.012, -0.10200000000000001, 0.998, 192.0, 0.0, 0.0, 0.0, 0.0, 0.0, 0.0, 0.0, 0.0, 0.0, 1.645923200002742E9, 0.0, 2022-02-27 11:53:20.002
122.0, -90.5022132995383, -2579.5254206091668, -1888.007150650877, -8839.109103573455, 356.5103240621477, 1050.0626027658705, -4351.214093114626, -1265.1534396592904, -1971.714433636002, -3883.5038403873255, -3526.993516325178, -2321.8768622728426, -2832.748333543341, -1557.246036201243, -7405.6246764212465, -14591.911684502566, 0.012, -0.10200000000000001, 0.998, 192.0, 0.0, 0.0, 0.0, 0.0, 0.0, 0.0, 0.0, 0.0, 0.0, 1.6459232000109E9, 0.0, 2022-02-27 11:53:20.010
124.0, -372.89415274788774, -2848.3722029176, -2120.0406098414196, -9069.667347629947, 120.31944040291792, 826.3886960016127, -4572.384604499889, -1478.254971296188, -2131.015316368975, -3940.545492237269, -3551.312214292552, -2324.2908506740155, -2840.4373336359663, -1548.8417802860477, -7414.028932336442, -14703.446889334547, 0.012, -0.10200000000000001, 0.998, 192.0, 0.0, 0.0, 0.0, 0.0, 0.0, 0.0, 0.0, 0.0, 0.0, 1.645923200017418E9, 0.0, 2022-02-27 11:53:20.017
126.0, -282.79427084854495, -2761.714489664375, -2008.8183294318117, -8944.944613569334, 233.32986036895042, 956.1182208202149, -4454.613262964876, -1363.2775978180885, -2178.0210349584863, -4094.5043080454243, -3724.02414369871, -2527.065876372561, -3014.6468299206294, -1726.1358173055432, -7572.435745291204, -14752.598375391768, 0.016, -0.106, 0.994, 192.0, 0.0, 64.0, 126.0, 88.0, 15.5, 8.0, 0.0, 0.0, 0.0, 1.645923200025382E9, 0.0, 2022-02-27 11:53:20.025
128.0, -245.37745063036093, -2736.8593498300734, -1979.0905093062534, -8931.734732596247, 269.76320383110095, 968.7246046930081, -4453.562730975477, -1372.9111996783256, -2000.7046461945351, -3826.4845402818373, -3470.2424371531533, -2243.5787014459015, -2745.9118063344727, -1463.8604478669702, -7322.409131814138, -14572.59977729318, 0.016, -0.106, 0.994, 192.0, 0.0, 0.0, 0.0, 0.0, 0.0, 0.0, 0.0, 0.0, 0.0, 1.645923200033441E9, 0.0, 2022-02-27 11:53:20.033
130.0, -429.399362730904, -2913.236965326901, -2172.8130785003996, -9112.94032489542, 74.63247473627028, 788.0778060052164, -4603.185308359302, -1506.3511140765088, -2236.53790194248, -4111.178709409083, -3702.3653033215173, -2498.947381847785, -2991.535126153842, -1707.4721106853617, -7555.0684398494295, -14800.654625970677, 0.016, -0.106, 0.994, 192.0, 0.0, 0.0, 0.0, 0.0, 0.0, 0.0, 0.0, 0.0, 0.0, 1.645923200040505E9, 0.0, 2022-02-27 11:53:20.040
132.0, -138.6031673673591, -2633.259014279725, -1906.3802845931393, -8851.044935112588, 345.13328613439637, 1045.1228672412476, -4356.489104806078, -1269.064994938969, -2006.4043410306385, -3924.362829251627, -3563.9409499098006, -2363.9875488266407, -2848.640423851064, -1573.987492798268, -7410.519708456959, -14593.69982405899, 0.016, -0.106, 0.994, 192.0, 0.0, 0.0, 0.0, 0.0, 0.0, 0.0, 0.0, 0.0, 0.0, 1.645923200054996E9, 0.0, 2022-02-27 11:53:20.054
134.0, -335.8573121854439, -2821.2148334044023, -2125.2038628105956, -9070.851990086077, 106.57311756290407, 831.0825623372272, -4606.783939216607, -1500.897288429414, -2139.486627517537, -3953.8894836770874, -3561.839885931002, -2341.0993625044066, -2851.344984930156, -1562.9904345262569, -7418.923964372154, -14708.677197537088, 0.016, -0.106, 0.994, 192.0, 0.0, 0.0, 0.0, 0.0, 0.0, 0.0, 0.0, 0.0, 0.0, 1.645923200062926E9, 0.0, 2022-02-27 11:53:20.062
136.0, -202.79737744300098, -2693.8545934980625, -2008.9747916429988, -8947.850340348523, 224.0091829310874, 946.2834532598798, -4445.672565182754, -1357.9131791488146, -2156.2057323701065, -4089.7880899653546, -3707.5509080351485, -2513.8559953994745, -3015.183271787557, -1735.7023639324148, -7575.386175559303, -14755.839378337787, 0.016, -0.10200000000000001, 0.994, 192.0, 0.0, 64.0, 126.0, 104.0, 15.5, 8.0, 0.0, 0.0, 0.0, 1.645923200070274E9, 0.0, 2022-02-27 11:53:20.070
138.0, -139.02785051200993, -2635.673002680898, -1969.456907446016, -8920.648267346414, 268.3997474193272, 968.9257703931058, -4459.038908367027, -1364.5069437631303, -1970.552142924326, -3822.8412059356224, -3446.840160708447, -2223.7750558585, -2745.218902256358, -1470.118936314456, -7313.4684340320155, -14569.247015624884, 0.016, -0.10200000000000001, 0.994, 192.0, 0.0, 0.0, 0.0, 0.0, 0.0, 0.0, 0.0, 0.0, 0.0, 1.645923200077753E9, 0.0, 2022-02-27 11:53:20.077
140.0, -322.9156521458211, -2810.2401268768463, -2162.9783109400646, -9104.156089324486, 69.6256839782815, 786.1332042376047, -4625.671163281341, -1523.1596259068997, -2196.9753142565864, -4064.1506390751174, -3667.0048435932213, -2465.1962477202715, -2982.192096971524, -1701.593601893616, -7544.49606472207, -14800.609922481766, 0.016, -0.10200000000000001, 0.994, 192.0, 0.0, 0.0, 0.0, 0.0, 0.0, 0.0, 0.0, 0.0, 0.0, 1.645923200085672E9, 0.0, 2022-02-27 11:53:20.085
142.0, -37.59563417382648, -2536.095981132505, -1897.0596071552764, -8842.75243791967, 352.37525133791587, 1054.6670621236638, -4341.580491254388, -1272.618922307363, -1973.5025731924266, -3892.6680556140013, -3535.7106966627475, -2335.466722901669, -2842.5831011036757, -1566.3208444500976, -7411.167909046163, -14595.376204893138, 0.016, -0.10200000000000001, 0.994, 192.0, 0.0, 0.0, 0.0, 0.0, 0.0, 0.0, 0.0, 0.0, 0.0, 1.645923200093818E9, 0.0, 2022-02-27 11:53:20.093
144.0, -248.28317740955086, -2737.574605652643, -2114.98911559452, -9066.918083061944, 115.26794615601852, 828.2885942803139, -4575.871476634918, -1499.4220732953636, -2102.650952655191, -3929.3472682651604, -3530.346277993474, -2303.7495975195884, -2839.7891330467623, -1548.9088355194135, -7402.8083566198775, -14698.618912532202, 0.016, -0.10200000000000001, 0.994, 192.0, 0.0, 0.0, 0.0, 0.0, 0.0, 0.0, 0.0, 0.0, 0.0, 1.645923200100331E9, 0.0, 2022-02-27 11:53:20.100
146.0, -123.58279509339275, -2609.588516901555, -2007.387817786672, -8945.995145558732, 221.39402882981645, 948.339813749768, -4477.367338820379, -1375.1016706349458, -2132.937566392132, -4067.257531554405, -3689.11071885952, -2495.5275649461228, -3012.948097342026, -1729.5779859516606, -7578.940102927698, -14758.20866325005, 0.016, -0.106, 0.994, 192.0, 0.0, 64.0, 126.0, 88.0, 15.5, 8.0, 0.0, 0.0, 0.0, 1.645923200108875E9, 0.0, 2022-02-27 11:53:20.108
148.0, -71.05619562342115, -2568.662472803888, -1967.8252301007785, -8919.128348723454, 267.61743636339145, 976.1230321077147, -4445.06906808246, -1376.1522026243451, -1940.9584332654995, -3789.8947346084997, -3427.1929773322317, -2209.9616777851197, -2741.3073469766796, -1470.4989159701963, -7320.643344002169, -14570.945748203487, 0.016, -0.106, 0.994, 192.0, 0.0, 0.0, 0.0, 0.0, 0.0, 0.0, 0.0, 0.0, 0.0, 1.645923200115247E9, 0.0, 2022-02-27 11:53:20.115
150.0, -258.05088973652005, -2745.710640634375, -2159.6255492717683, -9103.32907477964, 58.94155012864472, 776.9689890109288, -4619.032695178115, -1538.7611435367041, -2184.48068910607, -4058.830923894754, -3656.8124481216014, -2446.890169011375, -2981.253323704401, -1700.3195524596636, -7548.20645430165, -14804.49912601699, 0.016, -0.106, 0.994, 192.0, 0.0, 0.0, 0.0, 0.0, 0.0, 0.0, 0.0, 0.0, 0.0, 1.645923200123393E9, 0.0, 2022-02-27 11:53:20.123
152.0, 35.78514287294661, -2465.2409512091817, -1885.5931622497037, -8834.12466455992, 350.49770480367005, 1051.2919487109125, -4359.663052518732, -1283.3477596459104, -1940.1761222095636, -3873.6914245714456, -3512.710751618237, -2310.79039702301, -2832.502464354332, -1577.3179027221088, -7414.453615481093, -14600.673568329046, 0.016, -0.106, 0.994, 192.0, 0.0, 0.0, 0.0, 0.0, 0.0, 0.0, 0.0, 0.0, 0.0, 1.645923200129927E9, 0.0, 2022-02-27 11:53:20.129
154.0, -186.50295573508214, -2675.2802938557024, -2107.7024469020903, -9059.720821347335, 123.15811194874192, 829.1826640585261, -4575.849124890462, -1499.3550180619977, -2071.716138329046, -3899.261820228317, -3507.346332948963, -2274.7593849610553, -2832.0777812096812, -1561.828143814581, -7409.044493322908, -14703.960979457019, 0.016, -0.106, 0.994, 192.0, 0.0, 0.0, 0.0, 0.0, 0.0, 0.0, 0.0, 0.0, 0.0, 1.645923200137927E9, 0.0, 2022-02-27 11:53:20.137
156.0, -78.1640503602088, -2569.1095076929937, -2006.292582308362, -8950.264328749696, 212.2968688365065, 930.3466594632458, -4464.760954947586, -1365.736289708172, -2110.9210981036545, -4043.5646824317796, -3673.0398145961544, -2475.522753658623, -3008.2318792619562, -1738.786904667247, -7574.872085436832, -14762.231977252004, 0.014, -0.10400000000000001, 0.994, 192.0, 0.0, 56.0, 126.0, 96.0, 15.5, 8.0, 0.0, 0.0, 0.0, 1.645923200145862E9, 0.0, 2022-02-27 11:53:20.145
158.0, -21.122398510265175, -2518.236937312715, -1956.2470264729295, -8917.742540567224, 269.2267619641736, 972.5244012504103, -4455.149704831803, -1370.2066385992337, -1926.3180406472732, -3778.2494757472846, -3415.5924219599274, -2191.566192098402, -2739.7650766092634, -1461.1111832989675, -7319.950439924055, -14568.822332480233, 0.014, -0.10400000000000001, 0.994, 192.0, 0.0, 0.0, 0.0, 0.0, 0.0, 0.0, 0.0, 0.0, 0.0, 1.645923200152623E9, 0.0, 2022-02-27 11:53:20.152
160.0, -209.8381769464227, -2696.626209810521, -2145.4321915426485, -9097.472917732348, 66.4293845211726, 784.0544920032611, -4627.146378415391, -1525.573614308073, -2160.296101605428, -4035.5627579167794, -3633.0078402766994, -2432.517997326612, -2971.105631721691, -1691.3788546775406, -7543.177311799206, -14804.387367294714, 0.014, -0.10400000000000001, 0.994, 192.0, 0.0, 0.0, 0.0, 0.0, 0.0, 0.0, 0.0, 0.0, 0.0, 1.645923200160579E9, 0.0, 2022-02-27 11:53:20.160
162.0, 77.38173930427305, -2417.4529215637353, -1872.1597638320643, -8830.41427498034, 352.4199548268265, 1056.1646290021692, -4361.764116497531, -1267.0086344490808, -1924.5075493463935, -3860.794468020734, -3495.544611876561, -2291.6126002803567, -2831.6307463205753, -1559.4812106467737, -7413.581897447336, -14599.533629361824, 0.014, -0.10400000000000001, 0.994, 192.0, 0.0, 0.0, 0.0, 0.0, 0.0, 0.0, 0.0, 0.0, 0.0, 1.645923200175955E9, 0.0, 2022-02-27 11:53:20.175
164.0, -143.76642033653502, -2629.593328189055, -2092.235039739018, -9053.17176022193, 128.88015852930053, 830.3449547702021, -4586.645017462375, -1500.830233196048, -2054.2370741649956, -3865.5330378452586, -3487.028597239089, -2264.879913911809, -2822.8241590051844, -1536.861245258003, -7398.159193773174, -14699.222409632494, 0.014, -0.10400000000000001, 0.994, 192.0, 0.0, 0.0, 0.0, 0.0, 0.0, 0.0, 0.0, 0.0, 0.0, 1.645923200182247E9, 0.0, 2022-02-27 11:53:20.182
166.0, -38.40029697421753, -2522.416713525857, -1995.742558925457, -8940.854244334012, 220.65642126279133, 946.4622672155223, -4481.1447836333255, -1382.4777463051971, -2099.5217084314477, -4005.5443651133023, -3651.8950643414337, -2465.732689587199, -3002.979219314959, -1722.0677998146773, -7573.173352858228, -14764.690669142088, 0.016, -0.106, 0.99, 192.0, 0.0, 64.0, 126.0, 88.0, 15.0, 120.0, 0.0, 0.0, 0.0, 1.645923200190211E9, 0.0, 2022-02-27 11:53:20.190
168.0, 15.154482740698189, -2478.5402391600896, -1946.7251833349687, -8903.705645049291, 271.9089712988104, 972.3455872947678, -4448.108905328382, -1357.1532198373343, -1907.9672584494663, -3760.07750750512, -3390.9160960812687, -2169.773241254478, -2733.0148497837604, -1440.7934475890931, -7314.720131721513, -14567.324765601727, 0.016, -0.106, 0.99, 192.0, 0.0, 0.0, 0.0, 0.0, 0.0, 0.0, 0.0, 0.0, 0.0, 1.645923200198253E9, 0.0, 2022-02-27 11:53:20.198
170.0, -185.63123770132515, -2672.3745670765124, -2142.727630463556, -9093.673121174947, 63.590712975348595, 780.9699512684288, -4621.066703923548, -1523.0702189290785, -2151.2659968454836, -4022.5316908993354, -3617.562784858082, -2408.467520292702, -2968.3787188981437, -1676.4255376369404, -7543.892567621776, -14802.375710293736, 0.016, -0.106, 0.99, 192.0, 0.0, 0.0, 0.0, 0.0, 0.0, 0.0, 0.0, 0.0, 0.0, 1.645923200205516E9, 0.0, 2022-02-27 11:53:20.205
172.0, 102.34863786085104, -2391.8378224179532, -1871.779784176324, -8822.300591743064, 345.6250245124131, 1050.979024288538, -4377.991482972084, -1274.5411723305194, -1921.6912295450247, -3842.6448515230245, -3485.441623382762, -2282.2248676091276, -2836.950461500938, -1557.380146667975, -7423.28255454094, -14606.17209746505, 0.016, -0.106, 0.99, 192.0, 0.0, 0.0, 0.0, 0.0, 0.0, 0.0, 0.0, 0.0, 0.0, 1.645923200212865E9, 0.0, 2022-02-27 11:53:20.212
174.0, -113.74802753305764, -2601.4077784309125, -2084.099004757286, -9041.392390893983, 128.52253061801562, 838.4362862630232, -4594.6022384884645, -1498.6621139838833, -2040.7813240029006, -3854.8712557400772, -3466.6885097847594, -2244.1374950572845, -2822.1089031826145, -1528.8146172540926, -7405.468214210059, -14701.569342800301, 0.016, -0.106, 0.99, 192.0, 0.0, 0.0, 0.0, 0.0, 0.0, 0.0, 0.0, 0.0, 0.0, 1.645923200220896E9, 0.0, 2022-02-27 11:53:20.220
176.0, -14.103950751298756, -2502.0766260715277, -1988.8582216332225, -8937.52383441017, 222.37750558584997, 941.9025113466396, -4496.6345425408535, -1375.839278201971, -2082.3108652008614, -4010.7523215713886, -3634.125427499465, -2447.6948318117657, -2999.2688297353784, -1710.9589828203898, -7581.152925628773, -14767.864616854742, 0.014, -0.10200000000000001, 0.992, 192.0, 0.0, 56.0, 126.0, 104.0, 15.5, 0.0, 0.0, 0.0, 0.0, 1.645923200227907E9, 0.0, 2022-02-27 11:53:20.227
178.0, 36.27688125096336, -2457.462544138735, -1935.9963459964213, -8901.738691537224, 282.2801807260729, 974.6925204625751, -4448.734754173131, -1367.7702984536052, -1891.4046158080837, -3741.5032078627596, -3378.4661744196624, -2161.212523128095, -2730.533806149221, -1438.6476801213837, -7315.770663710912, -14568.55411154677, 0.014, -0.10200000000000001, 0.992, 192.0, 0.0, 0.0, 0.0, 0.0, 0.0, 0.0, 0.0, 0.0, 0.0, 1.645923200235053E9, 0.0, 2022-02-27 11:53:20.235
180.0, -170.27558926052922, -2652.012127877728, -2140.403049040204, -9091.46029847387, 67.47991651057202, 781.6852070909986, -4645.005422235182, -1545.9360535068577, -2138.257281572495, -4004.069149979252, -3603.3023718955965, -2399.5491742550344, -2967.7081665644846, -1669.6529590669822, -7546.194797300673, -14806.533134762423, 0.014, -0.10200000000000001, 0.992, 192.0, 0.0, 0.0, 0.0, 0.0, 0.0, 0.0, 0.0, 0.0, 0.0, 1.645923200242439E9, 0.0, 2022-02-27 11:53:20.242
182.0, 103.66739078371415, -2388.7309299386657, -1872.651502210081, -8824.334600488497, 344.75330647865616, 1039.0878962383147, -4356.645567017265, -1291.6849603277399, -1920.3948283666168, -3833.5476915297145, -3486.983893750178, -2285.4658705551474, -2849.2439209513573, -1570.4335654298743, -7428.401104021204, -14611.804737067789, 0.014, -0.10200000000000001, 0.992, 192.0, 0.0, 0.0, 0.0, 0.0, 0.0, 0.0, 0.0, 0.0, 0.0, 1.645923200250637E9, 0.0, 2022-02-27 11:53:20.250
184.0, -107.6236495523035, -2599.0608452631054, -2083.964894290554, -9040.364210649039, 115.78203627849058, 822.1195128106491, -4581.86174414894, -1493.990599392724, -2033.5393587993813, -3859.0510319532195, -3462.955768460723, -2240.315346755427, -2824.969926472894, -1530.4686463437852, -7403.635371164724, -14695.757889241922, 0.014, -0.10300000000000001, 0.989, 192.0, 0.0, 56.0, 126.0, 96.0, 15.0, 104.0, 0.0, 0.0, 0.0, 1.645923200257692E9, 0.0, 2022-02-27 11:53:20.257
186.0, -20.273032220963504, -2506.815195896053, -2000.1235008386973, -8943.849378091023, 201.21040358667418, 927.2397669839581, -4505.374074622879, -1382.8800777053928, -2089.2399059820063, -4019.134225742129, -3642.1944072478304, -2456.523770871612, -3016.1891002880457, -1722.4254277259622, -7588.573704787935, -14768.713983144044, 0.014, -0.10300000000000001, 0.989, 192.0, 0.0, 0.0, 0.0, 0.0, 0.0, 0.0, 0.0, 0.0, 0.0, 1.64592320026509E9, 0.0, 2022-02-27 11:53:20.265
188.0, 45.8881313667454, -2451.9863667471845, -1935.102276218209, -8896.106051934488, 274.6805876112685, 968.6128459707315, -4468.516048016078, -1366.4738972751973, -1881.8604209256675, -3739.8715305175224, -3374.554619139984, -2153.6799852466565, -2735.9876317963162, -1447.2083982477664, -7326.901832449656, -14566.654213268068, 0.014, -0.10300000000000001, 0.989, 192.0, 0.0, 0.0, 0.0, 0.0, 0.0, 0.0, 0.0, 0.0, 0.0, 1.645923200273136E9, 0.0, 2022-02-27 11:53:20.273
190.0, -173.65070267328056, -2657.1530291024483, -2145.611005498291, -9096.042406087208, 67.52461999948264, 776.0078639993505, -4611.72367474123, -1541.5327598491622, -2130.389467524227, -4003.845632534699, -3599.1672991713644, -2394.072996863484, -2972.044404988814, -1675.7773370477364, -7534.773055884011, -14803.06861437185, 0.014, -0.10300000000000001, 0.989, 192.0, 0.0, 0.0, 0.0, 0.0, 0.0, 0.0, 0.0, 0.0, 0.0, 1.645923200281269E9, 0.0, 2022-02-27 11:53:20.281
192.0, 109.76941702001298, -2382.383034513359, -1871.5115632428603, -8826.189795278287, 351.2576641151505, 1054.5105999124767, -4373.811706758941, -1291.193221949723, -1915.9691829644662, -3833.0559531516974, -3486.447451883251, -2289.019797923541, -2854.2060082204353, -1563.571579882095, -7422.723760929556, -14611.22359171195, 0.014, -0.10300000000000001, 0.989, 192.0, 0.0, 0.0, 0.0, 0.0, 0.0, 0.0, 0.0, 0.0, 0.0, 1.645923200287713E9, 0.0, 2022-02-27 11:53:20.287
194.0, -99.3758558482952, -2593.785833571653, -2079.2710279549397, -9038.732533303802, 120.74412354756875, 829.1379605696155, -4610.226107862724, -1509.6591722558944, -2023.0563906498423, -3851.4961423273257, -3456.317300357497, -2236.448494964659, -2825.4393131064553, -1520.4550648278075, -7399.947333329598, -14696.562552042313, 0.015, -0.10350000000000001, 0.9895, 192.0, 0.0, 64.0, 126.0, 96.0, 15.0, 120.0, 0.0, 0.0, 0.0, 1.645923200302788E9, 0.0, 2022-02-27 11:53:20.302
196.0, -23.782256100446716, -2512.2466697986924, -2000.2799630498844, -8949.213796760298, 203.95966815467693, 910.7441795759415, -4473.411080051789, -1412.0714559640237, -2079.9862837775095, -4016.675533852045, -3636.695878111825, -2447.851294022953, -3012.0093240749034, -1715.205814266898, -7581.376443073326, -14774.25721576896, 0.015, -0.10350000000000001, 0.9895, 192.0, 0.0, 0.0, 0.0, 0.0, 0.0, 0.0, 0.0, 0.0, 0.0, 1.645923200310943E9, 0.0, 2022-02-27 11:53:20.310
198.0, 43.720012154580616, -2450.2652824241263, -1937.7844855528458, -8896.821307757058, 264.55524737301437, 979.6322559871979, -4464.515085758578, -1380.734310237683, -1888.1412611176088, -3727.6451263004697, -3383.517668666562, -2159.9161219496873, -2745.0177365562604, -1465.536828701118, -7319.145777123664, -14572.532722059814, 0.015, -0.10350000000000001, 0.9895, 192.0, 0.0, 0.0, 0.0, 0.0, 0.0, 0.0, 0.0, 0.0, 0.0, 1.645923200317406E9, 0.0, 2022-02-27 11:53:20.317
200.0, -173.69540616219118, -2659.2987965701577, -2146.326261320861, -9098.188173554918, 58.8744948952788, 774.1973726984708, -4622.161939401858, -1528.1887684093438, -2136.245624571517, -3996.067225464252, -3604.218793418264, -2394.5870869859564, -2975.2183527014677, -1679.018339993756, -7543.020849588019, -14797.883009658219, 0.015, -0.10350000000000001, 0.9895, 192.0, 0.0, 0.0, 0.0, 0.0, 0.0, 0.0, 0.0, 0.0, 0.0, 1.645923200325325E9, 0.0, 2022-02-27 11:53:20.325
202.0, 105.3884751067728, -2392.150746840328, -1874.1267173441313, -8831.97889709221, 344.30627158954997, 1045.4581434080771, -4365.809782243941, -1274.7199862861619, -1920.4171801110722, -3854.5359795732475, -3495.6340188543822, -2297.3569986053703, -2861.8056013352398, -1573.987492798268, -7430.166891833173, -14609.03312075533, 0.015, -0.10350000000000001, 0.9895, 192.0, 0.0, 0.0, 0.0, 0.0, 0.0, 0.0, 0.0, 0.0, 0.0, 1.645923200333503E9, 0.0, 2022-02-27 11:53:20.333
204.0, -105.83550999587894, -2601.22896447527, -2079.449841910582, -9041.83942578309, 129.97539400761056, 839.0844868522271, -4585.818002917529, -1490.4590237687855, -2026.4762075515043, -3851.2055696494067, -3463.9392452167567, -2242.01407933403, -2825.1487404285363, -1527.1829399088551, -7394.672321638146, -14687.465392049002, 0.0135, -0.10475000000000001, 0.98975, 192.0, 0.0, 48.0, 126.0, 88.0, 15.0, 120.0, 0.0, 0.0, 0.0, 1.645923200340368E9, 0.0, 2022-02-27 11:53:20.340
206.0, -33.5499684274159, -2529.569271751556, -2009.354771298739, -8959.9649858433, 203.892612921311, 915.8403773117516, -4477.680263242753, -1388.356255096943, -2093.553792661881, -4029.460731680481, -3648.5870061620485, -2451.6510905803552, -3017.954888100015, -1726.1134655610879, -7581.354091328871, -14771.64206166769, 0.0135, -0.10475000000000001, 0.98975, 192.0, 0.0, 0.0, 0.0, 0.0, 0.0, 0.0, 0.0, 0.0, 0.0, 1.645923200348033E9, 0.0, 2022-02-27 11:53:20.348
208.0, 44.83759937734597, -2458.5130761281343, -1934.81170354029, -8901.269304903664, 287.1081575284192, 980.3698635542231, -4433.580271432433, -1369.2008100987448, -1888.23066809543, -3754.243702202285, -3390.580819914439, -2168.409784842704, -2743.095486533104, -1462.251122266188, -7311.054445630843, -14563.12263764413, 0.0135, -0.10475000000000001, 0.98975, 192.0, 0.0, 0.0, 0.0, 0.0, 0.0, 0.0, 0.0, 0.0, 0.0, 1.64592320035513E9, 0.0, 2022-02-27 11:53:20.355
210.0, -173.60599918436995, -2664.685566983887, -2146.61683399878, -9103.306723035184, 51.96780585858892, 779.4500326454679, -4659.914035786872, -1532.1003236890226, -2131.864682658277, -4003.420949390048, -3604.084682951532, -2399.2586015771153, -2971.9326462665376, -1678.9065812714794, -7532.515529694025, -14795.156096834673, 0.0135, -0.10475000000000001, 0.98975, 192.0, 0.0, 0.0, 0.0, 0.0, 0.0, 0.0, 0.0, 0.0, 0.0, 1.645923200363102E9, 0.0, 2022-02-27 11:53:20.363
212.0, 100.9851814490773, -2405.852366191431, -1875.356063289173, -8832.627097681416, 340.19355060977347, 1049.3249951988453, -4379.086718450394, -1285.001788735603, -1925.2451569134184, -3864.0578227112082, -3502.2948387020638, -2300.016856195552, -2866.8794473265943, -1577.563771911117, -7438.571147748369, -14609.860135300176, 0.0135, -0.10475000000000001, 0.98975, 192.0, 0.0, 0.0, 0.0, 0.0, 0.0, 0.0, 0.0, 0.0, 0.0, 1.645923200370065E9, 0.0, 2022-02-27 11:53:20.370
214.0, -105.14260591776443, -2611.7566361137197, -2074.577161619325, -9040.475969371315, 139.85486505685628, 839.0174316188612, -4552.893883334861, -1491.733073202738, -2023.6375360056802, -3861.0850406986524, -3462.844009738447, -2243.6234049348122, -2817.727961269374, -1527.2052916533103, -7385.8433825782995, -14681.564531512802, 0.012750000000000001, -0.10437500000000001, 0.990875, 192.0, 0.0, 48.0, 126.0, 96.0, 15.5, 0.0, 0.0, 0.0, 0.0, 1.645923200377712E9, 0.0, 2022-02-27 11:53:20.377
216.0, -38.512055696494066, -2534.5760625095445, -2007.678390464591, -8954.9134915964, 211.7157234806685, 934.3699734652012, -4476.249751597614, -1379.706129992739, -2090.1339757602186, -4032.2323479929387, -3648.3858404619505, -2462.6481488523664, -3011.78580663035, -1727.2981080172192, -7569.127687111818, -14765.137704031195, 0.012750000000000001, -0.10437500000000001, 0.990875, 192.0, 0.0, 0.0, 0.0, 0.0, 0.0, 0.0, 0.0, 0.0, 0.0, 1.645923200386974E9, 0.0, 2022-02-27 11:53:20.386
218.0, 33.34880272731814, -2471.074756512017, -1938.3432791642285, -8896.642493801415, 281.18494524776287, 978.2240960865136, -4423.410227705268, -1359.321339049499, -1886.9342669170223, -3744.654803830958, -3391.38548271483, -2165.9734446970756, -2737.976937052839, -1450.4941046826966, -7305.287695561373, -14555.634803251602, 0.012750000000000001, -0.10437500000000001, 0.990875, 192.0, 0.0, 0.0, 0.0, 0.0, 0.0, 0.0, 0.0, 0.0, 0.0, 1.64592320039337E9, 0.0, 2022-02-27 11:53:20.393
220.0, -198.0364558740206, -2690.702997529864, -2151.288348589939, -9103.284371290729, 50.22436979107497, 771.7833842972975, -4619.524433556132, -1540.2587104152096, -2137.1396943497293, -4007.4442633920034, -3611.796034788613, -2399.1244911103836, -2973.20669570049, -1686.7296918308368, -7524.513605179025, -14795.603131723778, 0.012750000000000001, -0.10437500000000001, 0.990875, 192.0, 0.0, 0.0, 0.0, 0.0, 0.0, 0.0, 0.0, 0.0, 0.0, 1.645923200400335E9, 0.0, 2022-02-27 11:53:20.400
222.0, 75.6159514923038, -2430.7745612590984, -1877.457127267972, -8830.526033702616, 336.6172714969244, 1040.1831317166248, -4382.215962674137, -1302.9278877887593, -1933.805875039801, -3876.5971513506356, -3512.93426906279, -2311.6844668012222, -2867.7064618714408, -1596.6968651648601, -7428.646973210213, -14612.631751612635, 0.012750000000000001, -0.10437500000000001, 0.990875, 192.0, 0.0, 0.0, 0.0, 0.0, 0.0, 0.0, 0.0, 0.0, 0.0, 1.645923200408301E9, 0.0, 2022-02-27 11:53:20.408
224.0, -145.2863389594959, -2647.6535377089426, -2083.2719902124395, -9042.778199050212, 129.37189690731728, 837.1622368290707, -4570.484706221188, -1491.286038313632, -2031.5724052873143, -3871.4115466370044, -3469.9071609863236, -2250.8430183938767, -2821.6842200379638, -1543.9467482503353, -7385.284588966917, -14686.548970526335, 0.012375, -0.1051875, 0.9874375, 192.0, 0.0, 48.0, 126.0, 88.0, 15.0, 96.0, 0.0, 0.0, 0.0, 1.645923200422402E9, 0.0, 2022-02-27 11:53:20.422
226.0, -105.67904778469179, -2609.5438134126443, -2025.671544751113, -8970.090326081554, 169.85090611587836, 927.3068222173241, -4481.748280733619, -1389.4961940641635, -2113.312734760372, -4057.2663017828827, -3667.3848232489618, -2476.7297478592095, -3040.217225577501, -1758.8811229325681, -7576.794335459988, -14770.345660489282, 0.012375, -0.1051875, 0.9874375, 192.0, 0.0, 0.0, 0.0, 0.0, 0.0, 0.0, 0.0, 0.0, 0.0, 1.645923200429856E9, 0.0, 2022-02-27 11:53:20.429
228.0, -47.25158777851913, -2567.388423369935, -1948.423915913572, -8901.33636013703, 264.309378184006, 983.6779217336085, -4431.367448731357, -1340.7470394071388, -1908.61545903867, -3788.978313085832, -3411.680866680249, -2194.2036979441286, -2770.3422630241234, -1487.9332766453358, -7312.73082646499, -14551.41032354955, 0.012375, -0.1051875, 0.9874375, 192.0, 0.0, 0.0, 0.0, 0.0, 0.0, 0.0, 0.0, 0.0, 0.0, 1.645923200438037E9, 0.0, 2022-02-27 11:53:20.438
230.0, -303.69315191425704, -2808.764911742796, -2169.6167790432905, -9116.382493541538, 40.367250486284554, 767.1789249395043, -4610.114349140447, -1524.2325096407544, -2163.581808040358, -4043.542330687324, -3631.4879216537383, -2426.974764701696, -2991.915105809582, -1702.822947838658, -7522.278430733494, -14788.629387453722, 0.012375, -0.1051875, 0.9874375, 192.0, 0.0, 0.0, 0.0, 0.0, 0.0, 0.0, 0.0, 0.0, 0.0, 1.645923200445909E9, 0.0, 2022-02-27 11:53:20.445
232.0, -77.44879453763897, -2584.4651561337896, -1899.3171333452624, -8846.999269366177, 335.41027729633777, 1038.663213093664, -4348.330718079891, -1278.743300288117, -1979.9845790844656, -3914.550413435747, -3554.8661416609457, -2357.5055429346016, -2881.698653900463, -1614.0641706066335, -7427.819958665366, -14612.028254512341, 0.012375, -0.1051875, 0.9874375, 192.0, 0.0, 0.0, 0.0, 0.0, 0.0, 0.0, 0.0, 0.0, 0.0, 1.645923200452506E9, 0.0, 2022-02-27 11:53:20.452
234.0, -317.1041985874413, -2814.9563449569164, -2097.2418304970065, -9054.646975355981, 135.92095803272224, 833.474198993945, -4558.727688637697, -1473.829325894037, -2092.771481605945, -3921.1218263056076, -3524.8924523463793, -2296.015893938052, -2826.243975906846, -1546.8748267739807, -7378.579065630325, -14679.709336723012, 0.013187500000000001, -0.10359375000000001, 0.98471875, 192.0, 0.0, 56.0, 126.0, 104.0, 15.0, 88.0, 0.0, 0.0, 0.0, 1.64592320046058E9, 0.0, 2022-02-27 11:53:20.460
236.0, -280.26852372509524, -2768.4647164898774, -2036.4450855785713, -8976.706442440325, 205.54664201100374, 933.9005868316397, -4482.55294353401, -1388.9821039416915, -2174.020072700986, -4109.122348919195, -3722.5265768202044, -2527.043524628106, -3019.02777183387, -1750.2533495728196, -7569.798239445477, -14773.564311690845, 0.013187500000000001, -0.10359375000000001, 0.98471875, 192.0, 0.0, 0.0, 0.0, 0.0, 0.0, 0.0, 0.0, 0.0, 0.0, 1.64592320046854E9, 0.0, 2022-02-27 11:53:20.468
238.0, -198.12586285184182, -2691.842936497085, -1957.968110795988, -8905.784357283635, 286.92934357277676, 994.9879044279938, -4427.120617284849, -1332.901577103326, -1950.7261455924686, -3810.3465807851057, -3464.0510039390333, -2227.5972041603573, -2742.1790650104363, -1462.027604821635, -7308.059311873832, -14551.41032354955, 0.013187500000000001, -0.10359375000000001, 0.98471875, 192.0, 0.0, 0.0, 0.0, 0.0, 0.0, 0.0, 0.0, 0.0, 0.0, 1.645923200475631E9, 0.0, 2022-02-27 11:53:20.475
240.0, -431.7909993876218, -2905.5256134898204, -2181.060872204408, -9114.013208629276, 55.007643104510684, 780.2993989347696, -4604.5264130266205, -1518.5775182935618, -2216.2648697215163, -4065.5364472313463, -3676.3478727755396, -2447.7618870451315, -2974.6819108345403, -1695.178651234943, -7517.450453931147, -14785.522494974435, 0.013187500000000001, -0.10359375000000001, 0.98471875, 192.0, 0.0, 0.0, 0.0, 0.0, 0.0, 0.0, 0.0, 0.0, 0.0, 1.64592320048228E9, 0.0, 2022-02-27 11:53:20.482
242.0, -131.91999577522228, -2614.4388454483565, -1909.6212875391589, -8846.552234477072, 337.75721046414503, 1046.3969166752001, -4350.588244269878, -1273.289474641022, -2015.0768178792976, -3923.8040356402444, -3589.868973477957, -2368.7708221400767, -2885.47609871341, -1610.599650216061, -7433.251432568006, -14608.563734121768, 0.013187500000000001, -0.10359375000000001, 0.98471875, 192.0, 0.0, 0.0, 0.0, 0.0, 0.0, 0.0, 0.0, 0.0, 0.0, 1.645923200490302E9, 0.0, 2022-02-27 11:53:20.490
244.0, -309.23638453917323, -2799.578344771665, -2099.544060175903, -9047.382658408005, 144.83930407038977, 844.4712572659562, -4556.984252570182, -1487.9109249008804, -2094.827842095833, -3912.3375907346717, -3529.69807740427, -2290.606771779868, -2824.0088014613157, -1543.700879061327, -7376.835629562811, -14674.344918053737, 0.015593750000000002, -0.10379687500000001, 0.987359375, 192.0, 0.0, 72.0, 126.0, 96.0, 15.0, 120.0, 0.0, 0.0, 0.0, 1.64592320049824E9, 0.0, 2022-02-27 11:53:20.498
246.0, -225.46204632068233, -2720.475521144333, -2042.6365187926913, -8984.931884399877, 190.01217961456533, 910.2524411979248, -4481.055376655505, -1386.1210806514123, -2157.1445056372295, -4095.957171435019, -3709.1602336359306, -2512.1125593319607, -3017.97723984447, -1753.6731664744816, -7574.000367403075, -14774.570140191334, 0.015593750000000002, -0.10379687500000001, 0.987359375, 192.0, 0.0, 0.0, 0.0, 0.0, 0.0, 0.0, 0.0, 0.0, 0.0, 1.645923200504831E9, 0.0, 2022-02-27 11:53:20.504
