%OpenBCI Raw EEG Data
%Number of channels = 16
%Sample Rate = 125 Hz
%Board = OpenBCI_GUI$BoardCytonSerialDaisy
Sample Index, EXG Channel 0, EXG Channel 1, EXG Channel 2, EXG Channel 3, EXG Channel 4, EXG Channel 5, EXG Channel 6, EXG Channel 7, EXG Channel 8, EXG Channel 9, EXG Channel 10, EXG Channel 11, EXG Channel 12, EXG Channel 13, EXG Channel 14, EXG Channel 15, Accel Channel 0, Accel Channel 1, Accel Channel 2, Other, Other, Other, Other, Other, Other, Other, Analog Channel 0, Analog Channel 1, Analog Channel 2, Timestamp, Other, Timestamp (Formatted)
0.0, -595.875155434031, -4251.45825761059, -1565.8738095609915, -9867.535217706587, -125.25917592754078, 666.7078336128991, -5300.269162686964, -1520.6115270389948, 0.0, 0.0, 0.0, 0.0, 0.0, 0.0, 0.0, 0.0, 0.0, 0.0, 0.0, 192.0, 0.0, 0.0, 0.0, 0.0, 0.0, 0.0, 0.0, 0.0, 0.0, 1.645921636904672E9, 0.0, 2022-02-27 11:27:16.904
198.0, -1275.8822769978378, -4759.088725935069, -2023.25755634994, -10380.306587255787, -742.547302549756, 245.8244855194671, -5519.562127537982, -1770.7722509827913, -3071.532019559386, -6726.444569402286, -4210.6439722352, -3003.090978037236, -3544.629042700415, -2623.8489298640407, -9826.855042797928, -15208.350444835478, 0.0, 0.0, 0.0, 192.0, 0.0, 0.0, 0.0, 0.0, 0.0, 0.0, 0.0, 0.0, 0.0, 1.645921636904675E9, 0.0, 2022-02-27 11:27:16.904
0.0, -542.8791693304979, -2253.4581724951477, -870.3098738562911, -5055.7410783459045, -289.72331162969016, 206.73128446713503, -2662.808020449641, -779.3159221787361, -1961.1867619975524, -3227.9271755131695, -1895.9643716769663, -1433.350316685476, -1537.6882598028494, -1121.5658332783978, -4877.329454103644, -7599.280190382027, 0.008, -0.11, 0.982, 192.0, 0.0, 32.0, 126.0, 72.0, 15.0, 88.0, 0.0, 0.0, 0.0, 1.645921636987691E9, 0.0, 2022-02-27 11:27:16.987
2.0, -605.2405363608046, -4148.863750560731, -1426.7789038156156, -9753.78719017353, -144.6157866258367, 680.1635837749939, -5213.924373856113, -1450.1811802603222, -2157.2562643595056, -5807.854927522532, -3862.4708488548818, -2779.6852922064418, -3240.4441524081412, -2141.453581029604, -9505.682826719622, -14442.870252474577, 0.008, -0.11, 0.982, 192.0, 0.0, 0.0, 0.0, 0.0, 0.0, 0.0, 0.0, 0.0, 0.0, 1.645921636995866E9, 0.0, 2022-02-27 11:27:16.995
4.0, -1299.1057394869017, -4693.307542003101, -1968.2499132454293, -10340.609889103162, -803.7910823572972, 185.20655455667432, -5612.523032727603, -1933.8952820176223, -4048.2361970229385, -6787.375424787453, -4098.326456347282, -3005.281448993856, -3405.5341369550392, -2440.922253241808, -9929.270735892145, -15534.372989460588, 0.008, -0.11, 0.982, 192.0, 0.0, 0.0, 0.0, 0.0, 0.0, 0.0, 0.0, 0.0, 0.0, 1.645921637001873E9, 0.0, 2022-02-27 11:27:17.001
6.0, -890.0017607214166, -4360.3336048523915, -1612.6560107059493, -9955.73520132723, -406.0641415195634, 526.0036022667412, -5265.579255292328, -1494.9517244043022, -1317.7023908737174, -5777.456555063314, -4063.010700107897, -2785.2955800647237, -3483.988759993167, -2304.7330742756217, -9472.825762370321, -14276.260349304719, 0.008, -0.11, 0.982, 192.0, 0.0, 0.0, 0.0, 0.0, 0.0, 0.0, 0.0, 0.0, 0.0, 1.645921637009767E9, 0.0, 2022-02-27 11:27:17.009
8.0, -813.5364429398112, -4314.110197318816, -1630.1350748699995, -9961.792524074617, -361.51711482013644, 490.79960474963246, -5436.234824208596, -1719.430293968951, -3712.624754026503, -6307.528174820921, -3857.754630774812, -2865.6501013815528, -3169.5667707403627, -2201.57977361438, -9753.988355873627, -15146.883147583385, 0.006, -0.112, 0.99, 192.0, 0.0, 24.0, 126.0, 64.0, 15.0, 120.0, 0.0, 0.0, 0.0, 1.645921637017731E9, 0.0, 2022-02-27 11:27:17.017
10.0, -1276.3069601424886, -4659.355242175489, -1902.2452118689075, -10285.870466932114, -764.3402533936803, 261.13543047135244, -5474.925693860733, -1730.7626284077917, -2404.3547993129255, -6400.153803843714, -4250.452429110102, -2952.0619454457697, -3634.7512763442132, -2522.819044926053, -9735.391704486812, -14936.352066558848, 0.006, -0.112, 0.99, 192.0, 0.0, 0.0, 0.0, 0.0, 0.0, 0.0, 0.0, 0.0, 0.0, 1.645921637024826E9, 0.0, 2022-02-27 11:27:17.024
12.0, -604.1005973935839, -4148.43906741608, -1428.6788020943168, -9758.816332675975, -145.97924303761042, 674.4415371944353, -5228.028324607411, -1458.1384012864116, -2119.258298785484, -5801.194107674851, -3863.9907674778424, -2772.532733980743, -3243.7298588430717, -2146.8850549322433, -9499.513745249957, -14432.47669130286, 0.006, -0.112, 0.99, 192.0, 0.0, 0.0, 0.0, 0.0, 0.0, 0.0, 0.0, 0.0, 0.0, 1.645921637032368E9, 0.0, 2022-02-27 11:27:17.032
14.0, -1290.9473527607147, -4686.713777388785, -1960.7620788529014, -10342.755656570871, -787.2284397159148, 186.43590050171622, -5614.154710072841, -1948.4462676580272, -4061.356671018204, -6784.536753241629, -4091.3974155661367, -3012.232841519456, -3398.5380409405284, -2445.4820091106903, -9921.648791032887, -15539.759759874316, 0.006, -0.112, 0.99, 192.0, 0.0, 0.0, 0.0, 0.0, 0.0, 0.0, 0.0, 0.0, 0.0, 1.645921637040414E9, 0.0, 2022-02-27 11:27:17.040
16.0, -904.2398219394472, -4375.733956782098, -1616.0758276076112, -9972.834285835539, -412.6132026449684, 514.6489160834451, -5279.392633365707, -1495.1305383599447, -1320.317544974988, -5800.948238485842, -4066.676386198567, -2797.901963937517, -3488.123832717399, -2329.7893798100213, -9467.975433823518, -14286.11746860951, 0.008, -0.111, 0.988, 192.0, 0.0, 40.0, 126.0, 72.0, 15.0, 104.0, 0.0, 0.0, 0.0, 1.645921637054632E9, 0.0, 2022-02-27 11:27:17.054
18.0, -810.0942742936938, -4317.1947380536485, -1621.7084672103485, -9966.866370065973, -348.53075129160305, 490.39727334943694, -5434.469036396627, -1732.729581919859, -3687.523745003193, -6328.114131464259, -3854.4465725954265, -2876.8706770981166, -3170.371433540754, -2189.7557007975224, -9743.661849935275, -15134.679095110787, 0.008, -0.111, 0.988, 192.0, 0.0, 0.0, 0.0, 0.0, 0.0, 0.0, 0.0, 0.0, 0.0, 1.645921637061987E9, 0.0, 2022-02-27 11:27:17.061
20.0, -1275.4575938531868, -4660.6963468428075, -1898.2218978669523, -10285.51283902083, -755.6007213116552, 263.6388258503468, -5464.241560011096, -1739.5021604898168, -2410.7697499715987, -6402.567792244887, -4246.965556975074, -2955.884093747627, -3625.8552820510013, -2529.949251407296, -9732.284812007525, -14949.450188809657, 0.008, -0.111, 0.988, 192.0, 0.0, 0.0, 0.0, 0.0, 0.0, 0.0, 0.0, 0.0, 0.0, 1.645921637070057E9, 0.0, 2022-02-27 11:27:17.070
22.0, -600.3455043250924, -4141.353564423748, -1424.7895985590933, -9756.31293729698, -134.64690859876976, 683.8292698656643, -5204.7154551405265, -1455.0985640404897, -2105.266106756462, -5771.958025927309, -3860.235674409351, -2761.3121582641793, -3235.7279343280716, -2143.4875897750367, -9485.610960198755, -14426.441720299927, 0.008, -0.111, 0.988, 192.0, 0.0, 0.0, 0.0, 0.0, 0.0, 0.0, 0.0, 0.0, 0.0, 1.645921637078014E9, 0.0, 2022-02-27 11:27:17.078
24.0, -1276.195201420212, -4672.632178381941, -1955.1741427390748, -10337.659458835062, -776.6560645885545, 191.1744703262413, -5608.164442558818, -1949.1168199916865, -4068.866857155187, -6777.965340371769, -4081.942627661542, -3003.2027367595124, -3386.5128024235732, -2425.0301629340843, -9913.24453511769, -15540.005629063324, 0.008, -0.111, 0.988, 192.0, 0.0, 0.0, 0.0, 0.0, 0.0, 0.0, 0.0, 0.0, 0.0, 1.645921637084594E9, 0.0, 2022-02-27 11:27:17.084
26.0, -917.9637930350058, -4384.071157463927, -1630.0009644032675, -9986.558256931097, -427.14183654091795, 502.2884013996603, -5284.913514246168, -1519.1139601604891, -1323.5138444320971, -5804.725683298789, -4070.5879414782457, -2793.5657255131873, -3492.482422886184, -2326.2131006971717, -9470.970567580529, -14302.903628695445, 0.011, -0.1095, 0.985, 192.0, 0.0, 56.0, 126.0, 80.0, 15.0, 88.0, 0.0, 0.0, 0.0, 1.64592163709275E9, 0.0, 2022-02-27 11:27:17.092
28.0, -800.9747625559286, -4308.768130393998, -1622.7813509442033, -9956.361050171978, -346.9661291797315, 492.6771512838783, -5426.176539203709, -1712.1212735320657, -3653.280872497663, -6319.531061593421, -3850.4679620823817, -2871.215685750924, -3169.164439340167, -2186.6264565737793, -9733.894137608308, -15119.368150158902, 0.011, -0.1095, 0.985, 192.0, 0.0, 0.0, 0.0, 0.0, 0.0, 0.0, 0.0, 0.0, 0.0, 1.645921637100617E9, 0.0, 2022-02-27 11:27:17.100
30.0, -1285.6276375803516, -4665.837248067528, -1917.869081243167, -10295.884048448092, -769.5705615962222, 251.3230146554726, -5488.202630067186, -1755.4836577753615, -2496.6004486799775, -6442.935042731171, -4250.206559921094, -2958.4545443599877, -3630.14681698642, -2528.496388017701, -9745.11471332487, -14984.520075860033, 0.011, -0.1095, 0.985, 192.0, 0.0, 0.0, 0.0, 0.0, 0.0, 0.0, 0.0, 0.0, 0.0, 1.645921637106904E9, 0.0, 2022-02-27 11:27:17.106
32.0, -600.5913735141007, -4141.331212679293, -1429.2822991946102, -9758.838684420429, -139.43018191220546, 675.6708831394772, -5211.778606388403, -1460.2394652652104, -2025.7833034733897, -5759.239883332239, -3864.1919331779404, -2756.3053675061906, -3247.1496757447335, -2145.409839798193, -9482.101736319273, -14402.704167688391, 0.011, -0.1095, 0.985, 192.0, 0.0, 0.0, 0.0, 0.0, 0.0, 0.0, 0.0, 0.0, 0.0, 1.645921637114446E9, 0.0, 2022-02-27 11:27:17.114
34.0, -1269.646140294807, -4669.2123614802795, -1953.6542241161137, -10332.09387446569, -767.5365528507892, 198.17056634075243, -5608.902050125844, -1931.0789622162538, -4083.2390288399497, -6763.392002986909, -4075.6170839806896, -3003.8062338598056, -3376.968607541157, -2416.6706105077997, -9916.127910152425, -15535.043541794246, 0.011, -0.1095, 0.985, 192.0, 0.0, 0.0, 0.0, 0.0, 0.0, 0.0, 0.0, 0.0, 0.0, 1.645921637122325E9, 0.0, 2022-02-27 11:27:17.122
36.0, -932.6041856532319, -4395.649361091776, -1636.7511912287703, -9993.844925623527, -430.7181156537671, 500.008523465219, -5269.848438483291, -1501.9031169299028, -1334.0415160705468, -5815.655686337434, -4084.446023040536, -2807.021475675282, -3503.702998602748, -2332.1586647222834, -9478.54780895088, -14308.335102598085, 0.0115, -0.10975, 0.9855, 192.0, 0.0, 48.0, 126.0, 72.0, 15.0, 104.0, 0.0, 0.0, 0.0, 1.645921637130284E9, 0.0, 2022-02-27 11:27:17.130
38.0, -804.4839864354118, -4310.086883316861, -1618.758036942248, -9954.68466933783, -339.9029779318545, 494.4652908403028, -5421.840300779379, -1714.4458549554176, -3629.498616397216, -6291.636084513198, -3852.2784533832614, -2874.4566886969437, -3166.0351951164243, -2182.9384187386536, -9728.619125916854, -15103.207838917715, 0.0115, -0.10975, 0.9855, 192.0, 0.0, 0.0, 0.0, 0.0, 0.0, 0.0, 0.0, 0.0, 0.0, 1.645921637137041E9, 0.0, 2022-02-27 11:27:17.137
40.0, -1292.355512661399, -4666.932483545838, -1917.1314736761421, -10296.196972870466, -768.4529743734569, 250.38424138834972, -5473.763403149057, -1756.6459484870375, -2467.1632012323385, -6428.004077435026, -4253.55932158939, -2954.0512507022922, -3631.0632385090876, -2539.985184667729, -9746.79109415902, -14972.450133854169, 0.0115, -0.10975, 0.9855, 192.0, 0.0, 0.0, 0.0, 0.0, 0.0, 0.0, 0.0, 0.0, 0.0, 1.645921637145023E9, 0.0, 2022-02-27 11:27:17.145
42.0, -615.969373699352, -4157.379765198203, -1436.1666364868447, -9763.398440289313, -140.16778947923058, 678.9789413188627, -5209.9457633430675, -1438.0888865100012, -2061.255521923962, -5779.267046364194, -3871.0539187257195, -2764.575512954654, -3249.4742571680854, -2150.7072032341007, -9487.242637543994, -14413.65652247149, 0.0115, -0.10975, 0.9855, 192.0, 0.0, 0.0, 0.0, 0.0, 0.0, 0.0, 0.0, 0.0, 0.0, 1.645921637153002E9, 0.0, 2022-02-27 11:27:17.153
44.0, -1281.0902334559244, -4676.700195872807, -1959.6444916301361, -10335.67015357854, -768.1176982066272, 205.63604898882497, -5601.1683465443075, -1928.2179389259743, -4097.387683080159, -6774.165543814367, -4080.6909299720446, -3006.7343123834507, -3385.1716977562546, -2419.6433925203555, -9916.932572952815, -15538.55276567373, 0.0115, -0.10975, 0.9855, 192.0, 0.0, 0.0, 0.0, 0.0, 0.0, 0.0, 0.0, 0.0, 0.0, 1.645921637160048E9, 0.0, 2022-02-27 11:27:17.160
46.0, -935.8675403437068, -4393.280076179513, -1637.153522628966, -9992.235600022746, -417.30706898058287, 515.073599228096, -5261.466534312551, -1491.0848726135341, -1328.967670079192, -5804.189241431862, -4082.56847650629, -2799.60069651612, -3494.9187630318124, -2323.754408807088, -9469.830628613308, -14299.014425160221, 0.01175, -0.106875, 0.98675, 192.0, 0.0, 48.0, 126.0, 96.0, 15.0, 112.0, 0.0, 0.0, 0.0, 1.645921637174574E9, 0.0, 2022-02-27 11:27:17.174
48.0, -802.606439901166, -4314.244307785548, -1611.8066444166475, -9952.874178036951, -314.8913758863659, 513.2854596716713, -5409.882117495789, -1696.720921602359, -3626.279965195652, -6292.418395569133, -3855.139476673541, -2877.965912576427, -3163.263578803966, -2184.5477443394357, -9723.388817714313, -15100.011539460605, 0.01175, -0.106875, 0.98675, 192.0, 0.0, 0.0, 0.0, 0.0, 0.0, 0.0, 0.0, 0.0, 0.0, 1.645921637182775E9, 0.0, 2022-02-27 11:27:17.182
50.0, -1312.7403036046392, -4694.022797825671, -1921.2218429114632, -10305.294132863777, -759.8922562470742, 256.21804669118484, -5471.237656025607, -1751.8626751736017, -2516.7393704342094, -6455.720240559607, -4252.732307044543, -2968.4457741315096, -3626.950517529311, -2538.8899491894185, -9747.21577730367, -14999.473392900634, 0.01175, -0.106875, 0.98675, 192.0, 0.0, 0.0, 0.0, 0.0, 0.0, 0.0, 0.0, 0.0, 0.0, 1.645921637189822E9, 0.0, 2022-02-27 11:27:17.189
52.0, -629.7156965393659, -4170.276721748915, -1432.0092120181575, -9761.722059455164, -126.04148698347653, 688.0090460788067, -5207.397664475163, -1460.060651309568, -2025.6268412622026, -5773.254427105717, -3875.6136745946023, -2767.92827462295, -3252.6482048807393, -2147.220331099073, -9479.374823495726, -14406.392205523516, 0.01175, -0.106875, 0.98675, 192.0, 0.0, 0.0, 0.0, 0.0, 0.0, 0.0, 0.0, 0.0, 0.0, 1.645921637197312E9, 0.0, 2022-02-27 11:27:17.197
54.0, -1311.712123359695, -4708.506728232709, -1954.7941630833345, -10334.194938444489, -754.5948928111665, 209.92758392424392, -5612.29951528305, -1921.7359330339352, -4102.170956393595, -6765.224846032244, -4073.9630548909972, -3009.4165217180876, -3372.319444694453, -2413.295497095048, -9915.546764796587, -15546.889966355558, 0.01175, -0.106875, 0.98675, 192.0, 0.0, 0.0, 0.0, 0.0, 0.0, 0.0, 0.0, 0.0, 0.0, 1.645921637205277E9, 0.0, 2022-02-27 11:27:17.205
56.0, -978.9393519090834, -4447.393649505812, -1634.404258060963, -9992.146193044924, -407.2934874646053, 518.9851545077747, -5256.437391810106, -1478.6125992074728, -1337.4613329722088, -5822.897651540953, -4091.956209177519, -2813.7046472674187, -3497.6233241109044, -2324.9390512632194, -9469.204779768561, -14299.170887371409, 0.011875, -0.1054375, 0.986375, 192.0, 0.0, 48.0, 126.0, 96.0, 15.0, 104.0, 0.0, 0.0, 0.0, 1.645921637212459E9, 0.0, 2022-02-27 11:27:17.212
58.0, -860.2739405958582, -4377.522096338523, -1605.4811007357957, -9948.426180890345, -297.0323320665756, 522.4049714094367, -5374.7675269565025, -1696.117424502066, -3635.1983112333196, -6315.127767935725, -3862.403793621516, -2890.125261560114, -3158.368546768254, -2176.8140407578994, -9714.895154821295, -15097.79871675953, 0.011875, -0.1054375, 0.986375, 192.0, 0.0, 0.0, 0.0, 0.0, 0.0, 0.0, 0.0, 0.0, 0.0, 1.645921637219836E9, 0.0, 2022-02-27 11:27:17.219
60.0, -1396.2687726341217, -4782.513354124231, -1924.708715046491, -10314.391292857086, -757.76884052382, 260.06254673749766, -5480.55833346347, -1744.3301372921633, -2573.0657664615833, -6494.634627656296, -4270.390185164236, -2994.4185011885766, -3625.788226817635, -2533.0114403976727, -9746.142893569815, -15010.202230239182, 0.011875, -0.1054375, 0.986375, 192.0, 0.0, 0.0, 0.0, 0.0, 0.0, 0.0, 0.0, 0.0, 0.0, 1.645921637226834E9, 0.0, 2022-02-27 11:27:17.226
62.0, -736.8923112025633, -4282.0354440254505, -1443.252139479177, -9774.976643917162, -132.9034725312558, 683.3598832321028, -5199.88747833818, -1427.382400915909, -2049.4090973626494, -5793.4604040933145, -3897.876012072088, -2790.83881268964, -3260.583074162373, -2153.1658951241848, -9482.280550274916, -14399.08318508663, 0.011875, -0.1054375, 0.986375, 192.0, 0.0, 0.0, 0.0, 0.0, 0.0, 0.0, 0.0, 0.0, 0.0, 1.645921637234976E9, 0.0, 2022-02-27 11:27:17.234
64.0, -1407.2434791616774, -4822.47827321032, -1956.3364334507507, -10341.392200159098, -739.5074653038341, 212.9450694257104, -5581.141183512353, -1921.5794708227481, -4166.789849613887, -6819.919564714381, -4101.634514526667, -3049.7837722043723, -3380.0755000204445, -2424.6725350227994, -9916.329075852524, -15546.733504144373, 0.011875, -0.1054375, 0.986375, 192.0, 0.0, 0.0, 0.0, 0.0, 0.0, 0.0, 0.0, 0.0, 0.0, 1.645921637241893E9, 0.0, 2022-02-27 11:27:17.241
66.0, -1112.848652940828, -4583.851049405462, -1656.0407466937004, -10018.364789291, -418.7599323701778, 508.4798346137804, -5252.1458568746875, -1488.1791458343441, -1394.8606127334372, -5878.866419657043, -4132.8822532751865, -2859.8162960787176, -3514.0071527966447, -2338.2830427030376, -9476.87142811673, -14318.683960280892, 0.012937500000000001, -0.10571875, 0.9871875, 192.0, 0.0, 56.0, 126.0, 88.0, 15.0, 112.0, 0.0, 0.0, 0.0, 1.645921637249588E9, 0.0, 2022-02-27 11:27:17.249
68.0, -970.8480204162622, -4496.791004752041, -1613.6841909508935, -9955.578739116043, -294.52893668758117, 525.4224569109031, -5385.228143361586, -1674.4585841248734, -3639.087514768543, -6334.819654800851, -3894.8361748261664, -2927.6091370116637, -3174.014767886969, -2181.6196658157905, -9712.883497820318, -15077.391574071835, 0.012937500000000001, -0.10571875, 0.9871875, 192.0, 0.0, 0.0, 0.0, 0.0, 0.0, 0.0, 0.0, 0.0, 0.0, 1.645921637257647E9, 0.0, 2022-02-27 11:27:17.257
70.0, -1507.53575653264, -4898.16127993599, -1936.0857529742425, -10326.550641840773, -755.5783695672, 257.38033740286085, -5468.3319292464175, -1731.2320150413532, -2623.4913019527557, -6518.171014567735, -4302.37553147978, -3028.50491148292, -3636.0029740337104, -2536.2524433436924, -9753.049582606505, -15015.879573330829, 0.012937500000000001, -0.10571875, 0.9871875, 192.0, 0.0, 0.0, 0.0, 0.0, 0.0, 0.0, 0.0, 0.0, 0.0, 1.645921637265524E9, 0.0, 2022-02-27 11:27:17.265
72.0, -845.2759200663472, -4393.995332002083, -1452.5504651725848, -9785.303149855514, -132.97052776462172, 685.6174094220888, -5192.399643945652, -1412.3396768974874, -2070.3303301728165, -5820.8189393066095, -3933.9070241340432, -2824.187615416958, -3273.301216757443, -2155.5351800364474, -9475.552675193867, -14389.360176248572, 0.012937500000000001, -0.10571875, 0.9871875, 192.0, 0.0, 0.0, 0.0, 0.0, 0.0, 0.0, 0.0, 0.0, 0.0, 1.645921637272211E9, 0.0, 2022-02-27 11:27:17.272
74.0, -1505.5464512761178, -4904.039788727736, -1969.8815905906667, -10346.376639172631, -738.9486716924515, 224.6797352647466, -5575.352081698427, -1899.4512438119941, -4217.371847316247, -6841.824274280581, -4137.442009144069, -3078.617522551718, -3392.0560350484893, -2415.8659477074084, -9911.612857772454, -15539.871518596592, 0.012937500000000001, -0.10571875, 0.9871875, 192.0, 0.0, 0.0, 0.0, 0.0, 0.0, 0.0, 0.0, 0.0, 0.0, 1.645921637280047E9, 0.0, 2022-02-27 11:27:17.280
76.0, -1176.238200216079, -4632.53314882912, -1664.6014648200828, -10021.60579223702, -419.16226377037333, 514.7159713168111, -5246.110885871754, -1487.5980004785063, -1427.4271044048196, -5869.1881143078945, -4163.794715856876, -2876.088366042181, -3533.184949539298, -2334.9749845236524, -9471.73052689201, -14309.676207265402, 0.013468750000000002, -0.103859375, 0.9885937499999999, 192.0, 0.0, 56.0, 126.0, 104.0, 15.0, 120.0, 0.0, 0.0, 0.0, 1.645921637288231E9, 0.0, 2022-02-27 11:27:17.288
78.0, -992.2833433489018, -4497.7521297636185, -1613.0359903616895, -9950.68370708033, -287.93517207326556, 529.3116604461266, -5367.525561752983, -1664.8473340090914, -3655.2254742652744, -6321.900346505684, -3912.605811668135, -2937.7344772499177, -3188.141070382723, -2183.4972123500365, -9707.094396006394, -15068.808504200997, 0.013468750000000002, -0.103859375, 0.9885937499999999, 192.0, 0.0, 0.0, 0.0, 0.0, 0.0, 0.0, 0.0, 0.0, 0.0, 1.645921637301793E9, 0.0, 2022-02-27 11:27:17.301
80.0, -1502.7077797302939, -4874.82605872465, -1943.5959391112256, -10321.56620282724, -761.2333609143926, 253.11115421189717, -5465.202685022675, -1741.402058768518, -2665.4008228064567, -6512.71718892064, -4308.276392015981, -3030.2483475504337, -3652.923244586378, -2551.094001662016, -9758.324594297957, -15028.754178137086, 0.013468750000000002, -0.103859375, 0.9885937499999999, 192.0, 0.0, 0.0, 0.0, 0.0, 0.0, 0.0, 0.0, 0.0, 0.0, 1.645921637309812E9, 0.0, 2022-02-27 11:27:17.309
82.0, -801.2876869783029, -4345.38028781179, -1451.835209350015, -9769.209893847692, -128.14255096227538, 690.9147728579966, -5206.45889120804, -1419.0452002340794, -2056.673414310624, -5804.05513096513, -3925.391009496571, -2804.0486936627262, -3284.2535715405434, -2154.99873816952, -9478.458401973057, -14385.068641313153, 0.013468750000000002, -0.103859375, 0.9885937499999999, 192.0, 0.0, 0.0, 0.0, 0.0, 0.0, 0.0, 0.0, 0.0, 0.0, 1.64592163731775E9, 0.0, 2022-02-27 11:27:17.317
84.0, -1428.7011538387721, -4835.554043716675, -1959.3762706966725, -10330.104569209167, -748.8728462306078, 213.0121246590763, -5591.311227239517, -1899.942982190011, -4202.30677155337, -6817.72909375776, -4111.469282087002, -3044.240539579456, -3390.0443780475116, -2413.8095872175204, -9918.407788086866, -15538.731579629371, 0.013468750000000002, -0.103859375, 0.9885937499999999, 192.0, 0.0, 0.0, 0.0, 0.0, 0.0, 0.0, 0.0, 0.0, 0.0, 1.645921637325251E9, 0.0, 2022-02-27 11:27:17.325
86.0, -1094.7660916764846, -4558.191246770769, -1652.0397844362003, -10010.899306642927, -430.8298743760436, 500.9472967323419, -5267.769726248947, -1494.0800063705453, -1396.0899586784792, -5866.1929805508835, -4132.7034393195445, -2841.4878656253654, -3533.0284873281107, -2346.977871296152, -9481.900570619175, -14317.231096891297, 0.014, -0.10400000000000001, 0.986, 192.0, 0.0, 56.0, 126.0, 96.0, 15.0, 104.0, 0.0, 0.0, 0.0, 1.645921637332356E9, 0.0, 2022-02-27 11:27:17.332
88.0, -897.601353836221, -4417.665829380254, -1592.2041645293432, -9939.35137264149, -293.54545993154767, 528.9763842792969, -5387.128041640287, -1664.0650229531554, -3612.2207179332636, -6287.501011788966, -3883.0568054982195, -2903.9162878890384, -3189.236305861033, -2178.736290781056, -9715.968038555151, -15068.69674547872, 0.014, -0.10400000000000001, 0.986, 192.0, 0.0, 0.0, 0.0, 0.0, 0.0, 0.0, 0.0, 0.0, 0.0, 1.645921637340409E9, 0.0, 2022-02-27 11:27:17.340
90.0, -1426.7565520711605, -4813.939906828393, -1931.4589418719938, -10322.728493538916, -776.7678233108311, 244.37162212987212, -5480.1336503188195, -1748.2640443162973, -2659.5670175036216, -6505.341113250389, -4277.6321503677555, -3009.1706525290792, -3644.943671815833, -2545.6401760149215, -9766.281815324046, -15045.272117289558, 0.014, -0.10400000000000001, 0.986, 192.0, 0.0, 0.0, 0.0, 0.0, 0.0, 0.0, 0.0, 0.0, 0.0, 1.645921637347385E9, 0.0, 2022-02-27 11:27:17.347
92.0, -730.7679332218091, -4273.005339265506, -1442.7156976122496, -9769.88044618135, -151.03073728450983, 683.5610489322006, -5192.489050923473, -1414.060761220546, -2015.4567975350378, -5783.983264444264, -3908.2248697548953, -2795.6891412364416, -3295.071815856912, -2161.7266132505674, -9476.938483350097, -14378.519580187749, 0.014, -0.10400000000000001, 0.986, 192.0, 0.0, 0.0, 0.0, 0.0, 0.0, 0.0, 0.0, 0.0, 0.0, 1.645921637353974E9, 0.0, 2022-02-27 11:27:17.353
94.0, -1345.485609231664, -4752.852589232039, -1946.5687211237814, -10324.159005184056, -750.4374683424793, 212.72155198115732, -5597.435605220271, -1933.8505785287118, -4187.241695790493, -6766.431840232831, -4083.641360240145, -3032.88585339616, -3385.1716977562546, -2413.4072558173248, -9914.540936296098, -15545.12417854359, 0.014, -0.10400000000000001, 0.986, 192.0, 0.0, 0.0, 0.0, 0.0, 0.0, 0.0, 0.0, 0.0, 0.0, 1.645921637362093E9, 0.0, 2022-02-27 11:27:17.362
96.0, -1028.4931693664992, -4489.861963970896, -1654.9902147043008, -10013.134481088458, -442.4751332372586, 495.0911396850514, -5266.026290181433, -1493.4318057813414, -1378.253266603144, -5841.471951183314, -4112.944497221052, -2830.446103864444, -3535.2860135180968, -2340.1829409817387, -9483.554599708868, -14323.623695805514, 0.012, -0.108, 0.986, 192.0, 0.0, 48.0, 126.0, 80.0, 15.0, 104.0, 0.0, 0.0, 0.0, 1.645921637370071E9, 0.0, 2022-02-27 11:27:17.370
98.0, -822.7900651443083, -4350.76705822552, -1585.1410132814663, -9923.861613733961, -291.1091197859192, 531.6809453583891, -5396.202849889141, -1680.0018167497894, -3556.8554469174683, -6257.929653874595, -3855.1171249290855, -2881.184563777991, -3184.453032547597, -2173.662444789701, -9710.603619885876, -15051.441198759223, 0.012, -0.108, 0.986, 192.0, 0.0, 0.0, 0.0, 0.0, 0.0, 0.0, 0.0, 0.0, 0.0, 1.645921637377021E9, 0.0, 2022-02-27 11:27:17.377
100.0, -1369.804307199038, -4761.569769569608, -1931.9953837389212, -10322.929659239015, -781.9534280244623, 241.42119186177158, -5470.723565903136, -1773.7673847398025, -2678.968331690828, -6504.0670638164365, -4259.616644336777, -2986.3271696957554, -3642.283814225652, -2542.577987024544, -9778.441164307735, -15061.03009713055, 0.012, -0.108, 0.986, 192.0, 0.0, 0.0, 0.0, 0.0, 0.0, 0.0, 0.0, 0.0, 0.0, 1.64592163738478E9, 0.0, 2022-02-27 11:27:17.384
102.0, -686.0420925667397, -4229.397085833202, -1438.2006452322776, -9782.889161454339, -146.8509610713674, 671.4911069263347, -5184.353015941741, -1425.6613165928504, -1966.1488492666304, -5746.365278525982, -3895.5290789042806, -2786.569629498676, -3293.3954350227636, -2166.28636911945, -9473.295149003881, -14376.016184808754, 0.012, -0.108, 0.986, 192.0, 0.0, 0.0, 0.0, 0.0, 0.0, 0.0, 0.0, 0.0, 0.0, 1.645921637392716E9, 0.0, 2022-02-27 11:27:17.392
104.0, -1290.5673731049744, -4703.07525433007, -1929.7378575489352, -10316.022970202324, -740.7144595044208, 223.56214804198123, -5594.149898785341, -1931.9059767611, -4188.918076624641, -6761.2909390081095, -4068.196304821528, -3027.6108417047076, -3378.935561053224, -2400.309133566515, -9910.607029271965, -15552.343792002654, 0.012, -0.108, 0.986, 192.0, 0.0, 0.0, 0.0, 0.0, 0.0, 0.0, 0.0, 0.0, 0.0, 1.645921637400675E9, 0.0, 2022-02-27 11:27:17.400
106.0, -998.8324044743067, -4465.900893914806, -1653.2244268923316, -10022.03047538167, -461.1164881129847, 492.7665582616995, -5273.961159463067, -1492.7836051921374, -1392.8266039880043, -5863.1978467938725, -4115.358485622226, -2844.7512203158403, -3544.0926008334877, -2348.497789919113, -9487.510858477457, -14346.534233872204, 0.012, -0.112, 0.99, 192.0, 0.0, 48.0, 126.0, 64.0, 15.0, 120.0, 0.0, 0.0, 0.0, 1.645921637407345E9, 0.0, 2022-02-27 11:27:17.407
108.0, -776.9689890109288, -4305.191851281149, -1570.1429927519553, -9910.24940136068, -297.5240704445923, 541.6274716410007, -5385.295198594952, -1657.627720550027, -3509.0003620386556, -6216.46716791, -3839.716772999379, -2864.7560316033405, -3170.3043783073877, -2176.5905233133462, -9694.622122600333, -15034.006838084084, 0.012, -0.112, 0.99, 192.0, 0.0, 0.0, 0.0, 0.0, 0.0, 0.0, 0.0, 0.0, 0.0, 1.645921637422284E9, 0.0, 2022-02-27 11:27:17.422
110.0, -1321.3680769643877, -4713.692332946341, -1922.6747063010582, -10314.793624257281, -794.5821636417107, 237.59904355991407, -5498.171508094252, -1776.4495940744393, -2664.8196774506187, -6462.828095296395, -4240.081219682839, -2980.314550437278, -3630.884424553445, -2535.112504376472, -9773.233207849647, -15057.923204651262, 0.012, -0.112, 0.99, 192.0, 0.0, 0.0, 0.0, 0.0, 0.0, 0.0, 0.0, 0.0, 0.0, 1.645921637430403E9, 0.0, 2022-02-27 11:27:17.430
112.0, -631.3697256290586, -4184.783003900409, -1425.5495578705738, -9763.621957733865, -156.6633768872472, 676.0732145396727, -5202.346170228264, -1445.4873139247077, -1942.165427466086, -5735.748199909711, -3869.846924525133, -2766.341300766623, -3278.9562081046356, -2150.7072032341007, -9473.49631470398, -14375.703260386379, 0.012, -0.112, 0.99, 192.0, 0.0, 0.0, 0.0, 0.0, 0.0, 0.0, 0.0, 0.0, 0.0, 1.645921637436899E9, 0.0, 2022-02-27 11:27:17.436
114.0, -1252.971738931148, -4673.615655137975, -1922.9205754900665, -10309.205688143455, -747.8893694745743, 211.7604269695791, -5610.310210026528, -1929.71550580448, -4161.336023966793, -6738.179235241322, -4044.6599179100895, -3006.756664127906, -3367.133839980822, -2393.9612381412076, -9912.886907206406, -15550.600355935141, 0.012, -0.112, 0.99, 192.0, 0.0, 0.0, 0.0, 0.0, 0.0, 0.0, 0.0, 0.0, 0.0, 1.645921637445003E9, 0.0, 2022-02-27 11:27:17.445
116.0, -956.7217179205082, -4430.4957306976, -1639.7239732413261, -10006.07132984058, -446.74431642822225, 498.33214263107095, -5280.465517099562, -1516.8787857149584, -1351.8782081458817, -5831.123093500507, -4092.582058022268, -2819.1361211700587, -3530.4133332268398, -2338.6183188698674, -9487.756727666465, -14339.582841346604, 0.014, -0.106, 0.99, 192.0, 0.0, 56.0, 126.0, 88.0, 15.0, 120.0, 0.0, 0.0, 0.0, 1.645921637452887E9, 0.0, 2022-02-27 11:27:17.452
118.0, -739.283947859281, -4270.70310958661, -1557.0672222456005, -9902.470994290232, -275.9993405341316, 547.9306635773974, -5367.324396052885, -1655.3478426155857, -3491.9906845081673, -6222.010400534917, -3828.786769960734, -2861.3362147016783, -3170.6173027297623, -2150.148409622718, -9695.49384063409, -15036.107902062882, 0.014, -0.106, 0.99, 192.0, 0.0, 0.0, 0.0, 0.0, 0.0, 0.0, 0.0, 0.0, 0.0, 1.645921637459701E9, 0.0, 2022-02-27 11:27:17.459
120.0, -1303.7772540780609, -4689.351283234511, -1919.3889998661282, -10319.822766759726, -792.2128787294482, 234.64861329181355, -5494.684635959225, -1806.266821177819, -2699.420177867434, -6483.279941473001, -4229.955879444585, -2979.666349848074, -3626.347020429018, -2532.586757253022, -9779.93873118624, -15090.713213767198, 0.014, -0.106, 0.99, 192.0, 0.0, 0.0, 0.0, 0.0, 0.0, 0.0, 0.0, 0.0, 0.0, 1.645921637468925E9, 0.0, 2022-02-27 11:27:17.468
122.0, -621.6243650465448, -4170.522590937923, -1425.2813369371102, -9772.294434582524, -165.80524036946778, 669.32298771417, -5190.0750625223, -1436.7254300982274, -1906.6038020376925, -5727.902737605898, -3872.3726716485826, -2770.7445944243186, -3288.9250861317023, -2162.195999884129, -9472.44578271458, -14374.831542352624, 0.014, -0.106, 0.99, 192.0, 0.0, 0.0, 0.0, 0.0, 0.0, 0.0, 0.0, 0.0, 0.0, 1.645921637475152E9, 0.0, 2022-02-27 11:27:17.475
124.0, -1229.3906485307991, -4650.34748916, -1917.6679155430695, -10307.909286965047, -747.1294101630939, 219.56118578448127, -5593.322884240495, -1934.5658343512816, -4174.232980517505, -6744.728296366728, -4037.0826765397405, -3002.979219314959, -3367.089136491911, -2404.8688894353977, -9916.35142759698, -15555.160111804023, 0.014, -0.106, 0.99, 192.0, 0.0, 0.0, 0.0, 0.0, 0.0, 0.0, 0.0, 0.0, 0.0, 1.645921637482751E9, 0.0, 2022-02-27 11:27:17.482
126.0, -962.8460959012623, -4421.935012571217, -1651.5256943137283, -10023.773911449183, -475.0863283975516, 474.3487208305265, -5301.520860376461, -1538.3364603920534, -1367.5691327535073, -5847.551625675157, -4096.180688879573, -2817.4597403359107, -3542.9079583773564, -2363.540513937535, -9502.218306329049, -14365.332050959118, 0.016, -0.106, 0.99, 192.0, 0.0, 64.0, 126.0, 88.0, 15.0, 120.0, 0.0, 0.0, 0.0, 1.645921637489363E9, 0.0, 2022-02-27 11:27:17.489
128.0, -743.9778141948956, -4264.936359517141, -1556.2402077007541, -9909.355331582467, -278.5474394020366, 535.9054250604421, -5381.0483671484435, -1673.564514346661, -3471.8517627539354, -6208.6440573506425, -3831.401924062005, -2868.0864415271813, -3178.2168958445664, -2162.799496984422, -9696.767890068042, -15030.698779904698, 0.016, -0.106, 0.99, 192.0, 0.0, 0.0, 0.0, 0.0, 0.0, 0.0, 0.0, 0.0, 0.0, 1.645921637497306E9, 0.0, 2022-02-27 11:27:17.497
130.0, -1329.7052776462172, -4715.12284459148, -1931.7718662943682, -10333.658496577562, -803.992248057395, 223.1151131528751, -5508.475662288149, -1791.201745414942, -2750.8962453480062, -6517.2769447895225, -4246.36205987478, -2995.334922711244, -3635.8465118225236, -2549.17175163886, -9785.593722533433, -15106.739414541653, 0.016, -0.106, 0.99, 192.0, 0.0, 0.0, 0.0, 0.0, 0.0, 0.0, 0.0, 0.0, 0.0, 1.645921637505195E9, 0.0, 2022-02-27 11:27:17.505
132.0, -659.5999788761114, -4214.220251348049, -1435.8313603200152, -9786.778364989563, -166.4087374697611, 667.6689586244772, -5181.044957762356, -1432.5903573739956, -1918.0255434543544, -5750.656813461401, -3893.986808536865, -2788.9165626664835, -3299.028074625501, -2174.6906250346456, -9469.785925124399, -14368.930681816422, 0.016, -0.106, 0.99, 192.0, 0.0, 0.0, 0.0, 0.0, 0.0, 0.0, 0.0, 0.0, 0.0, 1.645921637512526E9, 0.0, 2022-02-27 11:27:17.512
134.0, -1283.548925346008, -4700.92948686236, -1928.5085116038933, -10316.738226024894, -746.8164857407196, 211.7604269695791, -5588.941942327255, -1942.5230553773708, -4206.9559344000745, -6768.354090255987, -4055.7463831599216, -3032.6399842071514, -3366.552694624984, -2405.5841452579675, -9914.116253151447, -15552.008515835825, 0.016, -0.106, 0.99, 192.0, 0.0, 0.0, 0.0, 0.0, 0.0, 0.0, 0.0, 0.0, 0.0, 1.645921637519895E9, 0.0, 2022-02-27 11:27:17.519
136.0, -1041.8371608063176, -4500.032007698061, -1664.1097264420662, -10031.306449330623, -472.33706382954887, 478.77436623267727, -5281.516049088961, -1526.7135532752936, -1397.967505212725, -5881.079242358118, -4126.020267727407, -2851.27792969679, -3544.1149525779433, -2366.5132959500907, -9494.730471936522, -14356.167835732442, 0.014, -0.112, 0.988, 192.0, 0.0, 56.0, 126.0, 64.0, 15.0, 112.0, 0.0, 0.0, 0.0, 1.645921637527907E9, 0.0, 2022-02-27 11:27:17.527
138.0, -840.962033386473, -4384.272323164025, -1568.444260173352, -9904.326189080024, -280.4920411696483, 550.4564107008471, -5379.863724692313, -1648.6423192789937, -3500.573754379005, -6251.402944493645, -3863.588436077647, -2891.891049372083, -3177.255770832988, -2172.321340122383, -9696.410262156756, -15017.332436720424, 0.014, -0.112, 0.988, 192.0, 0.0, 0.0, 0.0, 0.0, 0.0, 0.0, 0.0, 0.0, 0.0, 1.645921637535967E9, 0.0, 2022-02-27 11:27:17.535
140.0, -1489.5873057350286, -4879.497573315808, -1951.553160137315, -10341.28044143682, -799.9465823109845, 225.57380504295887, -5480.1336503188195, -1792.006408215333, -2851.903778541539, -6582.208762432189, -4278.503868401512, -3031.8576731512157, -3624.33536342804, -2541.16982712386, -9793.617998792888, -15119.189336203259, 0.014, -0.112, 0.988, 192.0, 0.0, 0.0, 0.0, 0.0, 0.0, 0.0, 0.0, 0.0, 0.0, 1.645921637550312E9, 0.0, 2022-02-27 11:27:17.550
142.0, -870.3545773452017, -4423.186710260715, -1450.6282151494283, -9793.305074370513, -158.38446121030586, 676.6990633844214, -5159.9896144854565, -1409.1657291848337, -1915.3433341197176, -5793.6392180489565, -3944.814675428233, -2833.2624236658125, -3295.161222834733, -2174.958845968109, -9454.20675923905, -14339.895765768977, 0.014, -0.112, 0.988, 192.0, 0.0, 0.0, 0.0, 0.0, 0.0, 0.0, 0.0, 0.0, 0.0, 1.645921637557609E9, 0.0, 2022-02-27 11:27:17.557
144.0, -1512.7213612462715, -4935.689858876451, -1941.584282110248, -10323.779025528316, -731.1702646220047, 230.0441539340203, -5570.725270596179, -1905.3744560926505, -4282.482478914557, -6823.361733360498, -4114.173843166094, -3089.2122494235336, -3357.9472730096904, -2389.5132409946013, -9900.459337289256, -15525.968733545393, 0.014, -0.112, 0.988, 192.0, 0.0, 0.0, 0.0, 0.0, 0.0, 0.0, 0.0, 0.0, 0.0, 1.645921637564883E9, 0.0, 2022-02-27 11:27:17.564
146.0, -1276.038739209025, -4737.854568702527, -1688.4731278983509, -10052.965289707816, -476.42743306487006, 482.395348834437, -5264.349909347286, -1509.8379862115369, -1485.608695221984, -5956.046993261218, -4199.289286051904, -2921.574166008731, -3547.802990413069, -2378.113851322395, -9488.539038722402, -14345.573108860626, 0.018000000000000002, -0.108, 0.986, 192.0, 0.0, 72.0, 126.0, 80.0, 15.0, 104.0, 0.0, 0.0, 0.0, 1.645921637572316E9, 0.0, 2022-02-27 11:27:17.572
148.0, -1026.7497332989851, -4560.113496793926, -1581.1624027684215, -9918.139567153403, -272.11013699890816, 561.2075997838497, -5343.050401574422, -1650.5869210466053, -3543.936138622301, -6294.6312182702095, -3925.0780850741967, -2953.0901256907136, -3181.592009257318, -2184.5477443394357, -9684.452078873168, -14993.080793986415, 0.018000000000000002, -0.108, 0.986, 192.0, 0.0, 0.0, 0.0, 0.0, 0.0, 0.0, 0.0, 0.0, 0.0, 1.645921637580223E9, 0.0, 2022-02-27 11:27:17.580
150.0, -1610.6890571938823, -4984.08138562219, -1968.7640033679013, -10353.752714842882, -805.3333527247134, 234.1792266582521, -5483.642874198303, -1777.3213121081965, -2903.312790788745, -6623.939469330248, -4331.075171360394, -3083.691368543073, -3635.9806222892553, -2541.1474753794046, -9793.819164492985, -15109.712196554208, 0.018000000000000002, -0.108, 0.986, 192.0, 0.0, 0.0, 0.0, 0.0, 0.0, 0.0, 0.0, 0.0, 0.0, 1.645921637588286E9, 0.0, 2022-02-27 11:27:17.588
152.0, -906.2514789404248, -4432.529739443033, -1466.028567079135, -9793.41683309279, -161.17842926721923, 679.0236448077733, -5167.0304139888785, -1416.7653222996382, -1975.6259889156806, -5797.5731250730905, -3971.0332716743083, -2859.0116332783264, -3305.264211328532, -2167.2027906421176, -9465.136762277694, -14341.303925669663, 0.018000000000000002, -0.108, 0.986, 192.0, 0.0, 0.0, 0.0, 0.0, 0.0, 0.0, 0.0, 0.0, 0.0, 1.64592163759477E9, 0.0, 2022-02-27 11:27:17.594
154.0, -1483.5299829876403, -4891.9698467218695, -1943.8194565557787, -10309.608019543652, -716.1722440924935, 234.5145028250817, -5557.135409967353, -1899.5182990453602, -4305.66123791471, -6810.330666343054, -4109.032941941374, -3083.46785109852, -3353.0075374850676, -2408.422816803791, -9905.063796647048, -15534.529451671775, 0.018000000000000002, -0.108, 0.986, 192.0, 0.0, 0.0, 0.0, 0.0, 0.0, 0.0, 0.0, 0.0, 0.0, 1.645921637601829E9, 0.0, 2022-02-27 11:27:17.601
156.0, -1223.7356571836065, -4682.399890708911, -1697.726750102848, -10060.296661889155, -475.8239359645768, 480.9648371892974, -5264.349909347286, -1513.2130996242881, -1498.5056517726962, -5962.305481708704, -4192.516707481946, -2900.541174476287, -3555.648452716882, -2384.1711740697833, -9496.630370215222, -14359.341783445096, 0.02, -0.108, 0.992, 192.0, 0.0, 80.0, 126.0, 80.0, 15.5, 0.0, 0.0, 0.0, 0.0, 1.645921637609817E9, 0.0, 2022-02-27 11:27:17.609
158.0, -943.0200985694049, -4473.4557835407, -1573.0040160422345, -9903.47682279072, -260.71074732670155, 566.0579283306514, -5333.7967793699245, -1633.2196156048317, -3495.030521754089, -6294.295942103379, -3901.29582897375, -2923.7422852208956, -3171.8242969303487, -2175.7188052795896, -9675.064346201938, -14981.368479891835, 0.02, -0.108, 0.992, 192.0, 0.0, 0.0, 0.0, 0.0, 0.0, 0.0, 0.0, 0.0, 0.0, 1.645921637617851E9, 0.0, 2022-02-27 11:27:17.617
160.0, -1521.72911426176, -4907.683123073951, -1963.645453887636, -10354.065639265256, -799.0301607883168, 231.3405551124281, -5478.792545651501, -1772.9403701949561, -2910.442997269988, -6618.507995427608, -4307.47172921559, -3050.9684146605036, -3624.044790750121, -2547.0036324266953, -9792.589818547944, -15124.643161850354, 0.02, -0.108, 0.992, 192.0, 0.0, 0.0, 0.0, 0.0, 0.0, 0.0, 0.0, 0.0, 0.0, 1.645921637624867E9, 0.0, 2022-02-27 11:27:17.624
162.0, -806.1156637806492, -4332.460979516623, -1457.9372355863138, -9797.93188547276, -165.5593711804594, 678.7554238743096, -5175.032338503878, -1415.1783484433113, -1908.5260520608488, -5800.724721041289, -3942.132466093596, -2843.164246459514, -3288.455699498141, -2172.5895610558464, -9451.971584793519, -14336.230079678307, 0.02, -0.108, 0.992, 192.0, 0.0, 0.0, 0.0, 0.0, 0.0, 0.0, 0.0, 0.0, 0.0, 1.645921637632466E9, 0.0, 2022-02-27 11:27:17.632
164.0, -1363.2328943291777, -4791.543458884175, -1932.330659905751, -10303.975379940914, -722.5871947511667, 235.63209004784704, -5579.710671867213, -1912.325848618251, -4264.17640020566, -6761.648566919394, -4070.0738513557735, -3072.0014061929473, -3337.830702999914, -2398.14101435435, -9900.682854733808, -15537.345771473143, 0.017, -0.107, 0.991, 192.0, 0.0, 56.0, 126.0, 88.0, 15.0, 120.0, 0.0, 0.0, 0.0, 1.645921637640483E9, 0.0, 2022-02-27 11:27:17.640
166.0, -1131.6911735166518, -4593.52935475461, -1695.9609622908788, -10060.65428980044, -498.04156995315196, 466.6150172489902, -5278.900894987691, -1536.5483208356288, -1458.4066222198753, -5936.265699418271, -4154.898721563664, -2873.1379357740802, -3551.0439933590883, -2383.344159524937, -9502.084195862317, -14377.022013309243, 0.017, -0.107, 0.991, 192.0, 0.0, 0.0, 0.0, 0.0, 0.0, 0.0, 0.0, 0.0, 0.0, 1.64592163764777E9, 0.0, 2022-02-27 11:27:17.647
168.0, -840.6491089640987, -4365.72037526612, -1560.4646874028074, -9892.72563370772, -260.71074732670155, 564.6050649410564, -5340.032916072955, -1643.1884936318986, -3435.843102436436, -6232.247499495447, -3860.235674409351, -2897.3672267636334, -3170.5502474963964, -2180.9714652265866, -9673.499724090067, -14983.603654337367, 0.017, -0.107, 0.991, 192.0, 0.0, 0.0, 0.0, 0.0, 0.0, 0.0, 0.0, 0.0, 0.0, 1.645921637655199E9, 0.0, 2022-02-27 11:27:17.655
170.0, -1438.222996976733, -4812.509395183253, -1965.4782969329713, -10349.170607229544, -811.9047655945737, 226.78079924354546, -5479.530153218527, -1780.6740737764924, -2899.870622142628, -6602.571201630974, -4264.824600794864, -3033.9363853855593, -3619.3285726700515, -2546.4001353264016, -9799.764728518097, -15146.279650483091, 0.017, -0.107, 0.991, 192.0, 0.0, 0.0, 0.0, 0.0, 0.0, 0.0, 0.0, 0.0, 0.0, 1.645921637670248E9, 0.0, 2022-02-27 11:27:17.670
172.0, -732.2431483558594, -4271.641882853733, -1457.2666832526545, -9786.778364989563, -182.2114207996632, 664.0926795116281, -5200.625085905205, -1416.0724182215235, -1873.5008684993827, -5754.836589674544, -3916.6738291590013, -2800.5618215276986, -3303.8336996833923, -2183.0725292053853, -9457.738334862988, -14336.051265722665, 0.017, -0.107, 0.991, 192.0, 0.0, 0.0, 0.0, 0.0, 0.0, 0.0, 0.0, 0.0, 0.0, 1.645921637677314E9, 0.0, 2022-02-27 11:27:17.677
174.0, -1270.003768206092, -4690.670036157374, -1913.1528631630974, -10279.03083312879, -721.8719389285969, 245.51156109709277, -5577.475497421682, -1914.9633544639773, -4242.785780761931, -6730.624345615429, -4028.544310157813, -3016.792597388339, -3334.1203134203333, -2364.725156393666, -9907.3883780704, -15546.040600066257, 0.0155, -0.1075, 0.9915, 192.0, 0.0, 56.0, 126.0, 80.0, 15.5, 0.0, 0.0, 0.0, 0.0, 1.645921637684755E9, 0.0, 2022-02-27 11:27:17.684
176.0, -1086.495946228021, -4526.541176622054, -1709.953154319901, -10064.342327635566, -536.4418669273695, 436.2837000231386, -5315.490700661028, -1538.0011842252236, -1472.9352561158248, -5932.085923205129, -4134.603337598245, -2857.2905489552677, -3568.768926712147, -2390.787290428554, -9519.607963515278, -14404.961693878377, 0.0155, -0.1075, 0.9915, 192.0, 0.0, 0.0, 0.0, 0.0, 0.0, 0.0, 0.0, 0.0, 0.0, 1.645921637692788E9, 0.0, 2022-02-27 11:27:17.692
178.0, -775.2032011989595, -4303.895450102741, -1557.0448705011454, -9882.466183002733, -278.61449463540254, 561.8334486285984, -5348.973613855078, -1637.0417639066893, -3374.66637786226, -6193.623685076676, -3837.5039502983036, -2872.243865995868, -3185.9282476816475, -2160.7878399834444, -9674.840828757386, -14955.283994112491, 0.0155, -0.1075, 0.9915, 192.0, 0.0, 0.0, 0.0, 0.0, 0.0, 0.0, 0.0, 0.0, 0.0, 1.645921637700018E9, 0.0, 2022-02-27 11:27:17.700
180.0, -1379.8402404594708, -4754.79719099965, -1957.968110795988, -10345.147293227588, -822.7006581664871, 208.1617961122747, -5500.764310451068, -1778.3718440975958, -2913.594593238186, -6562.807448244983, -4244.752734273999, -3019.4524549785206, -3626.1905582178306, -2552.6362720294323, -9807.297266399535, -15158.19313027777, 0.0155, -0.1075, 0.9915, 192.0, 0.0, 0.0, 0.0, 0.0, 0.0, 0.0, 0.0, 0.0, 0.0, 1.645921637707391E9, 0.0, 2022-02-27 11:27:17.707
182.0, -680.3423977306363, -4212.49916702499, -1447.767191859149, -9785.437260322245, -177.8751823753336, 656.5377898857344, -5168.326815167286, -1401.0073424586467, -1822.9635742859334, -5723.767664881667, -3891.8186893247, -2784.826193431162, -3304.683065972694, -2172.343691866838, -9450.786942337387, -14329.211631919341, 0.0155, -0.1075, 0.9915, 192.0, 0.0, 0.0, 0.0, 0.0, 0.0, 0.0, 0.0, 0.0, 0.0, 1.645921637715372E9, 0.0, 2022-02-27 11:27:17.715
184.0, -1226.3731630293325, -4648.738163559218, -1906.5143950598713, -10276.46038251643, -712.7300754463763, 240.75063952811237, -5573.63099737537, -1899.8535752121898, -4221.618678762756, -6729.931441537314, -4009.8582517931764, -2994.664370377585, -3332.198063397177, -2372.615322186389, -9893.887924419394, -15534.417692949499, 0.01375, -0.10675, 0.99175, 192.0, 0.0, 48.0, 126.0, 88.0, 15.5, 0.0, 0.0, 0.0, 0.0, 1.64592163772243E9, 0.0, 2022-02-27 11:27:17.722
186.0, -1030.7283438120298, -4475.780364964052, -1698.7996338367027, -10057.212121154324, -517.6440498404563, 452.913397897887, -5300.604438853793, -1531.4074196109082, -1443.7885813461044, -5900.301742589681, -4123.874500259698, -2832.748333543341, -3566.9807871557223, -2381.1313368238616, -9508.990884899007, -14399.217295553362, 0.01375, -0.10675, 0.99175, 192.0, 0.0, 0.0, 0.0, 0.0, 0.0, 0.0, 0.0, 0.0, 0.0, 1.645921637729549E9, 0.0, 2022-02-27 11:27:17.729
188.0, -719.7932266942533, -4247.837275008831, -1544.214969183799, -9873.704299176252, -259.6378635928468, 566.5496667086682, -5347.63250918776, -1606.218708302821, -3343.4633426026517, -6154.150504368604, -3821.7683222017677, -2850.987357018871, -3183.178983113645, -2158.8432382158326, -9667.688270531688, -14953.33939234488, 0.01375, -0.10675, 0.99175, 192.0, 0.0, 0.0, 0.0, 0.0, 0.0, 0.0, 0.0, 0.0, 0.0, 1.64592163773696E9, 0.0, 2022-02-27 11:27:17.736
190.0, -1327.4924549451418, -4705.332780520056, -1955.3529566947172, -10340.408723403063, -822.5665476997552, 211.7157234806685, -5520.031514171543, -1802.8693560206123, -2909.012485624848, -6536.745314210095, -4220.6352020067225, -2994.4408529330317, -3618.926241269856, -2549.7305452502424, -9807.207859421715, -15168.4302292383, 0.01375, -0.10675, 0.99175, 192.0, 0.0, 0.0, 0.0, 0.0, 0.0, 0.0, 0.0, 0.0, 0.0, 1.645921637745063E9, 0.0, 2022-02-27 11:27:17.745
192.0, -648.8711415375641, -4175.708195651555, -1453.5786454175288, -9785.973702189172, -185.72064467914637, 654.7272985848545, -5186.945818298557, -1427.672973593828, -1793.7051407939364, -5706.310952462072, -3873.3114449157056, -2757.5570651956878, -3301.196193837666, -2162.6877382621456, -9456.01725053993, -14335.380713389006, 0.01375, -0.10675, 0.99175, 192.0, 0.0, 0.0, 0.0, 0.0, 0.0, 0.0, 0.0, 0.0, 0.0, 1.645921637753064E9, 0.0, 2022-02-27 11:27:17.753
194.0, -1204.557860440953, -4615.635230020908, -1912.61642129617, -10279.679033717995, -730.0526773992393, 227.85368297740018, -5604.25288727914, -1907.3637613491728, -4219.607021761778, -6705.746854036672, -4003.9126877680646, -3003.046274548325, -3338.61301405585, -2376.4151187437915, -9903.923857679827, -15541.07851279718, 0.011875, -0.103375, 0.990875, 192.0, 0.0, 40.0, 126.0, 112.0, 15.0, 120.0, 0.0, 0.0, 0.0, 1.645921637759565E9, 0.0, 2022-02-27 11:27:17.759
196.0, -1008.242488889991, -4449.002975106594, -1690.3506744325966, -10051.110094918025, -525.4001051664478, 436.88719712343186, -5309.545136635917, -1537.665908058394, -1419.6934008232834, -5893.350350064082, -4108.898831474642, -2827.22745266288, -3566.667862733348, -2397.1351858538615, -9519.630315259734, -14403.352368277594, 0.011875, -0.103375, 0.990875, 192.0, 0.0, 0.0, 0.0, 0.0, 0.0, 0.0, 0.0, 0.0, 0.0, 1.645921637767613E9, 0.0, 2022-02-27 11:27:17.767
198.0, -701.6659619409993, -4228.547719543901, -1535.8777685019695, -9860.80734262554, -257.76031705860106, 554.5020764472577, -5346.626680687271, -1608.6550484484494, -3323.1456068927773, -6135.9114808930735, -3810.4806912518375, -2830.8484352646396, -3176.6969772216057, -2170.1085174213076, -9670.593997310878, -14956.781560990998, 0.011875, -0.103375, 0.990875, 192.0, 0.0, 0.0, 0.0, 0.0, 0.0, 0.0, 0.0, 0.0, 0.0, 1.64592163777589E9, 0.0, 2022-02-27 11:27:17.775
200.0, -1328.6994491457283, -4701.197707795824, -1957.2752067178735, -10339.984040258412, -831.0155071038613, 189.43103425872735, -5518.712761248679, -1808.8372717901793, -2953.5818640687307, -6581.448803120709, -4219.651725250688, -2981.476841148954, -3617.9651162582777, -2541.616862012966, -9818.048455482538, -15188.09976435897, 0.011875, -0.103375, 0.990875, 192.0, 0.0, 0.0, 0.0, 0.0, 0.0, 0.0, 0.0, 0.0, 0.0, 1.645921637782707E9, 0.0, 2022-02-27 11:27:17.782
202.0, -634.2531006637932, -4160.106678021751, -1447.7001366257832, -9779.93873118624, -190.57097322594802, 667.0431097797286, -5205.922449341113, -1427.2929939380879, -1753.784925196758, -5693.168126722351, -3873.3114449157056, -2744.3471842226013, -3308.5052142745512, -2175.4058808572154, -9449.937576048085, -14327.69171329638, 0.011875, -0.103375, 0.990875, 192.0, 0.0, 0.0, 0.0, 0.0, 0.0, 0.0, 0.0, 0.0, 0.0, 1.64592163779727E9, 0.0, 2022-02-27 11:27:17.797
204.0, -1170.85142980235, -4574.955055112249, -1894.4444530540054, -10268.190237067967, -696.9720956053849, 255.54749435752564, -5604.141128556863, -1894.42210130955, -4208.542908256401, -6674.610874010429, -3982.3432543686936, -2976.0006637574033, -3322.9220894482246, -2339.400629925803, -9895.00551164216, -15532.473091181886, 0.0139375, -0.1036875, 0.9904375, 192.0, 0.0, 64.0, 126.0, 96.0, 15.0, 120.0, 0.0, 0.0, 0.0, 1.645921637805395E9, 0.0, 2022-02-27 11:27:17.805
206.0, -1012.0869889363038, -4443.459742481678, -1694.1281192455435, -10066.018708469714, -527.5905761230679, 423.7667231281666, -5281.292531644408, -1533.6872975453493, -1437.0830580095123, -5882.330940047615, -4111.2234128979935, -2828.3003363967346, -3563.2033423427756, -2389.490889250146, -9509.728492466033, -14409.588504980626, 0.0139375, -0.1036875, 0.9904375, 192.0, 0.0, 0.0, 0.0, 0.0, 0.0, 0.0, 0.0, 0.0, 0.0, 1.645921637811833E9, 0.0, 2022-02-27 11:27:17.811
208.0, -692.3899879920468, -4219.651725250688, -1525.7524282637155, -9867.490514217678, -251.6806425667575, 562.3475387510704, -5329.281726989952, -1601.7483594117593, -3290.489708243574, -6139.890091406119, -3810.726560440846, -2836.5928335896533, -3179.133317367234, -2181.57496232688, -9651.013869168028, -14935.86032818083, 0.0139375, -0.1036875, 0.9904375, 192.0, 0.0, 0.0, 0.0, 0.0, 0.0, 0.0, 0.0, 0.0, 0.0, 1.645921637819957E9, 0.0, 2022-02-27 11:27:17.819
210.0, -1337.0590015720131, -4693.285190258645, -1958.5716078962814, -10351.361078186164, -831.1719693150484, 196.33772329541725, -5524.054828173498, -1805.5068618663386, -2982.3485591827107, -6571.435221604732, -4225.999620675996, -3005.2590972494004, -3618.3003924251075, -2553.4409348298236, -9812.505222857622, -15194.5370667621, 0.0139375, -0.1036875, 0.9904375, 192.0, 0.0, 0.0, 0.0, 0.0, 0.0, 0.0, 0.0, 0.0, 0.0, 1.645921637827956E9, 0.0, 2022-02-27 11:27:17.827
212.0, -655.4872578963349, -4180.156192798161, -1451.47758143873, -9789.147649901826, -199.08698786342, 639.4610571218798, -5195.7971091028585, -1419.6039938454621, -1760.5351520222607, -5707.65205712939, -3889.5611631347138, -2762.385041998034, -3317.624726012317, -2172.120174422285, -9448.954099292052, -14316.292323624173, 0.0139375, -0.1036875, 0.9904375, 192.0, 0.0, 0.0, 0.0, 0.0, 0.0, 0.0, 0.0, 0.0, 0.0, 1.645921637834985E9, 0.0, 2022-02-27 11:27:17.834
214.0, -1185.335360209389, -4604.928744426817, -1896.3219995882512, -10265.84330390016, -714.6299737250774, 223.91977595326617, -5594.48517495217, -1919.321944632762, -4226.580766031833, -6714.620496585429, -3996.067225464252, -2980.2251434594564, -3327.0795139169118, -2366.6697581612775, -9900.794613456084, -15530.059102780713, 0.01396875, -0.10484375, 0.9882187499999999, 192.0, 0.0, 56.0, 126.0, 88.0, 15.0, 104.0, 0.0, 0.0, 0.0, 1.645921637842593E9, 0.0, 2022-02-27 11:27:17.842
216.0, -1025.3862768872116, -4466.45968752619, -1695.6480378685044, -10064.431734613388, -528.3728871790037, 422.269156249661, -5293.42952888364, -1545.01963198419, -1449.1306482709228, -5908.862460716065, -4125.707343305033, -2837.4645516234104, -3569.640644745904, -2399.2586015771153, -9512.589515756312, -14409.320284047162, 0.01396875, -0.10484375, 0.9882187499999999, 192.0, 0.0, 0.0, 0.0, 0.0, 0.0, 0.0, 0.0, 0.0, 0.0, 1.645921637849601E9, 0.0, 2022-02-27 11:27:17.849
218.0, -700.9730578628848, -4231.185225389627, -1519.7174572607826, -9861.500246703656, -247.92554949826595, 556.3349194925928, -5335.942546837634, -1625.2400428342871, -3299.4751095146075, -6151.98238515644, -3823.04237163572, -2847.9475197729494, -3178.1498406112005, -2169.4603168321037, -9651.058572656939, -14932.015828134518, 0.01396875, -0.10484375, 0.9882187499999999, 192.0, 0.0, 0.0, 0.0, 0.0, 0.0, 0.0, 0.0, 0.0, 0.0, 1.645921637857615E9, 0.0, 2022-02-27 11:27:17.857
220.0, -1362.1376588508676, -4739.776818725684, -1956.9846340399545, -10358.088953267212, -837.8551409071853, 180.28917077650678, -5519.964458938177, -1822.5612428857378, -3030.337754528255, -6620.810225106505, -4230.112341655772, -3015.2503270209227, -3608.9126597538784, -2556.2796063756477, -9812.237001924159, -15210.25034311418, 0.01396875, -0.10484375, 0.9882187499999999, 192.0, 0.0, 0.0, 0.0, 0.0, 0.0, 0.0, 0.0, 0.0, 0.0, 1.64592163786475E9, 0.0, 2022-02-27 11:27:17.864
222.0, -706.4939387433457, -4232.861606223775, -1455.5232471851407, -9799.384748862356, -196.42713027323848, 628.3522401275922, -5187.839888076769, -1429.8410928059927, -1756.333024064663, -5735.971717354264, -3912.650515157046, -2783.4180335304777, -3323.167958637233, -2194.3154566664048, -9439.34284917627, -14308.73743399828, 0.01396875, -0.10484375, 0.9882187499999999, 192.0, 0.0, 0.0, 0.0, 0.0, 0.0, 0.0, 0.0, 0.0, 0.0, 1.645921637872228E9, 0.0, 2022-02-27 11:27:17.872
224.0, -1242.7569917150727, -4666.105469000991, -1895.070301898754, -10268.74903067935, -692.7029124144212, 221.03640091853154, -5576.268503221096, -1913.8681189856673, -4256.88973151323, -6741.889624820903, -4013.255716950383, -3019.5195102118864, -3320.0387144134897, -2368.6143599288894, -9884.164915581336, -15516.35748342961, 0.016984375, -0.104421875, 0.986109375, 192.0, 0.0, 80.0, 126.0, 96.0, 15.0, 96.0, 0.0, 0.0, 0.0, 1.645921637880965E9, 0.0, 2022-02-27 11:27:17.880
226.0, -1144.1187434338026, -4587.919066896327, -1715.7422561338255, -10089.577447125608, -534.0278785261963, 410.93682181082033, -5296.737587063025, -1548.439448885852, -1509.2121373667883, -5981.8856098515525, -4162.721832123021, -2882.592723678675, -3579.5648192840604, -2412.0885028944617, -9512.477757034036, -14414.66235097198, 0.016984375, -0.104421875, 0.986109375, 192.0, 0.0, 0.0, 0.0, 0.0, 0.0, 0.0, 0.0, 0.0, 0.0, 1.645921637887561E9, 0.0, 2022-02-27 11:27:17.887
228.0, -844.9406438995176, -4381.947741740673, -1529.9098527324024, -9874.017223598627, -229.61947078936944, 559.039480571685, -5318.262316973486, -1605.9504873693572, -3314.7860544664927, -6196.216487433492, -3865.2424651673396, -2897.3672267636334, -3176.7640324549716, -2169.5273720654695, -9641.6261364968, -14901.66215916421, 0.016984375, -0.104421875, 0.986109375, 192.0, 0.0, 0.0, 0.0, 0.0, 0.0, 0.0, 0.0, 0.0, 0.0, 1.645921637895501E9, 0.0, 2022-02-27 11:27:17.895
230.0, -1557.02251875669, -4932.247690230333, -1973.614331914703, -10370.762392373372, -816.3974662300905, 186.30179003498438, -5497.545659249504, -1811.430074146995, -3110.133482233701, -6682.1657636363225, -4281.074319013872, -3076.359996361732, -3604.956400985289, -2555.944330208818, -9813.064016469005, -15207.925761690827, 0.016984375, -0.104421875, 0.986109375, 192.0, 0.0, 0.0, 0.0, 0.0, 0.0, 0.0, 0.0, 0.0, 0.0, 1.645921637902634E9, 0.0, 2022-02-27 11:27:17.902
232.0, -933.3194414758017, -4453.987414120128, -1471.9741311042467, -9807.297266399535, -180.87031613234475, 647.9547200148965, -5157.486219106462, -1396.7828627565937, -1825.5340248982936, -5784.832630733566, -3965.8923704495874, -2833.1953684324467, -3315.6354207557943, -2189.934514753165, -9432.994953750964, -14293.672358235402, 0.016984375, -0.104421875, 0.986109375, 192.0, 0.0, 0.0, 0.0, 0.0, 0.0, 0.0, 0.0, 0.0, 0.0, 1.645921637917163E9, 0.0, 2022-02-27 11:27:17.917
234.0, -1458.2725117531434, -4876.368329092065, -1900.6805897570362, -10275.812181927227, -665.6349498790444, 247.61262507589163, -5546.5183313510815, -1885.973141905444, -4341.312270320925, -6787.48718350973, -4073.516020001891, -3071.755537003939, -3307.6558479852497, -2355.627996400356, -9878.19699981177, -15504.131079212557, 0.018000000000000002, -0.1, 0.988, 192.0, 0.0, 72.0, 126.0, 112.0, 15.0, 112.0, 0.0, 0.0, 0.0, 1.645921637925256E9, 0.0, 2022-02-27 11:27:17.925
236.0, -1321.8151118534938, -4756.7864962561725, -1713.9988200663115, -10092.483173904799, -507.8092822801212, 428.0582580635856, -5266.965063448556, -1515.5600327920954, -1573.339292209064, -6022.230508593382, -4213.728512970032, -2931.8336167137168, -3563.1362871094093, -2407.9534301702297, -9504.654646474677, -14410.728443947846, 0.018000000000000002, -0.1, 0.988, 192.0, 0.0, 0.0, 0.0, 0.0, 0.0, 0.0, 0.0, 0.0, 0.0, 1.645921637932399E9, 0.0, 2022-02-27 11:27:17.932
238.0, -966.4447267585667, -4489.817260481985, -1528.2558236427099, -9864.651842671854, -212.72155198115732, 580.3630447820478, -5294.927095762146, -1573.1157747645111, -3362.194104456199, -6196.6635223225985, -3900.2452969843507, -2923.027029398326, -3170.8855236632257, -2163.537104551447, -9632.819549181408, -14892.833220104363, 0.018000000000000002, -0.1, 0.988, 192.0, 0.0, 0.0, 0.0, 0.0, 0.0, 0.0, 0.0, 0.0, 0.0, 1.645921637939896E9, 0.0, 2022-02-27 11:27:17.939
240.0, -1613.3042112951532, -4974.961873884425, -1981.7727186408902, -10372.304662740788, -823.0806378222272, 188.2910952915067, -5503.8488511859005, -1809.4854723793833, -3219.522919597974, -6708.630229071407, -4305.236554770059, -3091.916810502626, -3598.317932882063, -2549.328213850047, -9815.23213568117, -15223.415520598355, 0.018000000000000002, -0.1, 0.988, 192.0, 0.0, 0.0, 0.0, 0.0, 0.0, 0.0, 0.0, 0.0, 0.0, 1.6459216379479E9, 0.0, 2022-02-27 11:27:17.947
242.0, -909.0454469973382, -4428.506425441078, -1471.3035787705874, -9802.961027975205, -188.20168831368548, 645.741897313821, -5163.185913942566, -1396.5369935675853, -1780.3835010985736, -5779.468212064292, -3975.5930275431906, -2845.2429586938574, -3332.4662843306405, -2191.5214886094914, -9434.24665144046, -14274.718078937303, 0.018000000000000002, -0.1, 0.988, 192.0, 0.0, 0.0, 0.0, 0.0, 0.0, 0.0, 0.0, 0.0, 0.0, 1.645921637955962E9, 0.0, 2022-02-27 11:27:17.955
244.0, -1355.4321355142756, -4777.797136044162, -1876.8983336565893, -10236.40605645252, -649.0052520042959, 263.3929566613384, -5538.337592880439, -1868.650539952581, -4313.841976385353, -6758.228750017733, -4039.295499240816, -3041.535978500364, -3299.7880339369817, -2351.9623103096856, -9876.252398044158, -15487.501381337808, 0.014, -0.108, 0.988, 192.0, 0.0, 56.0, 126.0, 80.0, 15.0, 112.0, 0.0, 0.0, 0.0, 1.645921637962352E9, 0.0, 2022-02-27 11:27:17.962
246.0, -1247.8308377064275, -4666.35133819, -1736.1270470770655, -10099.814546086138, -539.6381663844784, 412.8814235784321, -5289.786194537424, -1545.9360535068577, -1604.1623478129325, -6012.507499755323, -4195.578896472322, -2912.0076193818595, -3580.1012611509877, -2405.3829795578695, -9525.575879284845, -14434.488348303837, 0.014, -0.108, 0.988, 192.0, 0.0, 0.0, 0.0, 0.0, 0.0, 0.0, 0.0, 0.0, 0.0, 1.645921637969422E9, 0.0, 2022-02-27 11:27:17.969
248.0, -842.2584345648808, -4379.399642872768, -1515.5153293031847, -9848.357420963934, -213.72738048164612, 575.2444953017825, -5304.337180177829, -1597.7026936653488, -3249.3177949568985, -6143.578129241244, -3856.52528482977, -2878.636464910086, -3173.4112707866757, -2162.3301103508607, -9629.042104368462, -14854.142350452228, 0.014, -0.108, 0.988, 192.0, 0.0, 0.0, 0.0, 0.0, 0.0, 0.0, 0.0, 0.0, 0.0, 1.645921637977412E9, 0.0, 2022-02-27 11:27:17.977
250.0, -1489.0508638681013, -4861.77263996275, -1967.3111399783065, -10364.883883581626, -816.9786115859284, 187.17350806874134, -5508.743883221613, -1827.6127371326372, -3147.684412918617, -6673.292121087566, -4255.123943701261, -3054.7458594734503, -3603.3023718955965, -2546.623652770955, -9821.825900295486, -15215.771223994641, 0.014, -0.108, 0.988, 192.0, 0.0, 0.0, 0.0, 0.0, 0.0, 0.0, 0.0, 0.0, 0.0, 1.645921637984518E9, 0.0, 2022-02-27 11:27:17.984
252.0, -795.3197712087359, -4315.9653921086065, -1459.47950595373, -9803.452766353223, -193.32023779395078, 640.3998303890027, -5214.527870956406, -1385.964618440225, -1755.1036781196212, -5737.446932488315, -3926.642707186068, -2795.063292391693, -3324.509063304551, -2176.836392502355, -9440.974526521508, -14278.9202068949, 0.014, -0.108, 0.988, 192.0, 0.0, 0.0, 0.0, 0.0, 0.0, 0.0, 0.0, 0.0, 0.0, 1.645921637992224E9, 0.0, 2022-02-27 11:27:17.992
254.0, -1258.2243988781452, -4680.097661030014, -1867.2423800518968, -10248.587757180663, -664.1373830005388, 241.1306191838526, -5550.295776164028, -1896.0761303992429, -4274.212333466093, -6711.290086661588, -3994.7931760302995, -3011.763454885895, -3301.486766515585, -2332.8739205448533, -9882.130906835902, -15495.659768063995, 0.012, -0.11, 0.992, 192.0, 0.0, 48.0, 126.0, 72.0, 15.5, 0.0, 0.0, 0.0, 0.0, 1.645921638000071E9, 0.0, 2022-02-27 11:27:18.000
0.0, -1133.6134235398083, -4567.3778137419, -1707.7179798743703, -10081.307301677145, -532.0832767585846, 410.7580078551779, -5265.266330869953, -1520.1421404054333, -1529.2616521431987, -5962.059612519695, -4147.589701126779, -2870.18750550598, -3573.932179681323, -2400.8455754334423, -9510.68961747761, -14422.887792931533, 0.012, -0.11, 0.992, 192.0, 0.0, 0.0, 0.0, 0.0, 0.0, 0.0, 0.0, 0.0, 0.0, 1.645921638008053E9, 0.0, 2022-02-27 11:27:18.008
2.0, -756.1371631785826, -4276.89454280073, -1503.0430558971234, -9841.450731927245, -209.05586589048696, 580.3630447820478, -5278.945598476601, -1581.4529754463406, -3237.225501206577, -6119.8852801186185, -3828.2503280938067, -2853.1778279754913, -3176.6075702437843, -2137.542025749925, -9623.320057787903, -14864.826484301864, 0.012, -0.11, 0.992, 192.0, 0.0, 0.0, 0.0, 0.0, 0.0, 0.0, 0.0, 0.0, 0.0, 1.645921638014652E9, 0.0, 2022-02-27 11:27:18.014
4.0, -1417.1229502109231, -4780.434641889888, -1961.0750032752758, -10361.66523238006, -822.2536232773809, 179.88683937631123, -5511.470796045161, -1824.8411208201792, -3155.5969304557957, -6648.12405683089, -4227.988925932518, -3036.7527051869283, -3599.3237613825518, -2532.4749985307453, -9820.37303690589, -15232.043293958104, 0.012, -0.11, 0.992, 192.0, 0.0, 0.0, 0.0, 0.0, 0.0, 0.0, 0.0, 0.0, 0.0, 1.645921638022722E9, 0.0, 2022-02-27 11:27:18.022
6.0, -730.0526773992393, -4256.308586157392, -1452.5951686614953, -9801.21759190769, -196.91886865125522, 633.0461064632067, -5175.8370013042695, -1417.2347089331997, -1709.461415941884, -5703.785205338622, -3910.4376924559706, -2776.3995857715113, -3324.6208220268277, -2176.948151224631, -9435.364238663225, -14275.299224293141, 0.012, -0.11, 0.992, 192.0, 0.0, 0.0, 0.0, 0.0, 0.0, 0.0, 0.0, 0.0, 0.0, 1.645921638030668E9, 0.0, 2022-02-27 11:27:18.030
8.0, -1178.6298368727967, -4611.075474152026, -1851.8643798666455, -10221.765663834294, -649.2064177043936, 263.46001189470434, -5576.670834621291, -1891.494022785905, -4259.057850725395, -6685.406766582342, -3980.2421903898944, -2985.3883964286324, -3295.831775168392, -2324.5143681185687, -9875.984177110693, -15490.54121858373, 0.012, -0.108, 0.988, 192.0, 0.0, 48.0, 126.0, 80.0, 15.0, 112.0, 0.0, 0.0, 0.0, 1.645921638044371E9, 0.0, 2022-02-27 11:27:18.044
10.0, -1098.1188533447807, -4524.641278343353, -1723.5206632042723, -10090.784441326196, -552.5127711907353, 396.7658158261557, -5316.697694861615, -1547.0983442185336, -1560.2411699582542, -5971.827324846665, -4148.528474393902, -2855.345947187656, -3582.179973385331, -2395.8387846754536, -9532.12494041025, -14451.319211878683, 0.012, -0.108, 0.988, 192.0, 0.0, 0.0, 0.0, 0.0, 0.0, 0.0, 0.0, 0.0, 0.0, 1.645921638052229E9, 0.0, 2022-02-27 11:27:18.052
12.0, -690.937124602452, -4221.2834025959255, -1490.2578580686877, -9820.618906094898, -198.25997331857366, 593.1929460993941, -5295.9329242626345, -1591.8018331291478, -3152.9370728656145, -6066.5316661038005, -3812.7829209307342, -2825.5287200842763, -3164.9623113825696, -2140.1348281067408, -9612.814737893908, -14834.025780442451, 0.012, -0.108, 0.988, 192.0, 0.0, 0.0, 0.0, 0.0, 0.0, 0.0, 0.0, 0.0, 0.0, 1.64592163806029E9, 0.0, 2022-02-27 11:27:18.060
14.0, -1370.5866182549737, -4738.770990225195, -1959.5327329078596, -10354.557377643274, -827.8192076467524, 178.38927249780568, -5511.13551987833, -1811.720646824914, -3214.806701517904, -6632.008449078614, -4211.0686553798505, -3010.534108940853, -3584.4822030642276, -2514.660658199866, -9827.145615475847, -15255.959660525283, 0.012, -0.108, 0.988, 192.0, 0.0, 0.0, 0.0, 0.0, 0.0, 0.0, 0.0, 0.0, 0.0, 1.645921638067487E9, 0.0, 2022-02-27 11:27:18.067
16.0, -693.127595559072, -4206.397140788691, -1446.5601976585624, -9795.830821493963, -191.97913312663235, 634.4095628749803, -5150.646585303139, -1395.1064819224457, -1648.9999471902786, -5684.2274289402285, -3910.907079089532, -2775.1702398264697, -3336.6684122882384, -2176.992854713542, -9421.796729778855, -14264.72684916578, 0.012, -0.108, 0.988, 192.0, 0.0, 0.0, 0.0, 0.0, 0.0, 0.0, 0.0, 0.0, 0.0, 1.645921638074963E9, 0.0, 2022-02-27 11:27:18.074
18.0, -1151.0254324704924, -4582.6887586937855, -1848.0198798203326, -10229.320553460188, -651.4415921499243, 256.4862676246485, -5539.8575115034, -1888.4988890288937, -4218.780007216931, -6658.428211024787, -3959.790344213289, -2975.5089253793867, -3286.5781529638953, -2318.79232153801, -9864.227159527203, -15479.857084734092, 0.014, -0.11, 0.988, 192.0, 0.0, 56.0, 126.0, 72.0, 15.0, 112.0, 0.0, 0.0, 0.0, 1.64592163808299E9, 0.0, 2022-02-27 11:27:18.082
20.0, -1048.2297597205354, -4481.9047429448065, -1700.4313111819401, -10088.102231991557, -543.0132797972298, 409.8639380769656, -5300.179755709142, -1555.279082689176, -1513.3695618354752, -5946.972185012363, -4127.942517750564, -2843.4324673929773, -3572.65813024737, -2385.4228717592805, -9516.746940224999, -14440.09863616212, 0.014, -0.11, 0.988, 192.0, 0.0, 0.0, 0.0, 0.0, 0.0, 0.0, 0.0, 0.0, 0.0, 1.645921638091001E9, 0.0, 2022-02-27 11:27:18.091
22.0, -645.0936967246172, -4183.330140510814, -1471.5270962151405, -9821.490624128655, -193.78962442751222, 587.5826582411121, -5303.823090055357, -1597.434472731885, -3135.972098824036, -6061.122543945617, -3794.588600944114, -2821.3936473600447, -3164.336462537821, -2137.89965366121, -9614.736987917066, -14846.31923989287, 0.014, -0.11, 0.988, 192.0, 0.0, 0.0, 0.0, 0.0, 0.0, 0.0, 0.0, 0.0, 0.0, 1.645921638097122E9, 0.0, 2022-02-27 11:27:18.097
24.0, -1327.0454200560357, -4697.420262982877, -1947.19456996853, -10348.18713047351, -831.216672803959, 169.6273886713253, -5537.577633568959, -1828.0597720217434, -3178.2168958445664, -6609.612001134396, -4186.213515545549, -2990.3057802088, -3575.407394815373, -2521.9920303812064, -9831.727723089185, -15261.25702396119, 0.014, -0.11, 0.988, 192.0, 0.0, 0.0, 0.0, 0.0, 0.0, 0.0, 0.0, 0.0, 0.0, 1.645921638104578E9, 0.0, 2022-02-27 11:27:18.104
26.0, -658.191818975427, -4176.266989262937, -1442.447476678786, -9785.012577177595, -188.2240400581408, 627.9722604718519, -5169.042070989856, -1429.2822991946102, -1638.6510895074714, -5672.179838678818, -3886.521325888792, -2743.6542801444866, -3326.006630183057, -2175.7858605129554, -9433.643154340167, -14265.844436388546, 0.014, -0.11, 0.988, 192.0, 0.0, 0.0, 0.0, 0.0, 0.0, 0.0, 0.0, 0.0, 0.0, 1.645921638112571E9, 0.0, 2022-02-27 11:27:18.112
28.0, -1106.657219726708, -4535.191301726259, -1834.5864814026932, -10211.752082318317, -643.8196472906646, 262.5882938609474, -5556.822485544978, -1887.2695430838519, -4211.225117591038, -6638.758675904117, -3940.4337335149926, -2954.63239605813, -3275.558742947429, -2320.9380890057196, -9872.184380553292, -15484.372137114065, 0.016, -0.108, 0.986, 192.0, 0.0, 64.0, 126.0, 80.0, 15.0, 104.0, 0.0, 0.0, 0.0, 1.64592163811975E9, 0.0, 2022-02-27 11:27:18.119
30.0, -1061.238474993524, -4488.073824414471, -1716.725732889859, -10098.294627463178, -570.7517946662658, 387.4898418772032, -5314.90955530519, -1571.1041177635334, -1547.791248296648, -5965.233560232349, -4136.9279190215975, -2845.0417929937594, -3582.738766996714, -2413.6754767507887, -9534.382466600237, -14460.95281373892, 0.016, -0.108, 0.986, 192.0, 0.0, 0.0, 0.0, 0.0, 0.0, 0.0, 0.0, 0.0, 0.0, 1.645921638127207E9, 0.0, 2022-02-27 11:27:18.127
32.0, -652.4697723948684, -4190.147422569683, -1479.059634096579, -9820.395388650346, -211.55926126948134, 579.1113470925507, -5316.0047907835, -1605.79402515817, -3121.264650972444, -6056.473381098912, -3812.045313363709, -2831.2731184092904, -3178.1274888667454, -2152.4953427905252, -9616.256906540026, -14833.131710664238, 0.016, -0.108, 0.986, 192.0, 0.0, 0.0, 0.0, 0.0, 0.0, 0.0, 0.0, 0.0, 0.0, 1.6459216381353E9, 0.0, 2022-02-27 11:27:18.135
34.0, -1342.5128272191082, -4709.959591622304, -1969.1886865125523, -10351.852816564182, -848.2710538233583, 146.60509188235903, -5549.491113363638, -1868.4493742524833, -3266.55098993194, -6648.45933299772, -4204.3184285543475, -3008.1424722841352, -3588.438461832817, -2542.4662283022676, -9847.776275608096, -15289.68844290834, 0.016, -0.108, 0.986, 192.0, 0.0, 0.0, 0.0, 0.0, 0.0, 0.0, 0.0, 0.0, 0.0, 1.645921638143334E9, 0.0, 2022-02-27 11:27:18.143
36.0, -672.9663220603851, -4188.538096968901, -1461.6252734214395, -9789.997016191128, -217.63893576132486, 623.1442836695056, -5200.133347527189, -1438.6476801213837, -1620.277955565209, -5663.529713574614, -3916.226794269895, -2759.859294874584, -3353.90160726328, -2214.990820287564, -9439.074628242806, -14267.051430589132, 0.016, -0.108, 0.986, 192.0, 0.0, 0.0, 0.0, 0.0, 0.0, 0.0, 0.0, 0.0, 0.0, 1.645921638149846E9, 0.0, 2022-02-27 11:27:18.149
38.0, -1119.0177344104927, -4547.3506507099455, -1855.0159758348439, -10214.50134688632, -659.8681998095751, 244.19280817422967, -5576.313206710006, -1886.621342494648, -4221.238699107015, -6635.2047485357225, -3953.6883179769898, -2970.2339136879345, -3284.320626773909, -2330.9963740106077, -9873.90546487635, -15473.933872453437, 0.012, -0.11, 0.988, 192.0, 0.0, 48.0, 126.0, 72.0, 15.0, 112.0, 0.0, 0.0, 0.0, 1.645921638164928E9, 0.0, 2022-02-27 11:27:18.164
40.0, -1063.1607250166805, -4492.499469816622, -1733.2660237867863, -10100.909781564449, -573.7245766788217, 379.2643999176502, -5319.648125129715, -1576.4685364328072, -1560.3529286805308, -5983.6513976635215, -4154.004651785452, -2868.0864415271813, -3596.440386347817, -2432.517997326612, -9538.785760257932, -14462.271566661784, 0.012, -0.11, 0.988, 192.0, 0.0, 0.0, 0.0, 0.0, 0.0, 0.0, 0.0, 0.0, 0.0, 1.645921638172881E9, 0.0, 2022-02-27 11:27:18.172
42.0, -642.679708323444, -4183.061919577351, -1488.4250150233527, -9822.27293518459, -207.73711296762383, 567.3096260201486, -5309.276915702452, -1591.533612195684, -3113.2627264574444, -6073.192485951482, -3817.745008199812, -2844.482999382377, -3185.0565296478903, -2169.437965087648, -9618.156804818727, -14829.801300740399, 0.012, -0.11, 0.988, 192.0, 0.0, 0.0, 0.0, 0.0, 0.0, 0.0, 0.0, 0.0, 0.0, 1.645921638179572E9, 0.0, 2022-02-27 11:27:18.179
44.0, -1333.2815567590662, -4706.003332853715, -1969.3004452348287, -10364.705069625983, -838.2574723073808, 149.734336106102, -5540.036325459043, -1853.4066502340615, -3239.8853587967587, -6659.009356380625, -4208.49820476749, -3023.051085835825, -3586.2256391317414, -2558.224208143259, -9833.784083579074, -15283.228788760756, 0.012, -0.11, 0.988, 192.0, 0.0, 0.0, 0.0, 0.0, 0.0, 0.0, 0.0, 0.0, 0.0, 1.645921638188962E9, 0.0, 2022-02-27 11:27:18.188
46.0, -669.4347464364465, -4187.755785912966, -1463.2345990222216, -9801.530516330065, -215.80609271598968, 612.1695771419498, -5188.912771810624, -1432.702116096272, -1635.6336040060048, -5680.427632382826, -3906.704951131934, -2774.4326322594443, -3335.5061215765622, -2213.895584809254, -9424.523642602402, -14269.711288179315, 0.011, -0.10700000000000001, 0.989, 192.0, 0.0, 40.0, 126.0, 96.0, 15.0, 120.0, 0.0, 0.0, 0.0, 1.645921638195548E9, 0.0, 2022-02-27 11:27:18.195
48.0, -1102.1868708356465, -4535.079543003982, -1840.3085279832517, -10201.53733510224, -640.355126900092, 254.29579666802846, -5546.741848795635, -1887.5377640173156, -4227.653649765689, -6645.2183300517, -3949.0838586191967, -2968.1328497091354, -3274.418803980208, -2337.500731647102, -9860.51676994762, -15473.576244542151, 0.011, -0.10700000000000001, 0.989, 192.0, 0.0, 0.0, 0.0, 0.0, 0.0, 0.0, 0.0, 0.0, 0.0, 1.64592163820281E9, 0.0, 2022-02-27 11:27:18.202
50.0, -1071.5202774429654, -4501.618981554387, -1733.9589278649007, -10102.76497635424, -579.714844192844, 373.4082428703598, -5319.379904196251, -1582.145879524455, -1587.6891121493713, -5999.744653671343, -4154.652852374656, -2867.505296171343, -3587.253819376686, -2437.748305529154, -9534.449521833601, -14478.409526158515, 0.011, -0.10700000000000001, 0.989, 192.0, 0.0, 0.0, 0.0, 0.0, 0.0, 0.0, 0.0, 0.0, 0.0, 1.645921638210225E9, 0.0, 2022-02-27 11:27:18.210
52.0, -645.5630833581786, -4192.628466204223, -1477.964398618269, -9811.812318779506, -198.30467680748427, 584.3640070395478, -5289.406214881685, -1576.1332602659775, -3080.293903385866, -6069.280930671804, -3815.174557587452, -2840.280871424779, -3173.2548085754884, -2161.6595580172016, -9604.991627334552, -14807.091928373806, 0.011, -0.10700000000000001, 0.989, 192.0, 0.0, 0.0, 0.0, 0.0, 0.0, 0.0, 0.0, 0.0, 0.0, 1.645921638217212E9, 0.0, 2022-02-27 11:27:18.217
54.0, -1352.8616849019152, -4734.3676965674995, -1976.3412447382505, -10370.114191784167, -851.4226497915566, 154.67407163072488, -5542.33855513794, -1862.3696997606398, -3329.7840749960037, -6689.2065631397445, -4204.83251867682, -3041.6253854781853, -3568.701871478781, -2556.257254631192, -9845.339935462467, -15308.84388790654, 0.011, -0.10700000000000001, 0.989, 192.0, 0.0, 0.0, 0.0, 0.0, 0.0, 0.0, 0.0, 0.0, 0.0, 1.645921638225356E9, 0.0, 2022-02-27 11:27:18.225
56.0, -700.1460433180384, -4224.770274730954, -1475.3939480059087, -9811.119414701392, -240.61652906138053, 609.777940485232, -5190.544449155861, -1426.0859997375012, -1607.3586472700415, -5722.22539451425, -3937.5056549913475, -2800.6735802499747, -3361.90353177828, -2239.398925232759, -9435.811273552332, -14260.278852019173, 0.010499999999999999, -0.10650000000000001, 0.9904999999999999, 192.0, 0.0, 40.0, 126.0, 88.0, 15.5, 0.0, 0.0, 0.0, 0.0, 1.645921638232396E9, 0.0, 2022-02-27 11:27:18.232
58.0, -1110.7922924509398, -4552.670365890309, -1842.655461151059, -10209.963942761891, -646.4571531363908, 263.3259014279725, -5554.743773310634, -1889.8623454406675, -4230.291155611415, -6658.7411354471615, -3957.3763558121154, -2998.821794846272, -3279.425594738197, -2344.6756416172557, -9866.104706061447, -15465.842540960615, 0.010499999999999999, -0.10650000000000001, 0.9904999999999999, 192.0, 0.0, 0.0, 0.0, 0.0, 0.0, 0.0, 0.0, 0.0, 0.0, 1.645921638239789E9, 0.0, 2022-02-27 11:27:18.239
60.0, -1075.6777019116523, -4507.855118257417, -1738.429276755962, -10108.688188634897, -586.0850913626065, 383.80180404207755, -5314.931907049645, -1581.6094376575277, -1601.0554553336449, -6025.583270261678, -4159.458477432547, -2888.1359563035917, -3590.919505467356, -2452.3216429140143, -9546.36300162828, -14488.266645463305, 0.010499999999999999, -0.10650000000000001, 0.9904999999999999, 192.0, 0.0, 0.0, 0.0, 0.0, 0.0, 0.0, 0.0, 0.0, 0.0, 1.64592163824776E9, 0.0, 2022-02-27 11:27:18.247
62.0, -642.9479292569076, -4186.817012645843, -1482.2782852981431, -9813.04166472455, -196.94122039571053, 595.4057688004696, -5281.493697344506, -1570.1653444964106, -3070.5708945478077, -6072.097250473172, -3818.460264022382, -2856.3741274326003, -3169.656177718184, -2156.9209881926763, -9607.070339568894, -14804.968512650552, 0.010499999999999999, -0.10650000000000001, 0.9904999999999999, 192.0, 0.0, 0.0, 0.0, 0.0, 0.0, 0.0, 0.0, 0.0, 0.0, 1.645921638254904E9, 0.0, 2022-02-27 11:27:18.254
64.0, -1357.3543855374319, -4731.774894210684, -1977.2353145164627, -10368.817790605759, -851.6014637471991, 154.4282024417165, -5544.3502121389165, -1858.7263654144247, -3310.785092208993, -6671.191057108767, -4216.2319083490265, -3040.88777791116, -3572.8816476919233, -2552.300995862603, -9847.418647696812, -15302.45128899232, 0.010499999999999999, -0.10650000000000001, 0.9904999999999999, 192.0, 0.0, 0.0, 0.0, 0.0, 0.0, 0.0, 0.0, 0.0, 0.0, 1.645921638262403E9, 0.0, 2022-02-27 11:27:18.262
66.0, -691.8535461251195, -4218.556489772379, -1469.962474103269, -9818.741359560652, -233.5757295579588, 599.2055653578717, -5192.131423012188, -1425.5942613594846, -1629.9115574254463, -5713.03882754312, -3926.9556316084427, -2798.1031296376145, -3342.412810613252, -2224.15503551424, -9433.039657239873, -14268.996032356745, 0.01325, -0.10425000000000001, 0.98925, 192.0, 0.0, 64.0, 126.0, 104.0, 15.0, 112.0, 0.0, 0.0, 0.0, 1.645921638270374E9, 0.0, 2022-02-27 11:27:18.270
68.0, -1087.1664985616803, -4536.152426737836, -1824.2823272087965, -10207.21467819389, -633.5601965856787, 254.92164551277705, -5545.557206339504, -1888.1412611176088, -4227.45248406559, -6659.277577314088, -3943.585329483191, -2991.333960453744, -3265.1204782868003, -2342.08283926044, -9863.847179871462, -15479.767677756272, 0.01325, -0.10425000000000001, 0.98925, 192.0, 0.0, 0.0, 0.0, 0.0, 0.0, 0.0, 0.0, 0.0, 0.0, 1.645921638278555E9, 0.0, 2022-02-27 11:27:18.278
70.0, -1065.3511959733005, -4493.259429128102, -1730.0697243296772, -10109.917534579938, -581.6594459604557, 372.4694696032369, -5319.804587340902, -1592.7853098851813, -1602.083635578589, -6023.5716132607, -4147.053259259851, -2880.4693079554213, -3580.481240806728, -2442.397468375858, -9546.117132439273, -14505.097509038153, 0.01325, -0.10425000000000001, 0.98925, 192.0, 0.0, 0.0, 0.0, 0.0, 0.0, 0.0, 0.0, 0.0, 0.0, 1.645921638292047E9, 0.0, 2022-02-27 11:27:18.292
72.0, -629.2016064168938, -4167.5721606698235, -1477.0479770956013, -9799.921190729285, -197.23179307362952, 584.0734343616289, -5286.321674146852, -1569.40538518493, -3037.1997400760342, -6043.621128037111, -3801.94232486991, -2825.1487404285363, -3167.823334672849, -2152.450639301615, -9602.778804633475, -14796.676015457633, 0.01325, -0.10425000000000001, 0.98925, 192.0, 0.0, 0.0, 0.0, 0.0, 0.0, 0.0, 0.0, 0.0, 0.0, 1.64592163830014E9, 0.0, 2022-02-27 11:27:18.300
74.0, -1345.5303127205746, -4723.325934806578, -1977.0117970719098, -10363.855703336681, -854.7083562264868, 148.03560352749867, -5549.446409874727, -1865.1413160730979, -3344.960909481157, -6659.948129647748, -4198.059940106862, -3018.7819026448615, -3574.80389771508, -2546.3330800930357, -9853.185397766281, -15319.885649667462, 0.01325, -0.10425000000000001, 0.98925, 192.0, 0.0, 0.0, 0.0, 0.0, 0.0, 0.0, 0.0, 0.0, 0.0, 1.645921638308162E9, 0.0, 2022-02-27 11:27:18.308
76.0, -688.5231362012787, -4212.096835624795, -1470.9459508593025, -9812.795795535541, -234.827427247456, 608.9285741959303, -5194.567763157816, -1424.4096189033532, -1591.8241848736031, -5698.867821558455, -3922.1276548060964, -2786.6590364764975, -3352.6722613182383, -2217.0024772885417, -9433.307878173337, -14267.878445133978, 0.013625, -0.105125, 0.985625, 192.0, 0.0, 56.0, 126.0, 88.0, 15.0, 88.0, 0.0, 0.0, 0.0, 1.645921638314715E9, 0.0, 2022-02-27 11:27:18.314
78.0, -1083.9925508490267, -4529.603365612432, -1825.4893214093831, -10192.104898942101, -623.8371877476201, 266.4774973961708, -5533.531967822549, -1896.5678687772595, -4215.203728104082, -6634.422437479787, -3938.2432625583724, -2980.7392335819286, -3260.4936671845517, -2318.300583159993, -9863.578958937998, -15469.418820073464, 0.013625, -0.105125, 0.985625, 192.0, 0.0, 0.0, 0.0, 0.0, 0.0, 0.0, 0.0, 0.0, 0.0, 1.645921638322725E9, 0.0, 2022-02-27 11:27:18.322
80.0, -1082.0926525703255, -4511.163176436803, -1744.3971925255291, -10119.10410155107, -602.3124578371594, 361.0700799310303, -5337.14954103822, -1568.734832851271, -1630.8056272036586, -6035.95447968894, -4157.223302987016, -2881.542191689276, -3597.669732292859, -2452.656919080844, -9559.08114422335, -14524.789395903277, 0.013625, -0.105125, 0.985625, 192.0, 0.0, 0.0, 0.0, 0.0, 0.0, 0.0, 0.0, 0.0, 0.0, 1.645921638330699E9, 0.0, 2022-02-27 11:27:18.330
82.0, -625.2900511372151, -4168.890913592686, -1475.5727619615511, -9805.710292543208, -202.1938803427077, 593.1035391215729, -5302.683151088137, -1537.6435563139387, -3006.1978705165234, -6019.213023091916, -3801.6517521919914, -2820.097246181637, -3184.6989017366054, -2149.0978776333186, -9609.417272736702, -14786.573026963833, 0.013625, -0.105125, 0.985625, 192.0, 0.0, 0.0, 0.0, 0.0, 0.0, 0.0, 0.0, 0.0, 0.0, 1.64592163833769E9, 0.0, 2022-02-27 11:27:18.337
84.0, -1340.903501618326, -4712.93237363486, -1982.1526982966302, -10371.969386573957, -854.8871701821292, 151.3213099624288, -5552.709764565202, -1840.8002663612685, -3351.264101417554, -6672.174533864801, -4195.958876128063, -3029.019001605392, -3583.252857119186, -2542.555635280089, -9863.33308974899, -15323.886611924961, 0.013625, -0.105125, 0.985625, 192.0, 0.0, 0.0, 0.0, 0.0, 0.0, 0.0, 0.0, 0.0, 0.0, 1.645921638344402E9, 0.0, 2022-02-27 11:27:18.344
86.0, -688.0537495677173, -4200.809204674864, -1484.0664248545677, -9820.4177403948, -241.84587500642243, 605.8663852055532, -5184.285960708376, -1423.6496595918727, -1590.0583970616337, -5670.302292144572, -3915.578593680691, -2775.2819985487463, -3356.8296857869254, -2210.699285352145, -9436.660639841633, -14267.431410244872, 0.012812500000000001, -0.1045625, 0.9848125, 192.0, 0.0, 48.0, 126.0, 96.0, 15.0, 96.0, 0.0, 0.0, 0.0, 1.645921638352434E9, 0.0, 2022-02-27 11:27:18.352
88.0, -1062.8701523387615, -4510.246754914136, -1825.5116731538385, -10182.426593592954, -610.6049550300784, 269.6290933643691, -5545.177226683763, -1897.2160693664634, -4216.567184515856, -6613.344742458433, -3935.9633846239312, -2969.9433410100155, -3270.4401934671637, -2328.381219909337, -9867.401107239855, -15473.218616630867, 0.012812500000000001, -0.1045625, 0.9848125, 192.0, 0.0, 0.0, 0.0, 0.0, 0.0, 0.0, 0.0, 0.0, 0.0, 1.645921638360268E9, 0.0, 2022-02-27 11:27:18.360
90.0, -1082.0032455925043, -4503.675342044276, -1758.1882188544535, -10126.748398154783, -605.5758125276343, 362.27707413161687, -5322.509148419995, -1600.6084204445388, -1643.8366942211026, -6034.434561065979, -4152.037698273385, -2858.9445780449605, -3603.1682614288643, -2449.3488609014585, -9565.518446626478, -14546.336477558194, 0.012812500000000001, -0.1045625, 0.9848125, 192.0, 0.0, 0.0, 0.0, 0.0, 0.0, 0.0, 0.0, 0.0, 0.0, 1.645921638367E9, 0.0, 2022-02-27 11:27:18.367
92.0, -607.3192485951482, -4144.751029580954, -1466.6544159238836, -9798.378920361867, -179.23863878710733, 587.6944169633886, -5276.196333908598, -1580.6930161348603, -2965.4282886300434, -6012.66396196651, -3800.243592291307, -2818.5549758142206, -3184.877715692248, -2152.160066623696, -9596.140336530249, -14776.313576258848, 0.012812500000000001, -0.1045625, 0.9848125, 192.0, 0.0, 0.0, 0.0, 0.0, 0.0, 0.0, 0.0, 0.0, 0.0, 1.645921638375007E9, 0.0, 2022-02-27 11:27:18.375
94.0, -1335.0920480599461, -4708.976114866271, -1981.6162564297028, -10362.648709136094, -850.8415044357187, 154.60701639735896, -5538.248185902618, -1847.7069553979584, -3389.1503082692993, -6673.895618187859, -4180.1338410537055, -3013.5739461867747, -3564.142115609898, -2538.621728255955, -9862.126095548403, -15344.98665869077, 0.012812500000000001, -0.1045625, 0.9848125, 192.0, 0.0, 0.0, 0.0, 0.0, 0.0, 0.0, 0.0, 0.0, 0.0, 1.645921638383128E9, 0.0, 2022-02-27 11:27:18.383
96.0, -687.6290664230664, -4187.398158001681, -1482.479450998241, -9817.08733047096, -244.68454655224642, 595.6292862450226, -5174.361786170219, -1434.6243661194285, -1553.8485710440364, -5676.270207914139, -3924.005201340342, -2767.280074033746, -3366.0386045025116, -2226.0102303040303, -9433.374933406703, -14258.021325829188, 0.013406250000000001, -0.10428125, 0.9844062499999999, 192.0, 0.0, 56.0, 126.0, 96.0, 15.0, 96.0, 0.0, 0.0, 0.0, 1.645921638390122E9, 0.0, 2022-02-27 11:27:18.390
98.0, -1059.7632598594737, -4512.75015029313, -1822.270670207819, -10177.419802834966, -609.9567544408744, 277.8768870683774, -5529.396895098316, -1852.6019874336705, -4197.367036028747, -6598.234963206645, -3928.7661229093223, -2968.602236342697, -3263.1088212858226, -2315.976001736641, -9858.639223413376, -15446.910613406972, 0.013406250000000001, -0.10428125, 0.9844062499999999, 192.0, 0.0, 0.0, 0.0, 0.0, 0.0, 0.0, 0.0, 0.0, 0.0, 1.645921638397525E9, 0.0, 2022-02-27 11:27:18.397
100.0, -1090.8098329078953, -4521.13205446387, -1765.1619631245094, -10131.442264490399, -610.6049550300784, 349.78244898110023, -5330.309907234897, -1591.891240106969, -1657.85123799458, -6050.527817073801, -4163.034756545396, -2867.058261282237, -3607.482148108739, -2448.946529501263, -9568.424173405669, -14536.345247786672, 0.013406250000000001, -0.10428125, 0.9844062499999999, 192.0, 0.0, 0.0, 0.0, 0.0, 0.0, 0.0, 0.0, 0.0, 0.0, 1.645921638412828E9, 0.0, 2022-02-27 11:27:18.412
102.0, -625.1559406704832, -4174.344739239781, -1474.991616605713, -9803.60922856441, -184.02191210054303, 584.6545797174668, -5272.508296073473, -1552.0827832320672, -2952.1960559125014, -6015.770854445798, -3809.676028451446, -2821.326592126679, -3187.9622564270803, -2152.540046279436, -9598.263752253504, -14765.718849387033, 0.013406250000000001, -0.10428125, 0.9844062499999999, 192.0, 0.0, 0.0, 0.0, 0.0, 0.0, 0.0, 0.0, 0.0, 0.0, 1.645921638419788E9, 0.0, 2022-02-27 11:27:18.419
104.0, -1362.0482518730464, -4732.445446544343, -1984.3655209977057, -10379.233703521932, -845.4323822775343, 142.04533601347637, -5541.310374892995, -1863.330824772218, -3403.835404376436, -6704.830432514004, -4203.625524476233, -3044.821684935294, -3571.18291511332, -2545.4390103148235, -9867.736383406685, -15345.098417413046, 0.013406250000000001, -0.10428125, 0.9844062499999999, 192.0, 0.0, 0.0, 0.0, 0.0, 0.0, 0.0, 0.0, 0.0, 0.0, 1.645921638427258E9, 0.0, 2022-02-27 11:27:18.427
106.0, -741.0497356712503, -4264.51167637249, -1487.3074278005872, -9834.432284168279, -229.41830508927168, 591.874193176531, -5177.915713538613, -1414.9101275098476, -1571.6852631193715, -5712.189461253818, -3944.0547161167524, -2797.2984668372237, -3365.613921357861, -2219.7740936009995, -9436.615936352722, -14256.702572906324, 0.013703125, -0.10414062500000001, 0.985203125, 192.0, 0.0, 56.0, 126.0, 96.0, 15.0, 104.0, 0.0, 0.0, 0.0, 1.64592163843538E9, 0.0, 2022-02-27 11:27:18.435
108.0, -1135.3121561184116, -4583.582828471998, -1820.7060480959474, -10187.008701206292, -589.8401844310981, 281.78844234805615, -5524.255993873596, -1851.8196763777348, -4221.350457829292, -6647.207635308223, -3955.230588344406, -3003.40390245961, -3258.8172863504037, -2311.013914467563, -9851.866644843418, -15447.558813996175, 0.013703125, -0.10414062500000001, 0.985203125, 192.0, 0.0, 0.0, 0.0, 0.0, 0.0, 0.0, 0.0, 0.0, 0.0, 1.645921638443199E9, 0.0, 2022-02-27 11:27:18.443
110.0, -1210.1457965547797, -4637.271718653646, -1769.5652567822049, -10141.455846006376, -585.3027803066708, 369.72020503523413, -5312.204994226097, -1574.6133416430166, -1687.4002441644961, -6092.213820482948, -4199.937486641108, -2915.6062502391637, -3599.4355201048284, -2447.8065905340422, -9561.383373902247, -14533.461872751937, 0.013703125, -0.10414062500000001, 0.985203125, 192.0, 0.0, 0.0, 0.0, 0.0, 0.0, 0.0, 0.0, 0.0, 0.0, 1.645921638449944E9, 0.0, 2022-02-27 11:27:18.449
112.0, -799.9242305665291, -4341.558139509933, -1484.1111283434784, -9813.064016469005, -165.38055722481695, 610.068513163151, -5248.256653339464, -1527.9428992203354, -2993.8150040882833, -6066.643424826077, -3861.3085581432056, -2874.6578543970413, -3187.2022971156, -2149.477857289059, -9590.217124249593, -14751.927823058108, 0.013703125, -0.10414062500000001, 0.985203125, 192.0, 0.0, 0.0, 0.0, 0.0, 0.0, 0.0, 0.0, 0.0, 0.0, 1.645921638457825E9, 0.0, 2022-02-27 11:27:18.457
114.0, -1592.8747168630025, -4963.406022001031, -2009.06419862082, -10395.05873859629, -833.6083094606769, 152.2377314850964, -5524.613621784881, -1843.594234418182, -3523.2384232566865, -6780.021700861657, -4265.584560106345, -3097.6388570831846, -3573.2616273476638, -2545.0143271701727, -9865.702374661252, -15357.861263497027, 0.013703125, -0.10414062500000001, 0.985203125, 192.0, 0.0, 0.0, 0.0, 0.0, 0.0, 0.0, 0.0, 0.0, 0.0, 1.645921638464993E9, 0.0, 2022-02-27 11:27:18.464
116.0, -985.3319508233012, -4498.422682097278, -1509.994448422724, -9853.744191377664, -230.44648533421582, 606.1346061390169, -5163.476486620484, -1401.7225982812165, -1632.5490632711726, -5776.7636509852, -4014.932097784531, -2858.765764089318, -3380.7237006096484, -2232.9392710851757, -9428.658715326634, -14253.305107749118, 0.012, -0.11, 0.99, 192.0, 0.0, 48.0, 126.0, 72.0, 15.0, 120.0, 0.0, 0.0, 0.0, 1.645921638472202E9, 0.0, 2022-02-27 11:27:18.472
118.0, -1333.2592050146109, -4782.80392680215, -1829.8032080892574, -10193.82598326516, -577.4349662584027, 301.1450530463521, -5505.659342486781, -1834.1170947691317, -4286.70695861661, -6696.783804510093, -4007.93600177002, -3056.6457577521514, -3265.500457942541, -2319.6193360828565, -9845.809322096029, -15442.14969183799, 0.012, -0.11, 0.99, 192.0, 0.0, 0.0, 0.0, 0.0, 0.0, 0.0, 0.0, 0.0, 0.0, 1.645921638479583E9, 0.0, 2022-02-27 11:27:18.479
120.0, -1386.2998946070547, -4793.286894951689, -1795.7391495393695, -10164.947529428904, -592.9023734214751, 353.8281147275108, -5318.754055351503, -1578.9495800673462, -1787.8713354911013, -6156.5197892808665, -4252.709955300088, -2969.630416587641, -3617.205156946797, -2465.1962477202715, -9566.636033849243, -14555.187768362495, 0.012, -0.11, 0.99, 192.0, 0.0, 0.0, 0.0, 0.0, 0.0, 0.0, 0.0, 0.0, 0.0, 1.645921638488464E9, 0.0, 2022-02-27 11:27:18.488
122.0, -884.279714140858, -4422.896137582796, -1494.9517244043022, -9820.395388650346, -158.98795831059914, 608.9509259403856, -5251.721173730037, -1522.1761491508662, -3012.724579897473, -6084.971855279428, -3900.2452969843507, -2924.345782321189, -3201.06037867789, -2167.6498255312235, -9582.014034034495, -14740.215508963527, 0.012, -0.11, 0.99, 192.0, 0.0, 0.0, 0.0, 0.0, 0.0, 0.0, 0.0, 0.0, 0.0, 1.645921638495675E9, 0.0, 2022-02-27 11:27:18.495
124.0, -1599.1555570549438, -4969.061013348224, -2013.132216111686, -10398.031520608845, -839.5762252302438, 155.18816175319694, -5539.701049292213, -1856.3570805021623, -3546.8195136570353, -6793.030416134646, -4274.972292777574, -3116.95076429257, -3572.926351180834, -2559.140629665927, -9864.450676971755, -15356.922490229905, 0.012, -0.11, 0.99, 192.0, 0.0, 0.0, 0.0, 0.0, 0.0, 0.0, 0.0, 0.0, 0.0, 1.645921638502301E9, 0.0, 2022-02-27 11:27:18.502
126.0, -946.7751916378966, -4453.249806553103, -1516.2529368702099, -9856.582862923487, -228.7701045000678, 609.8673474630532, -5169.757326812426, -1410.2386129186884, -1624.3459730560749, -5767.2865113361495, -4012.808682061277, -2859.145743745058, -3381.774232599048, -2240.382401988793, -9423.741331546466, -14248.030096057666, 0.012, -0.10400000000000001, 0.988, 192.0, 0.0, 48.0, 126.0, 96.0, 15.0, 112.0, 0.0, 0.0, 0.0, 1.64592163851013E9, 0.0, 2022-02-27 11:27:18.510
128.0, -1255.5645412879637, -4707.322085776578, -1826.875129565612, -10186.807535506194, -558.5030387047576, 316.4559979982374, -5496.316313304462, -1834.809998847246, -4272.379490420758, -6680.645845013362, -3995.642542319601, -3037.043277864847, -3260.426611951186, -2314.947821491697, -9838.366191192412, -15430.303267276679, 0.012, -0.10400000000000001, 0.988, 192.0, 0.0, 0.0, 0.0, 0.0, 0.0, 0.0, 0.0, 0.0, 0.0, 1.645921638518279E9, 0.0, 2022-02-27 11:27:18.518
130.0, -1301.5644313769856, -4723.325934806578, -1791.6711320485035, -10166.981538174336, -590.5777919981232, 358.11964966292976, -5312.652029115204, -1581.1400510239664, -1768.4700213038948, -6149.031954888339, -4227.810111976875, -2957.5828263262306, -3619.2838691811407, -2476.595637392478, -9568.22300770557, -14559.300489342271, 0.012, -0.10400000000000001, 0.988, 192.0, 0.0, 0.0, 0.0, 0.0, 0.0, 0.0, 0.0, 0.0, 0.0, 1.645921638525224E9, 0.0, 2022-02-27 11:27:18.525
132.0, -784.1438989810823, -4328.392962025758, -1484.0440731101123, -9810.448862367733, -149.82374308392323, 614.3600480985699, -5239.785342190903, -1521.1032654170115, -2943.7470965083953, -6062.374241635113, -3865.309520400706, -2888.6276946816083, -3192.1196808957675, -2163.894732462732, -9576.98489153205, -14724.815157033821, 0.012, -0.10400000000000001, 0.988, 192.0, 0.0, 0.0, 0.0, 0.0, 0.0, 0.0, 0.0, 0.0, 0.0, 1.645921638539949E9, 0.0, 2022-02-27 11:27:18.539
134.0, -1494.5493930041068, -4865.997119664803, -2003.5433177403593, -10394.164668818077, -816.799797630286, 172.7566328950683, -5530.134502665342, -1863.5096387278604, -3548.920577635834, -6767.750593155693, -4226.133731142728, -3088.3852348786872, -3552.1615805818537, -2534.9336904208294, -9862.66253741533, -15373.66394682693, 0.012, -0.10400000000000001, 0.988, 192.0, 0.0, 0.0, 0.0, 0.0, 0.0, 0.0, 0.0, 0.0, 0.0, 1.645921638547985E9, 0.0, 2022-02-27 11:27:18.547
136.0, -858.9328359285398, -4370.190724157182, -1515.5600327920954, -9857.700450146252, -225.3502875984058, 607.4310073174247, -5168.930312267579, -1401.4990808366636, -1557.2907396901537, -5750.679165205856, -3982.879696235621, -2833.709458554919, -3385.1716977562546, -2240.3600502443373, -9420.835604767277, -14245.481997189761, 0.012, -0.10200000000000001, 0.988, 192.0, 0.0, 48.0, 126.0, 104.0, 15.0, 112.0, 0.0, 0.0, 0.0, 1.645921638555124E9, 0.0, 2022-02-27 11:27:18.555
138.0, -1161.4860488755762, -4616.909279454861, -1812.7935305587687, -10174.692890011418, -556.4913817037799, 314.69021018626813, -5517.215194370174, -1835.4358476919947, -4222.669210752155, -6649.1745888202895, -3958.6951087349785, -3008.0307135618586, -3254.771620603993, -2300.0615596844627, -9834.85696731293, -15414.85821185806, 0.012, -0.10200000000000001, 0.988, 192.0, 0.0, 0.0, 0.0, 0.0, 0.0, 0.0, 0.0, 0.0, 0.0, 1.645921638562484E9, 0.0, 2022-02-27 11:27:18.562
140.0, -1235.0679916224472, -4658.215303208269, -1791.1123384371208, -10170.87074170956, -604.2570596047711, 358.3431671074828, -5338.982384083555, -1604.2294030462986, -1770.6381405160596, -6143.734591452431, -4207.581783244823, -2937.1533318940797, -3620.5802703595486, -2462.6034453634556, -9575.509676398002, -14571.593948792692, 0.012, -0.10200000000000001, 0.988, 192.0, 0.0, 0.0, 0.0, 0.0, 0.0, 0.0, 0.0, 0.0, 0.0, 1.645921638570467E9, 0.0, 2022-02-27 11:27:18.570
142.0, -714.2499940693372, -4264.869304283775, -1468.6213694359506, -9806.671417554786, -154.31644371943997, 631.8167605181648, -5244.367449804241, -1535.050753957123, -2888.739453403885, -6029.025438907795, -3838.1521508875076, -2860.9115315570275, -3196.522974553463, -2148.1144008772853, -9569.877036795264, -14712.566401072312, 0.012, -0.10200000000000001, 0.988, 192.0, 0.0, 0.0, 0.0, 0.0, 0.0, 0.0, 0.0, 0.0, 0.0, 1.645921638578411E9, 0.0, 2022-02-27 11:27:18.578
144.0, -1441.1957789892888, -4807.94963931437, -1998.6706374491023, -10391.795383905815, -840.8055711752858, 157.80331585446785, -5541.66800280428, -1863.8002114057795, -3530.636850671393, -6746.471732434241, -4212.2980013248925, -3076.8740864842043, -3560.9458161527896, -2536.78888521062, -9864.607139182943, -15371.495827614764, 0.012, -0.10200000000000001, 0.988, 192.0, 0.0, 0.0, 0.0, 0.0, 0.0, 0.0, 0.0, 0.0, 0.0, 1.645921638585045E9, 0.0, 2022-02-27 11:27:18.585
146.0, -801.801777100775, -4306.912935604208, -1511.7378844902378, -9856.314641990024, -253.71465131219045, 602.8712514485421, -5197.115862025722, -1409.9703919852248, -1548.797076797137, -5729.690877162323, -3967.8593239616544, -2822.1312549270697, -3388.7703286135593, -2220.86932907931, -9426.132968203185, -14240.765779109692, 0.01, -0.10200000000000001, 0.994, 192.0, 0.0, 40.0, 126.0, 104.0, 15.5, 8.0, 0.0, 0.0, 0.0, 1.645921638592384E9, 0.0, 2022-02-27 11:27:18.592
148.0, -1107.819510438384, -4563.443906717766, -1810.3571904131402, -10174.49172431132, -565.3650242525368, 309.95164036174305, -5514.443578057716, -1859.2181037924415, -4207.760597200465, -6626.934603087259, -3939.651422459057, -2991.959809298493, -3259.353728217331, -2309.739865033611, -9841.316621460512, -15419.037988071203, 0.01, -0.10200000000000001, 0.994, 192.0, 0.0, 0.0, 0.0, 0.0, 0.0, 0.0, 0.0, 0.0, 0.0, 1.645921638600542E9, 0.0, 2022-02-27 11:27:18.600
150.0, -1172.4384036586766, -4591.71886345373, -1781.1881638989646, -10165.618081762563, -603.8547282045756, 356.5997310399689, -5330.891052590734, -1603.245926290265, -1747.7499541938253, -6117.44893997299, -4189.454518491569, -2918.020238640337, -3616.3781424019508, -2470.784183834098, -9573.65448160821, -14577.427754095526, 0.01, -0.10200000000000001, 0.994, 192.0, 0.0, 0.0, 0.0, 0.0, 0.0, 0.0, 0.0, 0.0, 0.0, 1.645921638607063E9, 0.0, 2022-02-27 11:27:18.607
152.0, -662.1704294884718, -4208.699370467588, -1459.3230437425427, -9795.920228471783, -150.2707779730294, 630.3638971285698, -5251.721173730037, -1493.9682476482687, -2871.9532933179494, -6008.014799119806, -3819.42138903396, -2838.984470246371, -3195.293628608421, -2151.601273012313, -9571.151086229216, -14705.503249824436, 0.01, -0.10200000000000001, 0.994, 192.0, 0.0, 0.0, 0.0, 0.0, 0.0, 0.0, 0.0, 0.0, 0.0, 1.645921638614629E9, 0.0, 2022-02-27 11:27:18.614
154.0, -1389.8985254643592, -4758.775801512695, -1987.807689643823, -10386.788593147827, -827.8862628801182, 159.36793796633935, -5539.455180103205, -1867.4658974964498, -3550.9769381257224, -6745.175331255834, -4183.911285866652, -3052.465981539009, -3549.6805369473145, -2531.4468182858013, -9865.545912450065, -15378.447220140366, 0.01, -0.10200000000000001, 0.994, 192.0, 0.0, 0.0, 0.0, 0.0, 0.0, 0.0, 0.0, 0.0, 0.0, 1.645921638622747E9, 0.0, 2022-02-27 11:27:18.622
156.0, -767.3577388951468, -4270.680757842155, -1499.9138116733805, -9851.754886121142, -248.30552915400617, 607.6098212730672, -5187.482260165484, -1421.2133194462442, -1497.119843616467, -5699.98540878122, -3942.713611449434, -2788.9389144109387, -3384.2776279780423, -2228.312459982927, -9424.367180391215, -14239.782302353658, 0.014, -0.10400000000000001, 0.994, 192.0, 0.0, 56.0, 126.0, 96.0, 15.5, 8.0, 0.0, 0.0, 0.0, 1.645921638630683E9, 0.0, 2022-02-27 11:27:18.630
158.0, -1067.4075564631887, -4519.32156316299, -1787.111376179621, -10154.732782212828, -546.3436897210705, 327.8777394148993, -5516.857566458889, -1827.3445161991735, -4171.9754543275185, -6590.344797413922, -3917.0314570702863, -2978.7722800698616, -3249.4072019347195, -2296.2170596381497, -9834.164063234814, -15402.989435552292, 0.014, -0.10400000000000001, 0.994, 192.0, 0.0, 0.0, 0.0, 0.0, 0.0, 0.0, 0.0, 0.0, 0.0, 1.645921638637316E9, 0.0, 2022-02-27 11:27:18.637
160.0, -1178.5851333838862, -4587.427328518311, -1788.586591313671, -10180.191419147422, -623.613670303067, 335.5443877630696, -5344.995003342033, -1616.8804904080023, -1796.7449780398583, -6122.656896431076, -4191.01914060344, -2927.631488756119, -3630.593851875526, -2483.234105495704, -9592.27348473948, -14606.730891076433, 0.014, -0.10400000000000001, 0.994, 192.0, 0.0, 0.0, 0.0, 0.0, 0.0, 0.0, 0.0, 0.0, 0.0, 1.645921638645211E9, 0.0, 2022-02-27 11:27:18.645
162.0, -636.2647576647709, -4180.424413731625, -1445.0179272911464, -9790.756975502609, -157.46803968763825, 616.7293330108324, -5257.75614473297, -1506.7757972211598, -2801.2323738613577, -5967.647548633522, -3809.296048795706, -2829.0155922193044, -3196.9700094425693, -2153.5905782688355, -9568.64769085022, -14689.767621727899, 0.014, -0.10400000000000001, 0.994, 192.0, 0.0, 0.0, 0.0, 0.0, 0.0, 0.0, 0.0, 0.0, 0.0, 1.645921638660249E9, 0.0, 2022-02-27 11:27:18.660
164.0, -1372.7547374671385, -4743.017821671703, -1977.9505703390325, -10386.229799536444, -840.894978153107, 152.41654544073887, -5542.897348749322, -1866.5718277182375, -3564.8126679435577, -6735.072342762035, -4169.025024059418, -3042.720620956495, -3548.4288392578173, -2541.259234101681, -9880.521581235122, -15396.060394771148, 0.014, -0.10400000000000001, 0.994, 192.0, 0.0, 0.0, 0.0, 0.0, 0.0, 0.0, 0.0, 0.0, 0.0, 1.64592163866678E9, 0.0, 2022-02-27 11:27:18.666
166.0, -751.6444625430659, -4255.660385568188, -1491.6436662249168, -9850.503188431643, -266.23162820716243, 583.9616756393523, -5188.912771810624, -1438.6253283769286, -1488.3579597899866, -5697.41495816886, -3942.490094004881, -2787.821327188173, -3399.655628163294, -2240.784733388988, -9433.799616551354, -14244.230299500263, 0.016, -0.10400000000000001, 0.99, 192.0, 0.0, 64.0, 126.0, 96.0, 15.0, 120.0, 0.0, 0.0, 0.0, 1.645921638675138E9, 0.0, 2022-02-27 11:27:18.675
168.0, -1023.240509419502, -4482.307074345002, -1761.5186287782942, -10133.073941835635, -539.4370006843807, 328.95062314875406, -5510.442615800216, -1844.912987341045, -4146.96385228203, -6575.279721651044, -3897.0266457827865, -2958.186323426524, -3247.1049722558228, -2296.9993706940854, -9842.076580771993, -15407.593894910086, 0.016, -0.10400000000000001, 0.99, 192.0, 0.0, 0.0, 0.0, 0.0, 0.0, 0.0, 0.0, 0.0, 0.0, 1.64592163868307E9, 0.0, 2022-02-27 11:27:18.683
170.0, -1174.6959298486627, -4581.392357515378, -1790.8441175036571, -10185.041747694224, -643.9537577573965, 329.19649233776244, -5345.464389975595, -1611.4937199942733, -1825.8693010651234, -6143.555777496788, -4184.3583207557585, -2918.4896252738986, -3631.0408867646324, -2486.139832274894, -9606.600952935332, -14630.960182065986, 0.016, -0.10400000000000001, 0.99, 192.0, 0.0, 0.0, 0.0, 0.0, 0.0, 0.0, 0.0, 0.0, 0.0, 1.645921638690046E9, 0.0, 2022-02-27 11:27:18.690
172.0, -623.3007458806927, -4163.213570501038, -1435.7866568311044, -9781.972739931673, -147.65562387175845, 629.5145308392681, -5240.947632902579, -1509.6591722558944, -2752.63968141552, -5946.659260589989, -3805.5856592161254, -2827.898004996539, -3204.0555124349016, -2152.316528834883, -9558.656461078699, -14663.70548769301, 0.016, -0.10400000000000001, 0.99, 192.0, 0.0, 0.0, 0.0, 0.0, 0.0, 0.0, 0.0, 0.0, 0.0, 1.645921638697483E9, 0.0, 2022-02-27 11:27:18.697
174.0, -1351.8111529125158, -4718.185033581857, -1966.0817940332645, -10378.317281999265, -837.2739955513473, 160.08319378890917, -5551.323956408973, -1870.3492725311844, -3596.373331114451, -6719.649639087873, -4158.6314628877, -3034.2940132968442, -3535.3530687514626, -2524.5401292491115, -9879.24753180117, -15399.837839584094, 0.016, -0.10400000000000001, 0.99, 192.0, 0.0, 0.0, 0.0, 0.0, 0.0, 0.0, 0.0, 0.0, 0.0, 1.64592163870567E9, 0.0, 2022-02-27 11:27:18.705
176.0, -741.0273839267951, -4236.12496091425, -1487.5309452451404, -9851.844293098962, -263.10238398341943, 598.9149926799528, -5176.0158152599115, -1420.8780432794147, -1455.5008954406853, -5687.289617930605, -3941.6407277155795, -2775.438460759933, -3396.5263839395507, -2246.8197043919213, -9432.145587461662, -14237.748293608225, 0.016, -0.106, 0.99, 192.0, 0.0, 64.0, 126.0, 88.0, 15.0, 120.0, 0.0, 0.0, 0.0, 1.645921638712625E9, 0.0, 2022-02-27 11:27:18.712
178.0, -1007.4601778340552, -4463.0622223689825, -1750.499218761828, -10134.01271510276, -530.3398406910707, 332.25868132813946, -5508.654476243792, -1854.5018857123716, -4127.0707997168065, -6545.171921869746, -3888.4435759119483, -2944.6188145421524, -3231.9281377706693, -2286.896382200287, -9831.571260878, -15394.875752315016, 0.016, -0.106, 0.99, 192.0, 0.0, 0.0, 0.0, 0.0, 0.0, 0.0, 0.0, 0.0, 0.0, 1.64592163871929E9, 0.0, 2022-02-27 11:27:18.719
180.0, -1150.690156303663, -4556.738383381175, -1778.7071202644254, -10179.744384258316, -634.9460047419077, 335.499684274159, -5369.738384454058, -1626.8717201795246, -1814.134635226087, -6123.126283064638, -4172.198971772072, -2906.732607690407, -3620.826139548557, -2476.3497682034695, -9601.862383110809, -14630.51314717688, 0.016, -0.106, 0.99, 192.0, 0.0, 0.0, 0.0, 0.0, 0.0, 0.0, 0.0, 0.0, 0.0, 1.645921638727312E9, 0.0, 2022-02-27 11:27:18.727
182.0, -608.615649773556, -4148.886102305187, -1429.7740375726269, -9782.84445796543, -153.8470570858785, 609.9344026964192, -5243.294566070386, -1535.050753957123, -2741.642623143509, -5928.017905714262, -3795.4156154889606, -2813.79405424524, -3194.4442623191194, -2161.0337091724527, -9560.489304124034, -14675.395450043137, 0.016, -0.106, 0.99, 192.0, 0.0, 0.0, 0.0, 0.0, 0.0, 0.0, 0.0, 0.0, 0.0, 1.645921638735316E9, 0.0, 2022-02-27 11:27:18.735
184.0, -1356.0356326145688, -4726.41047554141, -1974.6201604151918, -10379.323110499754, -843.1078008541824, 140.19014122368588, -5562.946863525733, -1886.263714583363, -3595.6580752918812, -6735.742895095694, -4161.738355366988, -3039.4125627771095, -3543.086772332999, -2540.9239579348514, -9884.880171403905, -15408.085633288103, 0.014, -0.10500000000000001, 0.987, 192.0, 0.0, 48.0, 126.0, 96.0, 15.0, 96.0, 0.0, 0.0, 0.0, 1.645921638742313E9, 0.0, 2022-02-27 11:27:18.742
186.0, -748.3811078525911, -4247.591405819822, -1500.7184744737715, -9852.783066366084, -269.02559626407583, 587.940286152397, -5180.396757173152, -1415.893604265881, -1477.316198029065, -5687.714301075256, -3944.3005853057607, -2782.188687585436, -3402.583706686939, -2246.573835202913, -9429.731599060487, -14240.028171542666, 0.014, -0.10500000000000001, 0.987, 192.0, 0.0, 0.0, 0.0, 0.0, 0.0, 0.0, 0.0, 0.0, 0.0, 1.645921638749934E9, 0.0, 2022-02-27 11:27:18.749
188.0, -1009.3824278572116, -4460.804696178996, -1767.5535997812271, -10128.447130733388, -549.7411548782773, 333.68919297327915, -5513.393046068317, -1830.6972778674697, -4141.86765454622, -6557.577140042441, -3896.981942293876, -2951.7490210233955, -3249.250739723532, -2301.670885285245, -9833.717028345709, -15392.394708680476, 0.014, -0.10500000000000001, 0.987, 192.0, 0.0, 0.0, 0.0, 0.0, 0.0, 0.0, 0.0, 0.0, 0.0, 1.645921638757986E9, 0.0, 2022-02-27 11:27:18.757
190.0, -1126.3491065918336, -4530.3856766683675, -1782.462213332917, -10172.077735910147, -652.2686066947707, 319.47348349970383, -5364.463372762606, -1636.3488598285749, -1796.4767571063946, -6102.6297333991215, -4174.6353119177, -2899.155366320058, -3638.5734246460706, -2490.654884654866, -9610.065473325905, -14622.645333128612, 0.014, -0.10500000000000001, 0.987, 192.0, 0.0, 0.0, 0.0, 0.0, 0.0, 0.0, 0.0, 0.0, 0.0, 1.645921638765974E9, 0.0, 2022-02-27 11:27:18.765
192.0, -598.6244200020337, -4139.565424867324, -1440.0334882776128, -9785.571370788977, -164.39708046878346, 615.7011527658883, -5262.271197112942, -1513.3919135799306, -2762.6532629314975, -5953.387135671036, -3796.8237753896447, -2820.343115370645, -3211.0516084494125, -2171.6507877887234, -9577.096650254327, -14684.157333869618, 0.014, -0.10500000000000001, 0.987, 192.0, 0.0, 0.0, 0.0, 0.0, 0.0, 0.0, 0.0, 0.0, 0.0, 1.645921638772404E9, 0.0, 2022-02-27 11:27:18.772
194.0, -1346.1338098208678, -4714.362885279999, -1978.1517360391304, -10386.945055359014, -845.0076991328835, 142.62648136931438, -5567.081936249964, -1895.8079094657792, -3612.33247665554, -6743.588357399507, -4157.804448342854, -3044.151132601635, -3548.3841357689066, -2546.847170215508, -9891.518639507132, -15417.182793281412, 0.013000000000000001, -0.10550000000000001, 0.9844999999999999, 192.0, 0.0, 48.0, 126.0, 88.0, 15.0, 88.0, 0.0, 0.0, 0.0, 1.645921638787501E9, 0.0, 2022-02-27 11:27:18.787
196.0, -738.2110641254263, -4237.1307894147385, -1502.4172070523748, -9866.551740950554, -293.14312853135215, 552.8480473575648, -5208.805824375847, -1484.0217213656572, -1458.5630844310624, -5690.843545299, -3941.7301346934005, -2786.189649842936, -3407.0093520890896, -2273.0606523824517, -9438.091151486773, -14250.48878794775, 0.013000000000000001, -0.10550000000000001, 0.9844999999999999, 192.0, 0.0, 0.0, 0.0, 0.0, 0.0, 0.0, 0.0, 0.0, 0.0, 1.645921638795406E9, 0.0, 2022-02-27 11:27:18.795
198.0, -996.8654509622397, -4455.708498443187, -1771.979245183378, -10138.550119227186, -573.3222452786262, 305.90597461533247, -5520.344438593917, -1840.0626587942434, -4131.6752590746, -6553.330308595933, -3892.4445381694486, -2951.7713727678506, -3263.287635241465, -2326.950708264197, -9841.964822049717, -15395.792173837683, 0.013000000000000001, -0.10550000000000001, 0.9844999999999999, 192.0, 0.0, 0.0, 0.0, 0.0, 0.0, 0.0, 0.0, 0.0, 0.0, 1.645921638802101E9, 0.0, 2022-02-27 11:27:18.802
200.0, -1146.8680080018055, -4550.502246678144, -1801.8635275201236, -10184.550009316208, -674.4638889388906, 300.8544803684331, -5381.026015403988, -1639.567511030139, -1832.6195278906262, -6147.26616707637, -4189.7003876805775, -2916.6567822285633, -3671.4304889953723, -2520.2709460581477, -9620.839014153364, -14643.27599326086, 0.013000000000000001, -0.10550000000000001, 0.9844999999999999, 192.0, 0.0, 0.0, 0.0, 0.0, 0.0, 0.0, 0.0, 0.0, 0.0, 1.6459216388103E9, 0.0, 2022-02-27 11:27:18.810
202.0, -610.001457929785, -4149.735468594488, -1452.8857413394144, -9787.538324301044, -184.8265749009341, 591.583620498612, -5254.55984527586, -1520.6115270389948, -2739.6980213758975, -5953.834170560142, -3815.979220387843, -2826.7133625404076, -3244.7356873435606, -2189.286314163961, -9577.007243276506, -14671.662708719101, 0.013000000000000001, -0.10550000000000001, 0.9844999999999999, 192.0, 0.0, 0.0, 0.0, 0.0, 0.0, 0.0, 0.0, 0.0, 0.0, 1.645921638818241E9, 0.0, 2022-02-27 11:27:18.818
204.0, -1354.3369000359655, -4731.439618043854, -1990.7357681674682, -10391.86243913918, -875.4060715921011, 111.80342576544592, -5608.767939659112, -1927.5473865923152, -3658.310015000107, -6760.933311096825, -4171.461364205046, -3056.9363304300705, -3558.7776969406245, -2560.191161655326, -9905.466128047245, -15435.667685945951, 0.0115, -0.10575000000000001, 0.98625, 192.0, 0.0, 40.0, 126.0, 88.0, 15.0, 112.0, 0.0, 0.0, 0.0, 1.645921638825284E9, 0.0, 2022-02-27 11:27:18.825
206.0, -759.7804975247976, -4263.9528827611075, -1515.9176607033803, -9873.726650920707, -308.90110837234363, 546.3883932099811, -5216.5171762129285, -1457.892532097403, -1461.446459465797, -5703.919315805354, -3958.7845157128, -2803.087568651148, -3426.611831976394, -2289.7127020016555, -9446.897738802165, -14254.802674627625, 0.0115, -0.10575000000000001, 0.98625, 192.0, 0.0, 0.0, 0.0, 0.0, 0.0, 0.0, 0.0, 0.0, 0.0, 1.645921638832779E9, 0.0, 2022-02-27 11:27:18.832
208.0, -992.5962677712761, -4459.061260111483, -1762.0327189007664, -10131.732837168318, -540.0852012735845, 308.8117013945224, -5498.238563327618, -1842.4766471954165, -4133.8210265423095, -6557.174808642246, -3901.4746429293923, -2971.664425333074, -3256.448001438141, -2324.6261268408452, -9829.224327710192, -15389.757202834751, 0.0115, -0.10575000000000001, 0.98625, 192.0, 0.0, 0.0, 0.0, 0.0, 0.0, 0.0, 0.0, 0.0, 0.0, 1.645921638839899E9, 0.0, 2022-02-27 11:27:18.839
210.0, -1156.3898511397663, -4568.651863175853, -1805.5962688441598, -10193.73657628734, -667.2666272242817, 296.11591054390794, -5369.090183864854, -1652.2856536252086, -1860.9615398599553, -6162.7335742394425, -4189.610980702756, -2927.564433522753, -3641.345040958529, -2529.7927891961085, -9609.171403547693, -14664.487798748947, 0.0115, -0.10575000000000001, 0.98625, 192.0, 0.0, 0.0, 0.0, 0.0, 0.0, 0.0, 0.0, 0.0, 0.0, 1.645921638847671E9, 0.0, 2022-02-27 11:27:18.847
212.0, -601.3960363144919, -4147.746163337965, -1446.2249214917329, -9779.894027697328, -162.20660951216334, 609.7555887407767, -5249.106019628766, -1521.8408729840367, -2700.738930790297, -5948.7826763132425, -3809.921897640455, -2830.446103864444, -3223.7921027889374, -2194.851898533332, -9556.667155822177, -14659.99509811343, 0.0115, -0.10575000000000001, 0.98625, 192.0, 0.0, 0.0, 0.0, 0.0, 0.0, 0.0, 0.0, 0.0, 0.0, 1.645921638854417E9, 0.0, 2022-02-27 11:27:18.854
214.0, -1349.5983302114405, -4725.449350529832, -1993.7532536689346, -10384.687529169027, -846.8181904337633, 135.20570221015242, -5570.658215362813, -1896.2772960993407, -3683.925114145889, -6767.191799544311, -4156.39628844217, -3059.395022320154, -3541.8350746435017, -2565.4438216023236, -9888.299988305567, -15438.998095869792, 0.01175, -0.10487500000000001, 0.987125, 192.0, 0.0, 48.0, 126.0, 96.0, 15.0, 112.0, 0.0, 0.0, 0.0, 1.64592163886258E9, 0.0, 2022-02-27 11:27:18.862
216.0, -773.3480064091691, -4272.580656120856, -1534.6484225569277, -9882.063851602537, -295.6241721658912, 559.5088672052464, -5199.529850426895, -1446.0461075360904, -1453.511590184163, -5722.605374169991, -3966.8311437167104, -2814.241089134346, -3429.6293174778602, -2301.4920713296024, -9428.68106707109, -14246.130197778964, 0.01175, -0.10487500000000001, 0.987125, 192.0, 0.0, 0.0, 0.0, 0.0, 0.0, 0.0, 0.0, 0.0, 0.0, 1.645921638870354E9, 0.0, 2022-02-27 11:27:18.870
218.0, -1001.1569858976586, -4469.901856172306, -1772.627445772582, -10134.14682556949, -522.6284888539898, 328.4141812818267, -5501.703083718191, -1834.2065017469529, -4119.605317068734, -6550.469285305654, -3898.9265440614877, -2982.5497248828087, -3250.301271712932, -2316.668905814756, -9820.149519461336, -15376.480266628298, 0.01175, -0.10487500000000001, 0.987125, 192.0, 0.0, 0.0, 0.0, 0.0, 0.0, 0.0, 0.0, 0.0, 0.0, 1.645921638877431E9, 0.0, 2022-02-27 11:27:18.877
220.0, -1179.9932932845704, -4587.516735496132, -1828.2832894662965, -10206.722939815872, -668.8759528250639, 304.4978147146481, -5370.990082143555, -1655.2807873822198, -1908.5931072942149, -6194.160126943604, -4207.492376267001, -2957.3369571372223, -3656.253654510219, -2532.78792295312, -9616.636886195765, -14672.489723263947, 0.01175, -0.10487500000000001, 0.987125, 192.0, 0.0, 0.0, 0.0, 0.0, 0.0, 0.0, 0.0, 0.0, 0.0, 1.645921638885154E9, 0.0, 2022-02-27 11:27:18.885
222.0, -621.4902545798129, -4159.123201265717, -1460.7759071321377, -9782.59858877642, -150.20372273966345, 621.8702342355531, -5238.690106712593, -1522.153797406411, -2693.318151631135, -5942.211263443382, -3820.114293112075, -2840.482037124877, -3229.6035563473174, -2189.24161067505, -9553.962594743085, -14644.259470016894, 0.01175, -0.10487500000000001, 0.987125, 192.0, 0.0, 0.0, 0.0, 0.0, 0.0, 0.0, 0.0, 0.0, 0.0, 1.645921638893049E9, 0.0, 2022-02-27 11:27:18.893
224.0, -1368.3961472983538, -4737.631051257975, -2013.646306234158, -10395.550476974306, -849.12042011266, 136.97149002212169, -5559.795267557534, -1894.913839687567, -3725.4546553438495, -6765.560122199074, -4178.524515452924, -3069.5874177917744, -3547.7135834352475, -2557.620711042966, -9890.423404028823, -15443.58020348313, 0.012875000000000001, -0.1054375, 0.9865625, 192.0, 0.0, 56.0, 126.0, 88.0, 15.0, 104.0, 0.0, 0.0, 0.0, 1.645921638907219E9, 0.0, 2022-02-27 11:27:18.907
226.0, -782.3110559357472, -4279.263827712993, -1547.6794895743717, -9877.99583411167, -294.41717796530463, 560.6041026835564, -5190.320931711309, -1449.3094622265653, -1453.1986657617888, -5729.959098095786, -3965.3782803271156, -2819.963135714905, -3431.6633262232936, -2291.3890828358035, -9430.312744416326, -14244.453816944817, 0.012875000000000001, -0.1054375, 0.9865625, 192.0, 0.0, 0.0, 0.0, 0.0, 0.0, 0.0, 0.0, 0.0, 0.0, 1.645921638914797E9, 0.0, 2022-02-27 11:27:18.914
228.0, -1004.4203405881335, -4465.565617747977, -1792.5428500822604, -10118.545307939687, -516.5935178510568, 337.15371336385175, -5489.744900434602, -1821.6671731075255, -4136.05620098784, -6557.465381320165, -3903.3074859747276, -2970.5468381103087, -3248.3119664564097, -2310.7456935340992, -9818.629600838376, -15360.588176320574, 0.012875000000000001, -0.1054375, 0.9865625, 192.0, 0.0, 0.0, 0.0, 0.0, 0.0, 0.0, 0.0, 0.0, 0.0, 1.645921638922677E9, 0.0, 2022-02-27 11:27:18.922
230.0, -1172.170182725213, -4583.649883705364, -1829.847911578168, -10195.725881543862, -656.873066052564, 309.28108802808384, -5367.056175119421, -1656.8454094940914, -1902.6922467580137, -6184.548876827822, -4199.244582562993, -2939.992003439904, -3656.9018550994224, -2526.8423589280083, -9614.28995302796, -14667.438229017047, 0.012875000000000001, -0.1054375, 0.9865625, 192.0, 0.0, 0.0, 0.0, 0.0, 0.0, 0.0, 0.0, 0.0, 0.0, 1.645921638930672E9, 0.0, 2022-02-27 11:27:18.930
232.0, -602.938306681908, -4150.830704072798, -1478.0091021071796, -9773.523780527566, -146.5156849045378, 636.5776820871451, -5232.945708387579, -1499.1985558508106, -2688.154898661959, -5940.467827375869, -3812.693513952913, -2825.4840165953656, -3227.2566231795104, -2195.8130235449107, -9547.569995828868, -14646.114664806684, 0.012875000000000001, -0.1054375, 0.9865625, 192.0, 0.0, 0.0, 0.0, 0.0, 0.0, 0.0, 0.0, 0.0, 0.0, 1.645921638937299E9, 0.0, 2022-02-27 11:27:18.937
234.0, -1351.1406005788567, -4730.41143779891, -1999.0506171048426, -10379.501924455397, -839.1291903411377, 151.6118826403478, -5579.643616633847, -1895.5396885323155, -3738.463370616838, -6758.273453506644, -4138.91722427812, -3045.4475337800427, -3533.207301283753, -2538.8228939560527, -9884.09786034797, -15450.643354731006, 0.0124375, -0.10471875, 0.98628125, 192.0, 0.0, 48.0, 126.0, 96.0, 15.0, 104.0, 0.0, 0.0, 0.0, 1.645921638945315E9, 0.0, 2022-02-27 11:27:18.945
236.0, -781.8193175577304, -4281.789574836442, -1549.087649475056, -9884.231970814702, -299.62513442339116, 574.6857016903999, -5195.327722469297, -1453.0422035506015, -1440.8381510780039, -5705.640400128413, -3968.4404693174924, -2800.964152927894, -3444.1355996293546, -2290.3161991019488, -9429.86570952722, -14245.459645445306, 0.0124375, -0.10471875, 0.98628125, 192.0, 0.0, 0.0, 0.0, 0.0, 0.0, 0.0, 0.0, 0.0, 0.0, 1.64592163895337E9, 0.0, 2022-02-27 11:27:18.953
238.0, -970.4680407605221, -4443.146818059304, -1750.4768670173726, -10105.04485428868, -498.04156995315196, 362.52294332062525, -5483.955798620677, -1829.2891179667854, -4082.0096828949077, -6519.310953534956, -3863.588436077647, -2952.240759401412, -3242.7016785981273, -2286.7846234780104, -9807.051397210527, -15350.216966893313, 0.0124375, -0.10471875, 0.98628125, 192.0, 0.0, 0.0, 0.0, 0.0, 0.0, 0.0, 0.0, 0.0, 0.0, 1.645921638959377E9, 0.0, 2022-02-27 11:27:18.959
240.0, -1186.6317613877966, -4591.763566942641, -1831.1443127565758, -10206.052387482214, -669.9935400478292, 321.4180852673156, -5366.251512319031, -1653.626758292527, -1953.229540971463, -6214.99195277595, -4184.738300411499, -2934.2923086038004, -3652.5879684195484, -2516.0688181005503, -9616.94981061814, -14698.261284620916, 0.0124375, -0.10471875, 0.98628125, 192.0, 0.0, 0.0, 0.0, 0.0, 0.0, 0.0, 0.0, 0.0, 0.0, 1.645921638966928E9, 0.0, 2022-02-27 11:27:18.966
242.0, -609.9567544408744, -4158.720869865521, -1450.5835116605178, -9769.500466525611, -150.87427507332268, 641.0256792337512, -5226.575461217816, -1501.858413440992, -2631.3814677454793, -5925.179234168439, -3806.882060394533, -2820.0078392038154, -3231.011716248002, -2165.3028923634165, -9537.154082912693, -14613.905801046587, 0.0124375, -0.10471875, 0.98628125, 192.0, 0.0, 0.0, 0.0, 0.0, 0.0, 0.0, 0.0, 0.0, 0.0, 1.645921638974917E9, 0.0, 2022-02-27 11:27:18.974
244.0, -1355.4321355142756, -4731.685487232863, -1996.4354630035716, -10378.160819788078, -841.4537717644897, 151.83540008490087, -5574.413308431305, -1899.004208922888, -3748.2534346882626, -6773.070308336057, -4146.829741815298, -3050.879007682682, -3540.60572869846, -2538.64408000041, -9890.356348795456, -15448.564642496664, 0.01221875, -0.104359375, 0.987140625, 192.0, 0.0, 48.0, 126.0, 96.0, 15.0, 112.0, 0.0, 0.0, 0.0, 1.645921638982982E9, 0.0, 2022-02-27 11:27:18.982
246.0, -779.3382739231913, -4274.659368355199, -1527.249995142221, -9878.308758534045, -289.99153256315384, 573.3222452786262, -5177.356919927231, -1453.0422035506015, -1435.2725667086324, -5705.707455361779, -3956.5940447561798, -2791.710530723397, -3434.859625680402, -2277.732166973611, -9420.030941966885, -14239.111750019998, 0.01221875, -0.104359375, 0.987140625, 192.0, 0.0, 0.0, 0.0, 0.0, 0.0, 0.0, 0.0, 0.0, 0.0, 1.64592163898966E9, 0.0, 2022-02-27 11:27:18.989
248.0, -965.5730087248098, -4436.016611578061, -1741.5808727241604, -10093.645464616475, -495.5828780630682, 367.64149280089055, -5487.889705644811, -1814.8722427931123, -4078.634569482156, -6513.3877412543, -3869.0199099802867, -2946.049326187292, -3238.1642744737, -2286.5834577779124, -9800.994074463139, -15348.697048270351, 0.01221875, -0.104359375, 0.987140625, 192.0, 0.0, 0.0, 0.0, 0.0, 0.0, 0.0, 0.0, 0.0, 0.0, 1.645921638997542E9, 0.0, 2022-02-27 11:27:18.997
