%OpenBCI Raw EEG Data
%Number of channels = 16
%Sample Rate = 125 Hz
%Board = OpenBCI_GUI$BoardCytonSerialDaisy
Sample Index, EXG Channel 0, EXG Channel 1, EXG Channel 2, EXG Channel 3, EXG Channel 4, EXG Channel 5, EXG Channel 6, EXG Channel 7, EXG Channel 8, EXG Channel 9, EXG Channel 10, EXG Channel 11, EXG Channel 12, EXG Channel 13, EXG Channel 14, EXG Channel 15, Accel Channel 0, Accel Channel 1, Accel Channel 2, Other, Other, Other, Other, Other, Other, Other, Analog Channel 0, Analog Channel 1, Analog Channel 2, Timestamp, Other, Timestamp (Formatted)
170.0, -1216.1807675577127, -3825.925746670455, -1785.367940112107, -9510.242582588504, -0.6034971002932907, 319.1158555884189, -4774.198505186857, -1421.5932991019845, -3623.5307006276494, -5024.113359941645, -3465.0121289506114, -2854.0942494981587, -2790.2800190782573, -1803.8081292877353, -8541.249756962032, -15432.806662655672, 0.0, 0.0, 0.0, 192.0, 0.0, 0.0, 0.0, 0.0, 0.0, 0.0, 0.0, 0.0, 0.0, 1.645922409100394E9, 0.0, 2022-02-27 11:40:09.100
172.0, -1246.19916036119, -3834.419409563471, -1764.469059046395, -9494.015216113952, -2.2575261899860135, 365.94276022228723, -4619.457378322766, -1211.1292733108132, -1579.5754289120948, -4587.226162818213, -3625.3858954174398, -2813.6599437785085, -3050.4319727935763, -1939.9526047650106, -8336.775998684883, -14765.093000542283, 0.0, 0.0, 0.0, 192.0, 0.0, 0.0, 0.0, 0.0, 0.0, 0.0, 0.0, 0.0, 0.0, 1.645922409100397E9, 0.0, 2022-02-27 11:40:09.100
0.0, -688.3666739900916, -1949.7650205808905, -940.8296276127849, -4775.6290168319965, -40.41195397519517, 172.24254277259624, -2358.600778412912, -649.809914804687, -1645.8707029665356, -2373.4870402201464, -1661.3157583851528, -1382.611856771929, -1329.7499811351279, -835.9999461173948, -4212.49916702499, -7585.131536141817, 0.016, -0.10200000000000001, 0.99, 192.0, 0.0, 64.0, 126.0, 104.0, 15.0, 120.0, 0.0, 0.0, 0.0, 1.645922409213119E9, 0.0, 2022-02-27 11:40:09.213
2.0, -914.7674935778969, -3528.8263593705133, -1540.7280970487711, -9163.634081320059, 344.887416945388, 652.3133101836813, -4529.715124334708, -1082.137356059236, -1572.087594519567, -4245.825618007853, -3431.417457034285, -2670.0946891420713, -2888.2030115369575, -1775.3096551072188, -8225.330200830722, -14519.603791189647, 0.016, -0.10200000000000001, 0.99, 192.0, 0.0, 0.0, 0.0, 0.0, 0.0, 0.0, 0.0, 0.0, 0.0, 1.645922409219284E9, 0.0, 2022-02-27 11:40:09.219
4.0, -1222.4169042607432, -3793.918048610455, -1819.8566818066458, -9470.769401880432, 22.262337477485833, 377.5656673390469, -4815.61628766254, -1442.8274563345262, -3717.0727511731093, -4998.766481729327, -3473.0140534656116, -2815.7833595017623, -2838.157455701525, -1836.754600614858, -8557.432419947674, -15457.43828504542, 0.016, -0.10200000000000001, 0.99, 192.0, 0.0, 0.0, 0.0, 0.0, 0.0, 0.0, 0.0, 0.0, 0.0, 1.645922409225374E9, 0.0, 2022-02-27 11:40:09.225
6.0, -1219.4217705037322, -3774.0920512785974, -1765.3184253356965, -9416.521718087402, 54.82882914886822, 453.40513627590377, -4660.182256720335, -1211.3751424998215, -1601.9271733674018, -4505.08350194496, -3629.185691974842, -2765.4919344773216, -3093.168508192123, -1967.1099742782087, -8334.049085861336, -14739.58966011878, 0.016, -0.10200000000000001, 0.99, 192.0, 0.0, 0.0, 0.0, 0.0, 0.0, 0.0, 0.0, 0.0, 0.0, 1.645922409233252E9, 0.0, 2022-02-27 11:40:09.233
8.0, -866.1077458986933, -3502.7418735911697, -1529.3957626099304, -9149.66424103549, 373.6541120593682, 638.4552286213909, -4591.741215198185, -1175.7688135825174, -2725.638774113509, -4518.785121296063, -3350.7947147839923, -2701.185965679403, -2754.517227949766, -1707.2485932408088, -8349.628251746684, -14916.369607015802, 0.014, -0.10200000000000001, 0.988, 192.0, 0.0, 56.0, 126.0, 104.0, 15.0, 112.0, 0.0, 0.0, 0.0, 1.645922409241302E9, 0.0, 2022-02-27 11:40:09.241
10.0, -1436.0101742756576, -3960.6397105025903, -1944.7805815673569, -9626.136377589271, -145.35339419286183, 266.8798287963663, -4797.265505464734, -1446.1131627694563, -3036.238615064456, -5077.556380934284, -3689.893029915456, -2888.2253632814127, -3091.112147702235, -2026.8785389516997, -8566.037841562968, -15383.319900431623, 0.014, -0.10200000000000001, 0.988, 192.0, 0.0, 0.0, 0.0, 0.0, 0.0, 0.0, 0.0, 0.0, 0.0, 1.645922409248379E9, 0.0, 2022-02-27 11:40:09.248
12.0, -928.536168162366, -3543.9137868778453, -1543.8126377836036, -9170.272549423284, 337.44428604177074, 644.3337374131366, -4522.450807386734, -1052.3648324447672, -1572.8028503421367, -4258.923740258663, -3440.6263757498714, -2679.035386924194, -2892.963933105938, -1777.4554225749282, -8222.893860685093, -14518.30739001124, 0.014, -0.10200000000000001, 0.988, 192.0, 0.0, 0.0, 0.0, 0.0, 0.0, 0.0, 0.0, 0.0, 0.0, 1.645922409255876E9, 0.0, 2022-02-27 11:40:09.255
14.0, -1218.393590258788, -3796.019112589254, -1813.9558212704446, -9465.203817511061, 31.6500701487148, 372.96120798125366, -4806.608534647052, -1447.610729647962, -3725.5217105772153, -5009.048284178768, -3475.9868354781674, -2817.124464169081, -2843.544226115254, -1840.9567285724556, -8560.561664171419, -15451.693886720406, 0.014, -0.10200000000000001, 0.988, 192.0, 0.0, 0.0, 0.0, 0.0, 0.0, 0.0, 0.0, 0.0, 0.0, 1.645922409263829E9, 0.0, 2022-02-27 11:40:09.263
16.0, -1233.0786863659248, -3786.7207868958462, -1771.8451347166463, -9421.595564078756, 46.06694532238786, 449.4712292517697, -4642.725544300741, -1194.588982413886, -1623.4519032778626, -4532.956127280728, -3636.114732755987, -2771.191629313425, -3102.712703074539, -1972.519096436393, -8341.738085953963, -14745.356410188248, 0.014, -0.101, 0.986, 192.0, 0.0, 56.0, 126.0, 112.0, 15.0, 96.0, 0.0, 0.0, 0.0, 1.645922409271911E9, 0.0, 2022-02-27 11:40:09.271
18.0, -862.375004574657, -3493.823527553502, -1523.5619573070953, -9147.47377007887, 381.0078359851642, 642.7020600678993, -4605.95692467176, -1179.0768717619028, -2706.1704046929367, -4517.868699773396, -3352.828723529425, -2710.77486405073, -2756.64064367302, -1709.9308025754456, -8349.337679068765, -14899.739909141053, 0.014, -0.101, 0.986, 192.0, 0.0, 0.0, 0.0, 0.0, 0.0, 0.0, 0.0, 0.0, 0.0, 1.64592240928672E9, 0.0, 2022-02-27 11:40:09.286
20.0, -1432.0539155070683, -3956.1246581226183, -1947.4404391575385, -9619.274392041492, -146.64979537126965, 264.8458200509334, -4823.014715077247, -1439.7876190886045, -3066.7487462459503, -5066.045232539801, -3678.761861176713, -2888.0018458368595, -3086.731205788995, -2031.5947570317696, -8578.912446369224, -15395.52395290422, 0.014, -0.101, 0.986, 192.0, 0.0, 0.0, 0.0, 0.0, 0.0, 0.0, 0.0, 0.0, 0.0, 1.645922409292822E9, 0.0, 2022-02-27 11:40:09.292
22.0, -927.7538571064302, -3546.551292723572, -1548.1041727190225, -9168.216188933397, 338.09248663097463, 637.7623245432765, -4538.924043050295, -1076.4823647120434, -1558.3636234240084, -4259.951920503607, -3445.610814763405, -2679.996511935772, -2908.0960641021807, -1790.4864895923722, -8231.409875322566, -14518.508555711336, 0.014, -0.101, 0.986, 192.0, 0.0, 0.0, 0.0, 0.0, 0.0, 0.0, 0.0, 0.0, 0.0, 1.645922409300771E9, 0.0, 2022-02-27 11:40:09.300
24.0, -1211.1739767997237, -3789.268885763751, -1811.8100538027352, -9455.838436584287, 39.94256734163372, 384.0253214866306, -4812.95643007236, -1440.2793574666211, -3713.1835476378856, -5003.03566492029, -3467.2249516516868, -2815.60454554612, -2839.6550225800306, -1830.272594722819, -8556.203074002633, -15449.3469535526, 0.014, -0.101, 0.986, 192.0, 0.0, 0.0, 0.0, 0.0, 0.0, 0.0, 0.0, 0.0, 0.0, 1.645922409308835E9, 0.0, 2022-02-27 11:40:09.308
26.0, -1231.2458433205895, -3791.235839275818, -1773.297998106241, -9420.522680344902, 55.32056752688498, 453.5615984870909, -4634.5224540856425, -1192.622028901819, -1630.6491649924715, -4535.459522659722, -3634.3936484329283, -2768.509419978788, -3103.5844211082963, -1967.7581748674127, -8344.375591799688, -14751.05610502435, 0.013000000000000001, -0.10350000000000001, 0.986, 192.0, 0.0, 48.0, 126.0, 88.0, 15.0, 104.0, 0.0, 0.0, 0.0, 1.645922409316018E9, 0.0, 2022-02-27 11:40:09.316
28.0, -858.0164144058722, -3503.613591624927, -1527.6299747979613, -9141.282336864751, 379.1973446842843, 646.9488915144076, -4596.05510187806, -1168.236275701079, -2689.540706818188, -4512.414874126301, -3348.559540338462, -2700.291895901191, -2760.5521989526987, -1715.0493520557109, -8343.861501677216, -14893.52612418248, 0.013000000000000001, -0.10350000000000001, 0.986, 192.0, 0.0, 0.0, 0.0, 0.0, 0.0, 0.0, 0.0, 0.0, 0.0, 1.645922409323415E9, 0.0, 2022-02-27 11:40:09.323
30.0, -1437.9324242988139, -3968.239303617395, -1953.676575860569, -9622.694208943154, -148.90732156125566, 261.2695409380843, -4835.464636738853, -1453.1092587839676, -3090.4862988574864, -5079.277465257343, -3679.655930954925, -2892.7404156613848, -3091.045092468869, -2032.2429576209734, -8580.946455114658, -15398.966121550337, 0.013000000000000001, -0.10350000000000001, 0.986, 192.0, 0.0, 0.0, 0.0, 0.0, 0.0, 0.0, 0.0, 0.0, 0.0, 1.645922409331412E9, 0.0, 2022-02-27 11:40:09.331
32.0, -936.8957205886509, -3553.502685249172, -1553.5803501105727, -9174.09469772514, 329.64352722686857, 633.8284175191424, -4542.165045996314, -1085.9371526166383, -1549.3111669196091, -4248.418420364669, -3446.214311863698, -2683.7292532598085, -2916.477968272921, -1801.4388443754726, -8235.589651535709, -14523.247125535861, 0.013000000000000001, -0.10350000000000001, 0.986, 192.0, 0.0, 0.0, 0.0, 0.0, 0.0, 0.0, 0.0, 0.0, 0.0, 1.645922409338488E9, 0.0, 2022-02-27 11:40:09.338
34.0, -1207.8882703647937, -3783.9938740722987, -1804.9257165105007, -9454.139704005684, 37.72974464055832, 384.8299842870217, -4819.080808053113, -1454.2715494956435, -3705.8968789454557, -4986.607132745639, -3464.855666739424, -2805.9038884525166, -2837.7551243013295, -1834.0500395357658, -8556.44894319164, -15447.737627951818, 0.013000000000000001, -0.10350000000000001, 0.986, 192.0, 0.0, 0.0, 0.0, 0.0, 0.0, 0.0, 0.0, 0.0, 0.0, 1.645922409345511E9, 0.0, 2022-02-27 11:40:09.345
36.0, -1239.068953879947, -3793.9627520993654, -1773.4991638063389, -9431.34092466127, 51.61017794730401, 447.2807582951496, -4643.865483267961, -1211.330439010911, -1645.7365924998037, -4555.352575224945, -3636.1594362448977, -2783.194516085925, -3106.5124996319414, -1971.2226952579852, -8348.51066452392, -14768.803390121866, 0.0145, -0.10575000000000001, 0.987, 192.0, 0.0, 64.0, 126.0, 80.0, 15.0, 112.0, 0.0, 0.0, 0.0, 1.645922409353448E9, 0.0, 2022-02-27 11:40:09.353
38.0, -858.4410975505231, -3496.9527717772453, -1518.733980504749, -9134.018019916775, 391.5802111125244, 652.0897927391283, -4599.34080831299, -1175.2547234600454, -2678.968331690828, -4500.233173398158, -3350.9735287396347, -2698.839032511596, -2755.8136291281735, -1724.9064713605014, -8343.816798188305, -14897.303568995425, 0.0145, -0.10575000000000001, 0.987, 192.0, 0.0, 0.0, 0.0, 0.0, 0.0, 0.0, 0.0, 0.0, 0.0, 1.645922409362464E9, 0.0, 2022-02-27 11:40:09.362
40.0, -1430.1987207172776, -3955.811733700244, -1945.8534653012116, -9611.09365357085, -150.2931297174847, 273.0265585215758, -4821.42774122092, -1438.737087099205, -3077.2317143954892, -5064.8382383392145, -3672.1010413290314, -2871.774479362307, -3077.365824862221, -2039.127294913208, -8577.817210890915, -15395.747470348773, 0.0145, -0.10575000000000001, 0.987, 192.0, 0.0, 0.0, 0.0, 0.0, 0.0, 0.0, 0.0, 0.0, 0.0, 1.645922409368446E9, 0.0, 2022-02-27 11:40:09.368
42.0, -931.888929830662, -3545.70192643427, -1551.8369140430586, -9171.703061068423, 325.3743440359049, 645.004289746796, -4533.000830769638, -1075.8565158672948, -1528.412285853897, -4240.640013294222, -3432.7809134460585, -2677.873096212518, -2900.6082297096527, -1802.9587629984335, -8226.984229920416, -14512.406529475038, 0.0145, -0.10575000000000001, 0.987, 192.0, 0.0, 0.0, 0.0, 0.0, 0.0, 0.0, 0.0, 0.0, 0.0, 1.645922409375647E9, 0.0, 2022-02-27 11:40:09.375
44.0, -1198.1429097822797, -3788.888906108011, -1799.0472077187549, -9446.473055657514, 50.17966630216436, 389.38974015590435, -4810.698903882373, -1440.1452469998894, -3693.2904950726625, -4992.262124092833, -3454.9538439457233, -2802.12644363957, -2830.8484352646396, -1830.4737604229165, -8553.520864667997, -15439.266316803256, 0.0145, -0.10575000000000001, 0.987, 192.0, 0.0, 0.0, 0.0, 0.0, 0.0, 0.0, 0.0, 0.0, 0.0, 1.645922409383838E9, 0.0, 2022-02-27 11:40:09.383
46.0, -1248.6355005068185, -3812.045313363709, -1778.9082859645232, -9433.643154340167, 34.354631227806955, 435.68020292284524, -4665.345509689511, -1225.7696659290393, -1671.0834707121219, -4567.1319445528925, -3635.1983112333196, -2769.0458618457155, -3106.1325199762014, -1982.1526982966302, -8358.278376850889, -14782.080326328318, 0.01525, -0.107875, 0.9864999999999999, 192.0, 0.0, 64.0, 126.0, 72.0, 15.0, 104.0, 0.0, 0.0, 0.0, 1.645922409391658E9, 0.0, 2022-02-27 11:40:09.391
48.0, -874.087318669238, -3516.1305685198986, -1515.3588670919976, -9137.035505418242, 377.74448129468936, 650.0781357381506, -4597.664427478841, -1173.1983629701572, -2633.6613456799205, -4487.827955225463, -3343.5974530693834, -2695.4415673543895, -2758.0041000847937, -1715.7199043893702, -8345.60493774473, -14879.80215308692, 0.01525, -0.107875, 0.9864999999999999, 192.0, 0.0, 0.0, 0.0, 0.0, 0.0, 0.0, 0.0, 0.0, 0.0, 1.645922409397661E9, 0.0, 2022-02-27 11:40:09.397
50.0, -1469.2472182806991, -3997.9894754874085, -1943.7524013224129, -9620.347275775346, -154.47290593062712, 268.0421195080423, -4816.823281863128, -1455.2997297405875, -3115.1626247361455, -5079.4562792129855, -3676.0349483531654, -2882.056281811748, -3078.975150463003, -2028.2196436190181, -8587.786088917981, -15408.95735132186, 0.01525, -0.107875, 0.9864999999999999, 192.0, 0.0, 0.0, 0.0, 0.0, 0.0, 0.0, 0.0, 0.0, 0.0, 1.645922409413491E9, 0.0, 2022-02-27 11:40:09.413
52.0, -1007.7283987675189, -3620.6249738484594, -1553.6474053439385, -9180.822572806188, 326.46957951421496, 638.388173388025, -4530.966822024206, -1089.2005073071132, -1549.1547047084218, -4262.455315882601, -3458.1277916583767, -2684.355102104557, -2909.6159827251417, -1794.2862861497745, -8238.696544014996, -14525.169375559019, 0.01525, -0.107875, 0.9864999999999999, 192.0, 0.0, 0.0, 0.0, 0.0, 0.0, 0.0, 0.0, 0.0, 0.0, 1.645922409421407E9, 0.0, 2022-02-27 11:40:09.421
54.0, -1282.0513584675025, -3872.238561181851, -1784.853849989635, -9439.208738709538, 64.64124496474803, 408.96986829875334, -4791.4764036508095, -1429.058781750057, -3705.82982371209, -4992.6421037485725, -3477.797326779047, -2829.4179236195, -2827.6297840630755, -1825.5340248982936, -8557.767696114504, -15433.05253184468, 0.01525, -0.107875, 0.9864999999999999, 192.0, 0.0, 0.0, 0.0, 0.0, 0.0, 0.0, 0.0, 0.0, 0.0, 1.645922409428026E9, 0.0, 2022-02-27 11:40:09.428
56.0, -1396.2017174007556, -3948.4356580299927, -1782.6186755441042, -9446.182482979595, 44.54702669942698, 443.30214778210495, -4645.251291424191, -1227.5801572299192, -1737.6469657000264, -4597.709130967753, -3669.731756416769, -2804.3392663406453, -3102.5785926078074, -1976.8329831162673, -8362.659318764128, -14798.039471869406, 0.012625, -0.10693749999999999, 0.98825, 192.0, 0.0, 40.0, 126.0, 88.0, 15.0, 120.0, 0.0, 0.0, 0.0, 1.64592240943609E9, 0.0, 2022-02-27 11:40:09.436
58.0, -1038.819675304851, -3678.493640243249, -1519.6727537718718, -9144.724505510869, 389.74736806718926, 671.1334790150498, -4575.33503476799, -1142.5317695774759, -2649.9110638989287, -4510.626734569876, -3388.837383846925, -2732.7242771058413, -2759.702832663397, -1706.1310060180433, -8336.12779809568, -14858.27742317646, 0.012625, -0.10693749999999999, 0.98825, 192.0, 0.0, 0.0, 0.0, 0.0, 0.0, 0.0, 0.0, 0.0, 0.0, 1.64592240944396E9, 0.0, 2022-02-27 11:40:09.443
60.0, -1629.4198190474297, -4152.931768051597, -1951.2849392038513, -9630.316153802414, -150.20372273966345, 279.06152952450867, -4804.730988112806, -1432.2997846960766, -3175.4899830210193, -5111.016942383879, -3722.7724460092127, -2938.0474016722924, -3081.9255807311038, -2021.1788441155963, -8585.685024939183, -15397.557961649652, 0.012625, -0.10693749999999999, 0.98825, 192.0, 0.0, 0.0, 0.0, 0.0, 0.0, 0.0, 0.0, 0.0, 0.0, 1.645922409451019E9, 0.0, 2022-02-27 11:40:09.451
62.0, -1144.9010544897383, -3745.526521864715, -1559.861190302514, -9191.529058400281, 320.9039951448435, 645.5630833581786, -4525.982383010672, -1071.8332018653396, -1592.3159232516198, -4287.913952817196, -3498.8079665670357, -2737.1499225079924, -2910.934735648005, -1786.3514168681404, -8232.549814289787, -14513.054730064241, 0.012625, -0.10693749999999999, 0.98825, 192.0, 0.0, 0.0, 0.0, 0.0, 0.0, 0.0, 0.0, 0.0, 0.0, 1.64592240945871E9, 0.0, 2022-02-27 11:40:09.458
64.0, -1385.897563206859, -3979.7951555007885, -1792.0958151931543, -9450.809294081842, 54.27003553748555, 399.8280048165327, -4786.760185570739, -1418.352296155965, -3745.884149776, -5011.462272579941, -3512.151958006854, -2860.71036585693, -2828.769723030296, -1852.6243391781259, -8554.750210613038, -15425.989380596804, 0.012625, -0.10693749999999999, 0.98825, 192.0, 0.0, 0.0, 0.0, 0.0, 0.0, 0.0, 0.0, 0.0, 0.0, 1.645922409465629E9, 0.0, 2022-02-27 11:40:09.465
66.0, -1432.6797643518169, -3992.356835884671, -1778.68476851997, -9446.003669023952, 29.928985825656156, 441.5363599701357, -4643.306689656579, -1197.6735231487182, -1738.6080907116045, -4626.386419103911, -3692.508184016727, -2832.9718509878935, -3110.0887787447905, -1992.0321693458761, -8362.681670508584, -14785.92482637463, 0.013312500000000001, -0.10546875, 0.991125, 192.0, 0.0, 56.0, 126.0, 96.0, 15.5, 8.0, 0.0, 0.0, 0.0, 1.645922409473604E9, 0.0, 2022-02-27 11:40:09.473
68.0, -1013.5175005814434, -3662.9144743579004, -1509.055675155601, -9140.321211853172, 389.5909058560021, 666.0819847681505, -4571.110555065937, -1163.4753541320986, -2672.8216019656184, -4531.816188313507, -3402.1143200533775, -2733.5289399062326, -2766.4530594888997, -1717.2621747567864, -8339.011173130415, -14870.593234371334, 0.013312500000000001, -0.10546875, 0.991125, 192.0, 0.0, 0.0, 0.0, 0.0, 0.0, 0.0, 0.0, 0.0, 0.0, 1.645922409480658E9, 0.0, 2022-02-27 11:40:09.480
70.0, -1563.9739112822904, -4100.7180930039995, -1939.7737908093682, -9625.398770022246, -145.42044942622775, 282.3248842149835, -4810.117758526535, -1450.1811802603222, -3207.5423845699293, -5112.425102284563, -3705.181623122886, -2920.009543896859, -3061.8313624657826, -2022.3411348272725, -8583.963940616124, -15421.228459027823, 0.013312500000000001, -0.10546875, 0.991125, 192.0, 0.0, 0.0, 0.0, 0.0, 0.0, 0.0, 0.0, 0.0, 0.0, 1.645922409488485E9, 0.0, 2022-02-27 11:40:09.488
72.0, -1062.3113587273788, -3681.980512378277, -1550.6075680980168, -9187.662206609513, 316.14307357586307, 654.3249671846589, -4539.304022706035, -1048.9897190320157, -1531.6085853110058, -4281.543705647434, -3492.9518095197454, -2716.6310210980205, -2918.601383996175, -1797.393178629062, -8230.96284043346, -14511.73597714138, 0.013312500000000001, -0.10546875, 0.991125, 192.0, 0.0, 0.0, 0.0, 0.0, 0.0, 0.0, 0.0, 0.0, 0.0, 1.645922409496279E9, 0.0, 2022-02-27 11:40:09.496
74.0, -1281.4031578782985, -3868.0811367131637, -1774.8626202181126, -9435.945384019064, 62.89780889723407, 409.7968828435997, -4784.32384542511, -1412.2949734085767, -3688.440166525861, -4986.875353679104, -3478.244361668153, -2828.121522441092, -2817.8844234805615, -1829.6914493669808, -8544.758980841516, -15410.09729028908, 0.013312500000000001, -0.10546875, 0.991125, 192.0, 0.0, 0.0, 0.0, 0.0, 0.0, 0.0, 0.0, 0.0, 0.0, 1.645922409503326E9, 0.0, 2022-02-27 11:40:09.503
76.0, -1334.5109027041083, -3885.1578694770183, -1775.242599873853, -9441.935651533086, 21.569433399371317, 447.5936827175239, -4654.01317525067, -1235.649136978285, -1720.4137707249847, -4585.683892450797, -3668.72592791628, -2803.5793070291647, -3113.6427061131844, -1988.9252768665883, -8362.301690852844, -14792.11625958875, 0.013656250000000002, -0.104734375, 0.9915625, 192.0, 0.0, 56.0, 126.0, 96.0, 15.5, 0.0, 0.0, 0.0, 0.0, 1.645922409510956E9, 0.0, 2022-02-27 11:40:09.510
78.0, -912.375856921179, -3557.257778317664, -1493.543564503618, -9125.770226212768, 391.1331762234183, 675.6485313950219, -4599.609029246453, -1163.3412436653666, -2594.32227543858, -4465.342100303424, -3362.0376422450117, -2702.1470906909813, -2759.1440390520143, -1723.207738781898, -8333.825568416783, -14858.322126665369, 0.013656250000000002, -0.104734375, 0.9915625, 192.0, 0.0, 0.0, 0.0, 0.0, 0.0, 0.0, 0.0, 0.0, 0.0, 1.645922409519033E9, 0.0, 2022-02-27 11:40:09.519
80.0, -1487.1956690783106, -4022.1740629880505, -1933.2247296839632, -9625.465825255613, -147.70032736066906, 265.7845933180563, -4823.282936010711, -1434.7808283306156, -3157.5862357123183, -5091.995607852413, -3680.460593755316, -2895.3332180182006, -3062.2336938659782, -2020.3965330596607, -8585.886190639281, -15424.022427084736, 0.013656250000000002, -0.104734375, 0.9915625, 192.0, 0.0, 0.0, 0.0, 0.0, 0.0, 0.0, 0.0, 0.0, 0.0, 1.645922409533094E9, 0.0, 2022-02-27 11:40:09.533
82.0, -989.4446718030778, -3607.6162585754705, -1541.9350912493578, -9186.00817751982, 321.4180852673156, 629.7380482838212, -4522.540214364554, -1061.2161232490687, -1499.8020529511039, -4235.40970509168, -3461.25703588212, -2692.647599297476, -2908.3866367800997, -1794.398044872051, -8222.066846140247, -14509.411395718027, 0.013656250000000002, -0.104734375, 0.9915625, 192.0, 0.0, 0.0, 0.0, 0.0, 0.0, 0.0, 0.0, 0.0, 0.0, 1.64592240954073E9, 0.0, 2022-02-27 11:40:09.540
84.0, -1200.8698226058273, -3797.203755045385, -1761.3845183115625, -9422.824910023799, 68.53044849997146, 410.400379943893, -4809.983648059803, -1407.9587349842473, -3676.9066663869226, -4968.07753659219, -3458.1277916583767, -2813.4587780784104, -2816.833891491162, -1838.3415744711847, -8545.429533175175, -15425.408235240966, 0.013656250000000002, -0.104734375, 0.9915625, 192.0, 0.0, 0.0, 0.0, 0.0, 0.0, 0.0, 0.0, 0.0, 0.0, 1.64592240954857E9, 0.0, 2022-02-27 11:40:09.548
86.0, -1296.1553092188012, -3851.674956282968, -1785.9043819790343, -9453.647965627666, 21.480026421550086, 415.2954119796052, -4655.890721784916, -1229.10007585288, -1723.6771254154594, -4588.366101785434, -3657.0359655661546, -2789.7212254668743, -3110.7369793339944, -2010.4276550325937, -8368.604882789241, -14824.950972193596, 0.01, -0.106, 0.99, 192.0, 0.0, 40.0, 126.0, 88.0, 15.0, 120.0, 0.0, 0.0, 0.0, 1.645922409556556E9, 0.0, 2022-02-27 11:40:09.556
88.0, -863.6937574975202, -3509.6932661167702, -1496.2928290716206, -9127.111330880087, 399.31391469406066, 657.7894875752315, -4582.24172380468, -1146.756249279529, -2544.8355132145302, -4463.755126447097, -3357.053203231478, -2693.8322417536074, -2758.5852454406318, -1722.2242620258644, -8321.822681644284, -14844.50874859199, 0.01, -0.106, 0.99, 192.0, 0.0, 0.0, 0.0, 0.0, 0.0, 0.0, 0.0, 0.0, 0.0, 1.645922409563335E9, 0.0, 2022-02-27 11:40:09.563
90.0, -1444.928520313325, -3977.2470566328834, -1938.2091686974966, -9623.05183685444, -147.43210642720538, 277.8321835794668, -4825.361648245054, -1455.7020611407831, -3178.887448178226, -5085.334788004731, -3670.4246604948835, -2885.409043480044, -3063.328929344288, -2025.3362685842835, -8586.512039484029, -15437.455825502377, 0.01, -0.106, 0.99, 192.0, 0.0, 0.0, 0.0, 0.0, 0.0, 0.0, 0.0, 0.0, 0.0, 1.64592240957121E9, 0.0, 2022-02-27 11:40:09.571
92.0, -950.4185259841116, -3570.8029354575797, -1545.0643354731008, -9180.442593150448, 328.54829174855854, 664.0479760227175, -4538.387601183367, -1067.0275768074487, -1467.1461543019002, -4239.544777815911, -3460.4300213372735, -2689.2948376291797, -2921.4847590309096, -1810.7371700688805, -8230.851081711184, -14512.25006726385, 0.01, -0.106, 0.99, 192.0, 0.0, 0.0, 0.0, 0.0, 0.0, 0.0, 0.0, 0.0, 0.0, 1.645922409579167E9, 0.0, 2022-02-27 11:40:09.579
94.0, -1160.748441308551, -3755.0930684915866, -1756.2436170868418, -9412.230183151984, 86.23303010857465, 435.6131476894793, -4794.069206007624, -1418.1064269669566, -3649.6151864069925, -4944.250577002833, -3440.447561794229, -2796.6502662480198, -2810.1954233879355, -1824.461141164439, -8540.333335439365, -15418.076863059625, 0.01, -0.106, 0.99, 192.0, 0.0, 0.0, 0.0, 0.0, 0.0, 0.0, 0.0, 0.0, 0.0, 1.645922409586339E9, 0.0, 2022-02-27 11:40:09.586
96.0, -1247.361451072866, -3805.205679560385, -1777.142498152554, -9440.01340150993, 15.802683329902093, 412.8814235784321, -4649.609881592975, -1225.2779275510225, -1707.695628129915, -4572.362252755434, -3641.2332822362523, -2774.5220392372657, -3110.871089800726, -1991.6298379456805, -8364.380403087187, -14815.250315099993, 0.012, -0.106, 0.99, 192.0, 0.0, 48.0, 126.0, 88.0, 15.0, 120.0, 0.0, 0.0, 0.0, 1.645922409592927E9, 0.0, 2022-02-27 11:40:09.592
98.0, -817.4256464750346, -3465.9509022177344, -1487.1286138449448, -9113.409711528982, 394.6200483584462, 664.8526388231086, -4579.6936249367745, -1157.0156999845149, -2513.8336436550194, -4436.64246042281, -3333.159188408755, -2674.743851988775, -2754.316062249668, -1711.406017709496, -8319.140472309646, -14840.954821223597, 0.012, -0.106, 0.99, 192.0, 0.0, 0.0, 0.0, 0.0, 0.0, 0.0, 0.0, 0.0, 0.0, 1.645922409600828E9, 0.0, 2022-02-27 11:40:09.600
100.0, -1406.260002405644, -3941.6407277155795, -1933.8505785287118, -9611.764205904508, -154.89758907527795, 260.5766368599697, -4827.730933157317, -1451.9022645833809, -3165.498753249497, -5074.270674499354, -3650.5986631630262, -2864.644272881064, -3059.752650231439, -2021.6035272602473, -8585.617969705818, -15440.272145303745, 0.012, -0.106, 0.99, 192.0, 0.0, 0.0, 0.0, 0.0, 0.0, 0.0, 0.0, 0.0, 0.0, 1.645922409608819E9, 0.0, 2022-02-27 11:40:09.608
102.0, -919.5060634024219, -3542.952661866267, -1542.5162366051957, -9173.781773302768, 311.4492072402486, 628.4639988498686, -4544.310813464023, -1083.5008124710098, -1446.8507703364814, -4226.938393943118, -3434.3008320690196, -2661.6680814824203, -2907.827843168717, -1800.6788850639923, -8225.620773508641, -14513.881744609089, 0.012, -0.106, 0.99, 192.0, 0.0, 0.0, 0.0, 0.0, 0.0, 0.0, 0.0, 0.0, 0.0, 1.645922409615458E9, 0.0, 2022-02-27 11:40:09.615
104.0, -1144.2305021560792, -3737.099914205064, -1761.429221800473, -9411.202002907039, 75.81711719240155, 407.1146735089628, -4802.585220645096, -1424.5884328589957, -3642.663793881392, -4941.546015923741, -3428.0423436215337, -2784.9156004089837, -2805.345094841134, -1809.7760450573023, -8539.573376127884, -15419.663836915952, 0.012, -0.106, 0.99, 192.0, 0.0, 0.0, 0.0, 0.0, 0.0, 0.0, 0.0, 0.0, 0.0, 1.645922409623523E9, 0.0, 2022-02-27 11:40:09.623
106.0, -1236.00676488957, -3800.4000545024937, -1779.981169698378, -9437.510006130935, 21.658840377192544, 423.31968823906044, -4673.213323737779, -1230.552939242475, -1699.7160553593703, -4568.294235264568, -3638.4169624348838, -2768.889399634528, -3109.8652613002378, -1982.935009352566, -8371.242388634968, -14821.374693080747, 0.014, -0.108, 0.994, 192.0, 0.0, 56.0, 126.0, 80.0, 15.5, 8.0, 0.0, 0.0, 0.0, 1.645922409631554E9, 0.0, 2022-02-27 11:40:09.631
108.0, -818.185605786515, -3471.7176522872037, -1490.2355063242326, -9113.387359784527, 394.91062103636517, 668.4289179359577, -4590.802441931062, -1158.4685633741099, -2520.6956292027985, -4437.894158112306, -3336.221377399132, -2673.2462851102696, -2753.578454682643, -1712.724770632359, -8330.65162070413, -14848.062675960384, 0.014, -0.108, 0.994, 192.0, 0.0, 0.0, 0.0, 0.0, 0.0, 0.0, 0.0, 0.0, 0.0, 1.645922409638652E9, 0.0, 2022-02-27 11:40:09.638
110.0, -1416.2288804327109, -3953.710669721445, -1940.2208256984743, -9616.61453445131, -154.98699605309918, 267.4609741522043, -4840.069096096647, -1457.3113867415652, -3195.7630152419824, -5078.5175059458625, -3659.896988856434, -2873.741432874374, -3056.846923452249, -2018.3848760586832, -8595.877420410803, -15451.336258809122, 0.014, -0.108, 0.994, 192.0, 0.0, 0.0, 0.0, 0.0, 0.0, 0.0, 0.0, 0.0, 0.0, 1.645922409645082E9, 0.0, 2022-02-27 11:40:09.645
112.0, -942.4613049580223, -3561.191685341798, -1556.441373400852, -9184.398851919039, 310.59984095094694, 627.7487430272988, -4542.701487863242, -1077.242324023524, -1464.3298345005317, -4236.393181847713, -3457.1443149023435, -2672.0616426541383, -2918.154349107069, -1801.0812164641877, -8233.95797419047, -14515.155794043041, 0.014, -0.108, 0.994, 192.0, 0.0, 0.0, 0.0, 0.0, 0.0, 0.0, 0.0, 0.0, 0.0, 1.645922409661158E9, 0.0, 2022-02-27 11:40:09.661
114.0, -1151.8077435264283, -3748.812228299645, -1764.0667276461993, -9418.153395432639, 87.19415512015286, 410.8027113440885, -4797.734892098295, -1425.7507235706717, -3647.9388055728446, -4938.819103100193, -3444.1803031182653, -2800.7853389722513, -2805.769777985785, -1806.490338622372, -8541.383867428764, -15413.42770021292, 0.014, -0.108, 0.994, 192.0, 0.0, 0.0, 0.0, 0.0, 0.0, 0.0, 0.0, 0.0, 0.0, 1.64592240966834E9, 0.0, 2022-02-27 11:40:09.668
116.0, -1263.4770588251424, -3824.9646216588762, -1794.5098035943274, -9454.184407494595, 17.791988586424424, 418.1340835254292, -4672.92275105986, -1229.0777241084247, -1728.7956748957247, -4593.037616376593, -3655.9630818323, -2792.4257865459667, -3109.105301988757, -1992.4345007460715, -8376.651510793152, -14833.422283342157, 0.01, -0.106, 0.992, 192.0, 0.0, 40.0, 126.0, 88.0, 15.5, 0.0, 0.0, 0.0, 0.0, 1.645922409675561E9, 0.0, 2022-02-27 11:40:09.675
118.0, -835.8434839062076, -3482.9829314926783, -1504.5629745200843, -9117.678894719946, 387.3780831549267, 655.8448858076198, -4594.490479766188, -1153.975862738593, -2525.1883298383154, -4441.1128093138705, -3359.2436741880983, -2694.1675179204367, -2771.124574080059, -1726.1134655610879, -8332.50681549392, -14844.709914292089, 0.01, -0.106, 0.992, 192.0, 0.0, 0.0, 0.0, 0.0, 0.0, 0.0, 0.0, 0.0, 0.0, 1.645922409683729E9, 0.0, 2022-02-27 11:40:09.683
120.0, -1413.3678571424316, -3952.011937142842, -1948.3121571912955, -9611.160708804216, -155.25521698656286, 262.49888688312615, -4846.685212455418, -1466.1179740569562, -3214.5831840733513, -5078.316340245765, -3666.602512193026, -2875.753089875351, -3063.284225855378, -2027.8396639632779, -8604.41578679273, -15454.689020477417, 0.01, -0.106, 0.992, 192.0, 0.0, 0.0, 0.0, 0.0, 0.0, 0.0, 0.0, 0.0, 0.0, 1.645922409691757E9, 0.0, 2022-02-27 11:40:09.691
122.0, -944.4506102145447, -3562.242217331197, -1566.3878996834637, -9188.019834520797, 303.31317225851683, 627.6369843050223, -4547.574168154499, -1077.5776001903535, -1471.9070758708806, -4246.630280808244, -3457.5689980469942, -2671.927532187406, -2919.8977851745826, -1798.7119315519253, -8239.612965537664, -14521.950724357454, 0.01, -0.106, 0.992, 192.0, 0.0, 0.0, 0.0, 0.0, 0.0, 0.0, 0.0, 0.0, 0.0, 1.645922409698302E9, 0.0, 2022-02-27 11:40:09.698
124.0, -1145.0798684453807, -3737.2563764162514, -1762.9938439123446, -9410.442043595558, 90.07753015488747, 414.84837709049907, -4790.112947239036, -1414.0160577316353, -3633.3878199324395, -4914.634515599551, -3437.1395036148438, -2791.710530723397, -2803.9816384293604, -1809.4407688904726, -8538.835768560859, -15404.419947197432, 0.01, -0.106, 0.992, 192.0, 0.0, 0.0, 0.0, 0.0, 0.0, 0.0, 0.0, 0.0, 0.0, 1.645922409706392E9, 0.0, 2022-02-27 11:40:09.706
126.0, -1261.7783262465389, -3816.8956419105107, -1793.0569402047327, -9457.470113929525, 15.668572863170251, 411.1156357664628, -4673.2580272266905, -1246.0203464055476, -1757.6070734986156, -4595.630418733409, -3648.2293782507636, -2786.4578707764, -3111.8322148123048, -1995.8319659032782, -8376.80797300434, -14845.738094537031, 0.014, -0.10400000000000001, 0.998, 192.0, 0.0, 56.0, 126.0, 96.0, 15.5, 24.0, 0.0, 0.0, 0.0, 1.64592240971343E9, 0.0, 2022-02-27 11:40:09.713
128.0, -840.3361845417244, -3483.675835570793, -1504.3841605644418, -9121.724560466357, 395.6482286033903, 663.2656649667817, -4585.728595939708, -1135.848597985339, -2509.7656261641537, -4450.992280363117, -3350.0794589614225, -2693.005227208761, -2767.7941641562184, -1723.4089044819957, -8325.667181690596, -14841.580670068344, 0.014, -0.10400000000000001, 0.998, 192.0, 0.0, 0.0, 0.0, 0.0, 0.0, 0.0, 0.0, 0.0, 0.0, 1.645922409721501E9, 0.0, 2022-02-27 11:40:09.721
130.0, -1412.4961391086745, -3942.0207073713195, -1945.4511339010162, -9613.261772783015, -149.0637837724428, 266.4998491406261, -4839.420895507443, -1444.3250232130317, -3243.8639693098035, -5083.390186237119, -3651.8056573636127, -2879.1729067770134, -3056.9586821745256, -2008.3042393093397, -8598.693740212171, -15455.538386766719, 0.014, -0.10400000000000001, 0.998, 192.0, 0.0, 0.0, 0.0, 0.0, 0.0, 0.0, 0.0, 0.0, 0.0, 1.645922409728034E9, 0.0, 2022-02-27 11:40:09.728
132.0, -952.1172585627149, -3559.582359741016, -1568.444260173352, -9196.669959625002, 300.27333501259506, 632.5096645962792, -4547.417705943311, -1075.4094809781886, -1458.7642501311602, -4240.282385382937, -3459.4688963256954, -2687.193773650381, -2930.537215535309, -1817.6438591055703, -8233.265070112357, -14523.850622636155, 0.014, -0.10400000000000001, 0.998, 192.0, 0.0, 0.0, 0.0, 0.0, 0.0, 0.0, 0.0, 0.0, 0.0, 1.645922409736128E9, 0.0, 2022-02-27 11:40:09.736
134.0, -1130.1936066381463, -3720.8054924971457, -1750.8791984175682, -9406.48578482697, 105.81315825142363, 420.9056998378873, -4783.943865769371, -1408.89750825137, -3608.2644591646745, -4924.066951759691, -3423.549642986017, -2792.2469725903243, -2800.807690716707, -1814.8275393042015, -8525.06709397639, -15397.490906416288, 0.014, -0.10400000000000001, 0.998, 192.0, 0.0, 0.0, 0.0, 0.0, 0.0, 0.0, 0.0, 0.0, 0.0, 1.645922409744144E9, 0.0, 2022-02-27 11:40:09.744
136.0, -1262.515933813564, -3823.8246826916557, -1799.1813181854866, -9463.885064588198, 9.834767560335107, 398.7998245715886, -4677.147230761913, -1244.4780760381313, -1775.8684487186015, -4603.297067081579, -3639.8474740800234, -2784.6473794755198, -3108.524156632919, -2009.1759573430966, -8376.070365437314, -14859.104437721306, 0.012, -0.108, 0.996, 192.0, 0.0, 48.0, 126.0, 80.0, 15.5, 16.0, 0.0, 0.0, 0.0, 1.645922409750706E9, 0.0, 2022-02-27 11:40:09.750
138.0, -830.0320303478278, -3485.329864660486, -1505.121768131467, -9118.595316242614, 399.7609495831668, 655.1072782405947, -4583.247552305169, -1142.4870660885651, -2462.9387215302854, -4444.398515748801, -3338.9929937115903, -2682.030520681205, -2764.128478065548, -1736.015288354789, -8317.955829853516, -14827.677885017143, 0.012, -0.108, 0.996, 192.0, 0.0, 0.0, 0.0, 0.0, 0.0, 0.0, 0.0, 0.0, 0.0, 1.645922409758665E9, 0.0, 2022-02-27 11:40:09.758
140.0, -1409.9480402407696, -3949.910873164043, -1948.1556949801084, -9610.534859959467, -146.11335350434226, 268.3997474193272, -4837.09631408409, -1456.0373373076127, -3246.680289111172, -5098.634075955639, -3647.3353084725513, -2874.5237439303096, -3054.231769350978, -2032.4441233210712, -8596.503269255552, -15459.338183324122, 0.012, -0.108, 0.996, 192.0, 0.0, 0.0, 0.0, 0.0, 0.0, 0.0, 0.0, 0.0, 0.0, 1.645922409766713E9, 0.0, 2022-02-27 11:40:09.766
142.0, -945.6129009262206, -3551.2675108036415, -1572.7804985976816, -9195.194744490951, 299.93805884576545, 629.8945104950084, -4549.719935622208, -1069.2851029974345, -1446.8954738253922, -4243.054001695395, -3450.6623090103044, -2666.965444918328, -2928.0785236452252, -1820.326068440207, -8234.293250357301, -14520.25199177885, 0.012, -0.108, 0.996, 192.0, 0.0, 0.0, 0.0, 0.0, 0.0, 0.0, 0.0, 0.0, 0.0, 1.645922409780234E9, 0.0, 2022-02-27 11:40:09.780
144.0, -1129.813626982406, -3724.4935303322713, -1755.5730647531827, -9398.95324694553, 107.80246350794596, 436.84249363452125, -4780.6805110788955, -1401.096749436468, -3601.4918805947163, -4900.552916592707, -3412.038494591534, -2778.746518939319, -2802.1711471284807, -1803.3387426541738, -8526.609364343807, -15390.76303133524, 0.012, -0.108, 0.996, 192.0, 0.0, 0.0, 0.0, 0.0, 0.0, 0.0, 0.0, 0.0, 0.0, 1.645922409788302E9, 0.0, 2022-02-27 11:40:09.788
146.0, -1268.4838495831311, -3820.8742524235554, -1803.3163909097186, -9462.49925643197, 14.68509610713674, 426.73950514072243, -4669.2123614802795, -1243.2487300930895, -1775.7790417407803, -4611.321343341034, -3643.4237531928725, -2776.779565427252, -3121.197595739078, -2007.2984108088508, -8378.171429416112, -14859.283251676949, 0.012, -0.11, 0.986, 192.0, 0.0, 48.0, 126.0, 72.0, 15.0, 104.0, 0.0, 0.0, 0.0, 1.645922409796433E9, 0.0, 2022-02-27 11:40:09.796
148.0, -824.5335012118222, -3475.517448844606, -1495.7563872046933, -9118.438854031427, 404.87949906343215, 676.5873046621448, -4574.083337078493, -1126.7290862475738, -2459.228331950704, -4428.215852763159, -3337.785999511004, -2681.516430558733, -2770.6551874464976, -1701.0571600266887, -8312.591411184241, -14822.738149492521, 0.012, -0.11, 0.986, 192.0, 0.0, 0.0, 0.0, 0.0, 0.0, 0.0, 0.0, 0.0, 0.0, 1.645922409803594E9, 0.0, 2022-02-27 11:40:09.803
150.0, -1419.3357729119984, -3956.9963761563754, -1945.4064304121055, -9616.033389095473, -156.55161816497068, 263.19179096124066, -4835.419933249943, -1454.5621221735623, -3270.484896956074, -5088.240514783921, -3639.981584546755, -2861.8726565686056, -3055.9528536740368, -2032.287661109884, -8593.932818643192, -15471.58693928563, 0.012, -0.11, 0.986, 192.0, 0.0, 0.0, 0.0, 0.0, 0.0, 0.0, 0.0, 0.0, 0.0, 1.645922409810935E9, 0.0, 2022-02-27 11:40:09.810
152.0, -958.5098574769328, -3571.3840808134178, -1571.1264695079888, -9192.11020375612, 290.4832709411706, 617.1093126665727, -4538.968746539205, -1082.8973153707166, -1437.1501132428782, -4221.126940384739, -3449.455314809718, -2652.772087189208, -2939.4108580840657, -1834.2288534914082, -8231.611041022663, -14524.007084847342, 0.012, -0.11, 0.986, 192.0, 0.0, 0.0, 0.0, 0.0, 0.0, 0.0, 0.0, 0.0, 0.0, 1.645922409819004E9, 0.0, 2022-02-27 11:40:09.819
154.0, -1123.108103645814, -3723.018315198221, -1744.10661984761, -9384.536371771857, 110.84230075386772, 441.7151739257782, -4777.797136044162, -1402.7954820150712, -3599.4802235937386, -4890.382872865543, -3413.938392870235, -2768.509419978788, -2807.8484902201285, -1829.1997109889642, -8526.564660854896, -15386.203275466356, 0.013000000000000001, -0.111, 0.987, 192.0, 0.0, 56.0, 126.0, 64.0, 15.0, 112.0, 0.0, 0.0, 0.0, 1.645922409826917E9, 0.0, 2022-02-27 11:40:09.826
156.0, -1278.944465988215, -3838.241557865329, -1809.463120634928, -9471.059974558351, -2.81631980136869, 413.14964451189576, -4676.297864472612, -1250.1554191297794, -1806.199765944453, -4635.260061652668, -3646.5529974166157, -2785.183821342447, -3125.5114824189527, -2011.7240562110017, -8389.66022606614, -14881.925568810175, 0.013000000000000001, -0.111, 0.987, 192.0, 0.0, 0.0, 0.0, 0.0, 0.0, 0.0, 0.0, 0.0, 0.0, 1.645922409832908E9, 0.0, 2022-02-27 11:40:09.832
158.0, -833.4071437605792, -3482.8711727704017, -1496.9410296608246, -9115.644885974514, 397.59283037100204, 679.4706796968794, -4578.106651080448, -1116.849615198328, -2420.112779153917, -4435.949556344695, -3341.6081478128613, -2696.5368028326993, -2775.192591570925, -1726.6499074280152, -8310.467995460987, -14807.40485279618, 0.013000000000000001, -0.111, 0.987, 192.0, 0.0, 0.0, 0.0, 0.0, 0.0, 0.0, 0.0, 0.0, 0.0, 1.645922409840612E9, 0.0, 2022-02-27 11:40:09.840
160.0, -1411.0432757190795, -3956.3705273116266, -1942.6571658441028, -9617.441548996158, -158.831496099412, 277.96629404619864, -4845.344107788099, -1458.2948634975987, -3275.290522013965, -5101.919782390569, -3641.345040958529, -2882.7044824009517, -3056.690461241062, -2023.7716464724122, -8599.163126845733, -15472.570416041663, 0.013000000000000001, -0.111, 0.987, 192.0, 0.0, 0.0, 0.0, 0.0, 0.0, 0.0, 0.0, 0.0, 0.0, 1.645922409848576E9, 0.0, 2022-02-27 11:40:09.848
162.0, -942.9753950804943, -3557.1460195953873, -1565.8067543276256, -9195.664131124513, 289.6115529074136, 640.9586240003854, -4545.406048942334, -1086.4735944835656, -1412.89847050887, -4231.654612023189, -3444.739096729648, -2662.517447771722, -2934.2699568593453, -1826.6069086321484, -8233.645049768096, -14524.811747647733, 0.013000000000000001, -0.111, 0.987, 192.0, 0.0, 0.0, 0.0, 0.0, 0.0, 0.0, 0.0, 0.0, 0.0, 1.645922409855771E9, 0.0, 2022-02-27 11:40:09.855
164.0, -1115.463807042099, -3714.9940389387657, -1739.9715471233783, -9382.658825237611, 98.34767560335108, 428.59469993051295, -4778.870019778016, -1397.1181389234232, -3582.3587873409733, -4882.492707072819, -3403.276610765053, -2759.188742540925, -2796.2702865922793, -1813.1288067255982, -8522.11666370829, -15382.626996353507, 0.0125, -0.1105, 0.9895, 192.0, 0.0, 48.0, 126.0, 72.0, 15.5, 0.0, 0.0, 0.0, 0.0, 1.645922409863228E9, 0.0, 2022-02-27 11:40:09.863
166.0, -1262.2253611356452, -3821.9694879018653, -1800.433015874984, -9463.080401787807, -11.689962350125594, 403.71720835175614, -4685.462079699288, -1260.101945412391, -1795.7391495393695, -4618.831529478018, -3644.474285182272, -2772.9127136364837, -3127.0314010419133, -2017.289640580373, -8388.94497024357, -14876.583501885356, 0.0125, -0.1105, 0.9895, 192.0, 0.0, 0.0, 0.0, 0.0, 0.0, 0.0, 0.0, 0.0, 0.0, 1.645922409871132E9, 0.0, 2022-02-27 11:40:09.871
168.0, -813.2458702618922, -3467.7837452630697, -1486.7709859336599, -9107.888830648522, 391.1555279678736, 675.5144209282901, -4595.049273377571, -1137.2567578860233, -2406.880546436375, -4406.467605408145, -3328.1523976507665, -2670.2064478643474, -2770.2975595352127, -1721.4195992254733, -8313.373722240178, -14806.086099873317, 0.0125, -0.1105, 0.9895, 192.0, 0.0, 0.0, 0.0, 0.0, 0.0, 0.0, 0.0, 0.0, 0.0, 1.645922409879449E9, 0.0, 2022-02-27 11:40:09.879
170.0, -1412.3843803863979, -3953.9565389104537, -1936.7339535634464, -9614.781691405975, -166.185220025208, 266.05281425152, -4854.016584636758, -1481.0042358641906, -3307.4099787962414, -5105.429006270052, -3631.4208664203725, -2880.022273066315, -3047.9062256701263, -2015.5909080017698, -8604.862821681836, -15482.181666157445, 0.0125, -0.1105, 0.9895, 192.0, 0.0, 0.0, 0.0, 0.0, 0.0, 0.0, 0.0, 0.0, 0.0, 1.645922409885864E9, 0.0, 2022-02-27 11:40:09.885
172.0, -967.2046860700472, -3581.107089651476, -1574.0545480316339, -9205.096567284652, 273.87592481087745, 619.1880249009163, -4556.716031636719, -1070.8050216203956, -1427.9411945272916, -4240.058867938384, -3460.16180040381, -2677.426061323412, -2945.311718620267, -1828.8420830776793, -8237.087218414214, -14518.977942344898, 0.0125, -0.1105, 0.9895, 192.0, 0.0, 0.0, 0.0, 0.0, 0.0, 0.0, 0.0, 0.0, 0.0, 1.645922409892935E9, 0.0, 2022-02-27 11:40:09.892
174.0, -1107.2160133380908, -3711.7083325038357, -1731.589642952638, -9373.09227861074, 114.53033858899339, 443.9503483713089, -4768.744679539762, -1391.0831679204903, -3589.444290333306, -4891.031073454747, -3413.4690062366735, -2781.004045129305, -2802.2382023618466, -1819.879033551101, -8522.87662301977, -15368.85832176904, 0.01225, -0.11025, 0.98875, 192.0, 0.0, 48.0, 126.0, 72.0, 15.0, 112.0, 0.0, 0.0, 0.0, 1.645922409908936E9, 0.0, 2022-02-27 11:40:09.908
176.0, -1284.8676782688713, -3840.1861596329404, -1813.2629171923302, -9483.286378775403, -18.820168831368548, 389.5014988781809, -4695.699178659818, -1267.1203931713574, -1865.1636678175532, -4658.081192741536, -3651.380974218962, -2789.02832138876, -3129.132465020712, -2027.3479255852612, -8398.109185470246, -14906.624246433288, 0.01225, -0.11025, 0.98875, 192.0, 0.0, 0.0, 0.0, 0.0, 0.0, 0.0, 0.0, 0.0, 0.0, 1.645922409915647E9, 0.0, 2022-02-27 11:40:09.915
178.0, -823.5276727113334, -3480.792460536058, -1488.7379394457269, -9114.102615607097, 406.24295547520586, 671.9157900709856, -4570.440002732277, -1118.8612721993056, -2374.045833831529, -4408.255744964569, -3332.0416011859897, -2680.2423811247804, -2774.3208735371677, -1739.0998290896214, -8299.73915812244, -14792.943274133597, 0.01225, -0.11025, 0.98875, 192.0, 0.0, 0.0, 0.0, 0.0, 0.0, 0.0, 0.0, 0.0, 0.0, 1.645922409923411E9, 0.0, 2022-02-27 11:40:09.923
180.0, -1406.8858512503925, -3956.5046377783583, -1935.5716628517705, -9614.75933966152, -148.61674888333667, 267.63978810784675, -4847.62398572254, -1460.060651309568, -3350.2806246615205, -5095.191907309521, -3623.7765698166577, -2872.0650520402255, -3038.250272065434, -2024.509254039437, -8594.581019232395, -15484.550951069708, 0.01225, -0.11025, 0.98875, 192.0, 0.0, 0.0, 0.0, 0.0, 0.0, 0.0, 0.0, 0.0, 0.0, 1.645922409931482E9, 0.0, 2022-02-27 11:40:09.931
182.0, -980.0792908763041, -3602.184784672831, -1574.2110102428212, -9211.623276665601, 273.49594515513724, 596.5010042787795, -4558.5041711931435, -1088.1499753177138, -1416.832377533004, -4282.013092280995, -3460.92175971529, -2688.2443056397806, -2952.0619454457697, -1849.428039721017, -8231.543985789298, -14524.565878458725, 0.01225, -0.11025, 0.98875, 192.0, 0.0, 0.0, 0.0, 0.0, 0.0, 0.0, 0.0, 0.0, 0.0, 1.645922409938704E9, 0.0, 2022-02-27 11:40:09.938
184.0, -1108.6688767276855, -3716.9386407063776, -1729.823855140669, -9374.791011189343, 113.21158566613028, 440.2176070472726, -4787.922476282415, -1404.1142349379343, -3571.1158598799543, -4882.023320439258, -3404.9529915992016, -2779.573533484165, -2797.700798237419, -1808.1443677120649, -8513.175965926166, -15363.292737399666, 0.012125, -0.109125, 0.990375, 192.0, 0.0, 48.0, 126.0, 80.0, 15.5, 0.0, 0.0, 0.0, 0.0, 1.645922409946122E9, 0.0, 2022-02-27 11:40:09.946
186.0, -1290.388559149332, -3845.9529097024097, -1818.6049841171484, -9478.905436862164, -30.19720675911984, 386.66282733235687, -4701.8459083850275, -1255.6092447768742, -1866.8176969072458, -4654.884893284428, -3649.2799102401627, -2794.2362778468464, -3133.8710348452373, -2030.8571494647445, -8402.42307215012, -14908.300627267436, 0.012125, -0.109125, 0.990375, 192.0, 0.0, 0.0, 0.0, 0.0, 0.0, 0.0, 0.0, 0.0, 0.0, 1.645922409954049E9, 0.0, 2022-02-27 11:40:09.954
188.0, -834.6588414500764, -3485.9780652496893, -1493.7447302037158, -9113.365008040073, 396.4528914037814, 658.4153364199801, -4585.795651173074, -1129.8583304713168, -2376.7503949106213, -4406.042922263494, -3339.3282698784196, -2674.9673694333283, -2781.004045129305, -1738.943366878434, -8307.718730892984, -14793.50206774498, 0.012125, -0.109125, 0.990375, 192.0, 0.0, 0.0, 0.0, 0.0, 0.0, 0.0, 0.0, 0.0, 0.0, 1.645922409961227E9, 0.0, 2022-02-27 11:40:09.961
190.0, -1419.3581246564538, -3964.126582637618, -1940.2878809318402, -9615.340485017357, -155.18816175319694, 252.03827047804245, -4858.330471316633, -1467.86141012447, -3339.6188425563387, -5103.998494624912, -3629.3198024415738, -2880.1787352775023, -3044.240539579456, -2026.386800573683, -8599.94543790167, -15494.273959907767, 0.012125, -0.109125, 0.990375, 192.0, 0.0, 0.0, 0.0, 0.0, 0.0, 0.0, 0.0, 0.0, 0.0, 1.645922409967929E9, 0.0, 2022-02-27 11:40:09.967
192.0, -992.9762474270162, -3609.694970809814, -1582.8834870914802, -9209.656323153535, 269.80790732001157, 597.618591501545, -4570.082374820992, -1093.4473387536216, -1431.1374939844006, -4264.623435094766, -3464.855666739424, -2689.160727162448, -2950.7431925229066, -1844.1530280295644, -8231.991020678404, -14534.802977419255, 0.012125, -0.109125, 0.990375, 192.0, 0.0, 0.0, 0.0, 0.0, 0.0, 0.0, 0.0, 0.0, 0.0, 1.645922409975773E9, 0.0, 2022-02-27 11:40:09.975
194.0, -1112.8039494519173, -3721.2525273862516, -1724.9735265938673, -9361.80464766081, 126.13089396129776, 448.1301245844513, -4781.306359923645, -1383.930609694792, -3571.048804646588, -4882.5821140506405, -3412.1726050582656, -2778.4559462613997, -2801.411187817, -1806.1550624555425, -8512.147785681223, -15362.443371110365, 0.013062500000000001, -0.1065625, 0.9911875, 192.0, 0.0, 56.0, 126.0, 96.0, 15.5, 0.0, 0.0, 0.0, 0.0, 1.645922409983679E9, 0.0, 2022-02-27 11:40:09.983
196.0, -1308.7840448360498, -3865.5106861008035, -1828.2609377218412, -9479.196009540083, -28.587881158337733, 385.0758534760301, -4713.088835846047, -1273.5576955744857, -1909.911860217078, -4672.9674545487715, -3660.7240034012802, -2798.416054059989, -3134.42982845662, -2021.223547604507, -8405.440557651587, -14926.562002487422, 0.013062500000000001, -0.1065625, 0.9911875, 192.0, 0.0, 0.0, 0.0, 0.0, 0.0, 0.0, 0.0, 0.0, 0.0, 1.645922409990805E9, 0.0, 2022-02-27 11:40:09.990
198.0, -840.9173298975624, -3495.8128328100247, -1497.2092505942883, -9105.631304458537, 396.94462978179814, 671.2005342484158, -4586.197982573269, -1121.2305571115683, -2346.888464318331, -4399.9632477716505, -3348.0678019604447, -2680.5329538026995, -2786.413167287489, -1735.948233121423, -8303.851879102216, -14776.917073359142, 0.013062500000000001, -0.1065625, 0.9911875, 192.0, 0.0, 0.0, 0.0, 0.0, 0.0, 0.0, 0.0, 0.0, 0.0, 1.645922409998343E9, 0.0, 2022-02-27 11:40:09.998
200.0, -1428.3435259274872, -3969.133373395607, -1943.3053664333067, -9611.540688459956, -158.11624027684215, 263.57177061698087, -4854.15069510349, -1461.737032143716, -3342.1445896797886, -5099.416387011574, -3631.4879216537383, -2875.8872003420834, -3046.654527980629, -2011.1205591107082, -8601.018321635524, -15488.551913327208, 0.013062500000000001, -0.1065625, 0.9911875, 192.0, 0.0, 0.0, 0.0, 0.0, 0.0, 0.0, 0.0, 0.0, 0.0, 1.645922410006398E9, 0.0, 2022-02-27 11:40:10.006
202.0, -997.8712794627285, -3609.8067295320907, -1583.0175975582122, -9211.220945265406, 271.6183986208914, 604.7487979827879, -4561.633415416886, -1087.7252921730628, -1425.3036886815655, -4249.826580265353, -3469.1919051637537, -2681.67289276992, -2955.235893158423, -1836.8216558482238, -8233.287421856812, -14530.891422139577, 0.013062500000000001, -0.1065625, 0.9911875, 192.0, 0.0, 0.0, 0.0, 0.0, 0.0, 0.0, 0.0, 0.0, 0.0, 1.645922410014485E9, 0.0, 2022-02-27 11:40:10.014
204.0, -1121.7893507229508, -3730.014411212732, -1723.5206632042723, -9369.225426819972, 124.9909549940771, 453.4498397648144, -4783.742700069273, -1388.1774411413005, -3557.257778317664, -4887.834773997638, -3410.6973899242153, -2778.7912224282295, -2802.8864029510505, -1804.232812432386, -8510.11377693579, -15360.409362364933, 0.01453125, -0.10628125, 0.9885937499999999, 192.0, 0.0, 64.0, 126.0, 88.0, 15.0, 104.0, 0.0, 0.0, 0.0, 1.645922410028036E9, 0.0, 2022-02-27 11:40:10.028
206.0, -1304.4031029228095, -3859.833343009155, -1820.0578475067434, -9477.273759516926, -21.502378166005393, 385.90286802087644, -4708.529079977165, -1268.7744222610502, -1883.0450633817989, -4670.575817892053, -3664.3002825141293, -2802.0370366617485, -3140.844779115293, -2021.1788441155963, -8403.294790183878, -14919.051816350438, 0.01453125, -0.10628125, 0.9885937499999999, 192.0, 0.0, 0.0, 0.0, 0.0, 0.0, 0.0, 0.0, 0.0, 0.0, 1.645922410035893E9, 0.0, 2022-02-27 11:40:10.035
208.0, -837.6092717181768, -3492.862402541924, -1494.1247098594558, -9108.04529285971, 395.84939430348805, 660.2705312097706, -4574.306854523045, -1133.076981672881, -2356.8126388564874, -4402.958381528661, -3347.9783949826237, -2676.5990467785655, -2794.4821470358547, -1724.2135672823867, -8307.204640770513, -14788.808201409365, 0.01453125, -0.10628125, 0.9885937499999999, 192.0, 0.0, 0.0, 0.0, 0.0, 0.0, 0.0, 0.0, 0.0, 0.0, 1.645922410044048E9, 0.0, 2022-02-27 11:40:10.044
210.0, -1425.3260404260209, -3968.5075245508583, -1943.551235622315, -9613.909973372218, -153.04239428548746, 265.4269654067714, -4835.934023372415, -1460.3065204985762, -3363.132877723322, -5112.872137173669, -3632.493750154227, -2876.602456164653, -3049.3814408041767, -2010.450006777049, -8600.392472790774, -15496.285616908744, 0.01453125, -0.10628125, 0.9885937499999999, 192.0, 0.0, 0.0, 0.0, 0.0, 0.0, 0.0, 0.0, 0.0, 0.0, 1.645922410050571E9, 0.0, 2022-02-27 11:40:10.050
212.0, -995.9937329284827, -3607.9962382312106, -1587.59970517155, -9215.959515089931, 262.7671078165898, 591.3153995651484, -4554.771429869107, -1089.2005073071132, -1421.5038921241633, -4255.3251094013585, -3473.326977887986, -2682.231686381303, -2969.4516026319984, -1837.3357459706958, -8230.471102055442, -14527.762177915834, 0.01453125, -0.10628125, 0.9885937499999999, 192.0, 0.0, 0.0, 0.0, 0.0, 0.0, 0.0, 0.0, 0.0, 0.0, 1.645922410058645E9, 0.0, 2022-02-27 11:40:10.058
214.0, -1096.4201207661774, -3703.862870200023, -1713.4847299438395, -9351.724010911466, 139.31842318992892, 458.43427877834785, -4766.08482194958, -1380.7566619821384, -3546.0595543455547, -4863.2478550968, -3406.2717445220646, -2771.21398105788, -2805.0768739076702, -1789.726530280892, -8503.318846621376, -15354.329687873089, 0.014265625, -0.105140625, 0.984296875, 192.0, 0.0, 56.0, 126.0, 96.0, 15.0, 80.0, 0.0, 0.0, 0.0, 1.645922410066601E9, 0.0, 2022-02-27 11:40:10.066
216.0, -1297.9658005196811, -3853.396040606027, -1819.8343300621905, -9481.386480496703, -35.7627911284913, 384.1594319533625, -4708.394969510433, -1294.747149318117, -1927.1450551921196, -4672.9674545487715, -3661.9980528352326, -2801.3664843280894, -3137.559072680363, -2008.5724602428033, -8407.362807674743, -14939.682476482687, 0.014265625, -0.105140625, 0.984296875, 192.0, 0.0, 0.0, 0.0, 0.0, 0.0, 0.0, 0.0, 0.0, 0.0, 1.64592241007372E9, 0.0, 2022-02-27 11:40:10.073
218.0, -825.896957623596, -3479.8760390133907, -1480.378387019442, -9097.249400287796, 404.4771676632366, 671.9381418154409, -4553.497380435155, -1100.9351731461493, -2292.3502078473816, -4343.458037788634, -3336.0202116990345, -2665.8702094400182, -2778.4559462613997, -1719.5867561801383, -8290.105556262202, -14765.49533194248, 0.014265625, -0.105140625, 0.984296875, 192.0, 0.0, 0.0, 0.0, 0.0, 0.0, 0.0, 0.0, 0.0, 0.0, 1.645922410080103E9, 0.0, 2022-02-27 11:40:10.080
220.0, -1411.0432757190795, -3957.935149423498, -1930.386058138139, -9605.684531412666, -138.46905690062727, 274.0100352776093, -4825.607517434063, -1440.8381510780039, -3409.6468579348157, -5110.793424939326, -3623.307183183096, -2878.122374787614, -3028.8401876497496, -1996.7036839370353, -8588.054309851446, -15499.146640199024, 0.014265625, -0.105140625, 0.984296875, 192.0, 0.0, 0.0, 0.0, 0.0, 0.0, 0.0, 0.0, 0.0, 0.0, 1.645922410088772E9, 0.0, 2022-02-27 11:40:10.088
222.0, -991.6351427596978, -3604.956400985289, -1578.1672690114106, -9220.452215725449, 272.7136340992015, 591.3377513096036, -4549.384659455378, -1077.1305653012473, -1386.2998946070547, -4266.545685117922, -3474.578675577483, -2689.8536312405627, -2960.309739149778, -1847.7740106313242, -8222.826805451728, -14538.558070487747, 0.014265625, -0.105140625, 0.984296875, 192.0, 0.0, 0.0, 0.0, 0.0, 0.0, 0.0, 0.0, 0.0, 0.0, 1.645922410096397E9, 0.0, 2022-02-27 11:40:10.096
224.0, -1089.7369491740405, -3704.6228295115034, -1707.0250757962556, -9354.719144668477, 138.8713883008228, 457.11552585548475, -4764.4754963487985, -1374.900504934848, -3509.1344725053877, -4849.210959578867, -3391.2066687591873, -2773.9855973703384, -2781.987521885338, -1793.8839547495788, -8491.226552871056, -15336.671809753396, 0.014132812500000001, -0.1075703125, 0.9831484374999999, 192.0, 0.0, 56.0, 126.0, 72.0, 15.0, 88.0, 0.0, 0.0, 0.0, 1.645922410103425E9, 0.0, 2022-02-27 11:40:10.103
226.0, -1305.386579678843, -3859.8109912647, -1821.3766004296067, -9481.140611307694, -31.27009049297458, 399.1351007384182, -4697.509669960698, -1239.6724509802402, -1902.2899153578182, -4659.578759620043, -3660.567541190093, -2800.852394205617, -3136.687354646606, -2024.129274383697, -8399.740862815484, -14928.66306646622, 0.014132812500000001, -0.1075703125, 0.9831484374999999, 192.0, 0.0, 0.0, 0.0, 0.0, 0.0, 0.0, 0.0, 0.0, 0.0, 1.64592241011103E9, 0.0, 2022-02-27 11:40:10.111
228.0, -823.281803522325, -3476.255056411631, -1478.76906141866, -9101.22801080084, 417.19531025830634, 676.3190837286811, -4545.160179753325, -1095.6378097102415, -2314.277269158038, -4382.506535352056, -3346.547883337484, -2677.090785156582, -2786.212001587391, -1729.108599318099, -8294.3076842198, -14762.96958481903, 0.014132812500000001, -0.1075703125, 0.9831484374999999, 192.0, 0.0, 0.0, 0.0, 0.0, 0.0, 0.0, 0.0, 0.0, 0.0, 1.645922410118926E9, 0.0, 2022-02-27 11:40:10.118
230.0, -1416.541804855085, -3964.2159896154394, -1930.386058138139, -9617.687418185165, -138.960795278644, 249.53487509904804, -4838.348011773588, -1467.3026165130875, -3399.0744828074558, -5112.514509262384, -3627.308145440596, -2885.565505691231, -3034.986917374959, -2000.5928874722586, -8599.006664634546, -15506.16508795799, 0.014132812500000001, -0.1075703125, 0.9831484374999999, 192.0, 0.0, 0.0, 0.0, 0.0, 0.0, 0.0, 0.0, 0.0, 0.0, 1.645922410126023E9, 0.0, 2022-02-27 11:40:10.126
232.0, -994.4067590721559, -3612.1089592109875, -1580.3577399680305, -9229.258803040839, 264.3317299284613, 585.0122076287518, -4549.250548988646, -1079.2986845134121, -1387.573944041007, -4260.398955392713, -3476.3668151339075, -2700.940096490395, -2967.1940764420124, -1851.8196763777348, -8226.045456653292, -14534.11007334114, 0.014132812500000001, -0.1075703125, 0.9831484374999999, 192.0, 0.0, 0.0, 0.0, 0.0, 0.0, 0.0, 0.0, 0.0, 0.0, 1.645922410133575E9, 0.0, 2022-02-27 11:40:10.133
234.0, -1087.9711613620714, -3701.985323665777, -1703.6499623835043, -9355.94849061352, 142.7382400915909, 446.02906060565243, -4752.2714438762005, -1382.4330428162866, -3524.668934901826, -4858.174009105445, -3402.986038087134, -2782.568667241176, -2798.863088949095, -1793.7945477717576, -8494.82518372836, -15343.55614704563, 0.01, -0.10400000000000001, 0.984, 192.0, 0.0, 40.0, 126.0, 96.0, 15.0, 96.0, 0.0, 0.0, 0.0, 1.645922410140633E9, 0.0, 2022-02-27 11:40:10.140
236.0, -1305.5653936344854, -3860.168619175985, -1823.9917545308776, -9492.607056213266, -30.800703859413133, 367.26151314515033, -4690.625332668464, -1260.034890179025, -1922.585299323237, -4687.563143678087, -3667.2954162711403, -2811.3353623551566, -3144.376354739232, -2054.0135567204425, -8407.876897797216, -14951.886528955285, 0.01, -0.10400000000000001, 0.984, 192.0, 0.0, 0.0, 0.0, 0.0, 0.0, 0.0, 0.0, 0.0, 0.0, 1.64592241015564E9, 0.0, 2022-02-27 11:40:10.155
238.0, -827.9980216023948, -3481.1053849584328, -1485.027549866146, -9103.70905443538, 404.4548159187813, 669.3676912030807, -4559.241778760169, -1110.6358302397527, -2297.535812561013, -4384.62995107531, -3351.062935717456, -2684.4445090823783, -2800.897097694528, -1749.3145763056966, -8294.911181320093, -14762.947233074574, 0.01, -0.10400000000000001, 0.984, 192.0, 0.0, 0.0, 0.0, 0.0, 0.0, 0.0, 0.0, 0.0, 0.0, 1.645922410163275E9, 0.0, 2022-02-27 11:40:10.163
240.0, -1407.7128657952387, -3951.520198764825, -1939.9973082539211, -9615.318133272904, -156.77513560952374, 243.052869207009, -4852.451962524887, -1480.3336835305315, -3424.354305786408, -5110.122872605667, -3624.089494239032, -2876.960084075938, -3038.6749552100846, -2028.3090505968394, -8611.210717107144, -15525.275829467277, 0.01, -0.10400000000000001, 0.984, 192.0, 0.0, 0.0, 0.0, 0.0, 0.0, 0.0, 0.0, 0.0, 0.0, 1.645922410171157E9, 0.0, 2022-02-27 11:40:10.171
242.0, -997.3795410847117, -3610.387874887929, -1591.1983360288546, -9232.298640286761, 255.0781077239642, 572.7634516672434, -4564.85206661845, -1096.6659899551858, -1393.4301010882975, -4264.399917650213, -3481.7535855476362, -2689.2948376291797, -2982.147393482613, -1875.780746433824, -8242.786913250317, -14544.347172301672, 0.01, -0.10400000000000001, 0.984, 192.0, 0.0, 0.0, 0.0, 0.0, 0.0, 0.0, 0.0, 0.0, 0.0, 1.645922410179245E9, 0.0, 2022-02-27 11:40:10.179
244.0, -1076.884696112239, -3691.2341345827745, -1703.4935001723172, -9357.870740636676, 144.39226918128364, 433.33326975503803, -4768.945845239859, -1379.5273160370966, -3519.7515511216584, -4865.997119664803, -3398.4933374516177, -2774.7232049373633, -2799.0642546491927, -1809.0831409791876, -8499.317884363876, -15346.886556969472, 0.01, -0.11, 0.99, 192.0, 0.0, 40.0, 126.0, 72.0, 15.0, 120.0, 0.0, 0.0, 0.0, 1.645922410185866E9, 0.0, 2022-02-27 11:40:10.185
246.0, -1300.5362511320413, -3859.4757150978703, -1828.6409173775814, -9498.820841171842, -48.950320357122465, 358.47727757421467, -4716.441597514343, -1282.2078206786896, -1939.9079012761, -4698.3813879944555, -3669.7764599056795, -2811.916507710994, -3151.260692031466, -2052.828914264311, -8417.801072335371, -14961.900110471262, 0.01, -0.11, 0.99, 192.0, 0.0, 0.0, 0.0, 0.0, 0.0, 0.0, 0.0, 0.0, 0.0, 1.645922410193962E9, 0.0, 2022-02-27 11:40:10.193
248.0, -812.284745250314, -3469.8624574974133, -1480.8477736530035, -9102.591467212615, 410.0874555215187, 662.9974440333181, -4577.212581302236, -1132.071153172392, -2287.9022107007754, -4370.861276490841, -3345.8549792593694, -2672.7321949877974, -2797.4549290484106, -1746.565311737694, -8294.59825689772, -14769.652756411168, 0.01, -0.11, 0.99, 192.0, 0.0, 0.0, 0.0, 0.0, 0.0, 0.0, 0.0, 0.0, 0.0, 1.645922410201834E9, 0.0, 2022-02-27 11:40:10.201
250.0, -1398.3251331240099, -3948.4356580299927, -1935.750476807413, -9611.495984971045, -149.57787389491486, 243.65636630730228, -4872.769698234761, -1496.3375325605314, -3451.466971810695, -5116.761340708893, -3615.3946656459175, -2869.4498979389546, -3030.2259958059785, -2019.97184991501, -8608.953190917158, -15535.602335405629, 0.01, -0.11, 0.99, 192.0, 0.0, 0.0, 0.0, 0.0, 0.0, 0.0, 0.0, 0.0, 0.0, 1.645922410207904E9, 0.0, 2022-02-27 11:40:10.207
252.0, -1000.1511573971699, -3612.0642557220767, -1596.7415686537706, -9232.700971686956, 248.3949361318274, 570.1482975659726, -4569.389470742878, -1103.103292358314, -1391.5525545540518, -4279.129717246261, -3487.7438530616587, -2688.780747506708, -2983.913181294582, -1868.2258568079303, -8241.781084749828, -14547.364657803138, 0.01, -0.11, 0.99, 192.0, 0.0, 0.0, 0.0, 0.0, 0.0, 0.0, 0.0, 0.0, 0.0, 1.645922410215459E9, 0.0, 2022-02-27 11:40:10.215
254.0, -1068.1898675191246, -3685.4897362577603, -1690.9094680439794, -9342.202167773507, 162.74305137909073, 458.50133401171377, -4760.563941069119, -1376.50983053563, -3514.5212429191165, -4846.439343266409, -3401.8237473754584, -2771.54925722471, -2798.0807778931594, -1806.3115246667296, -8496.702730262605, -15334.347228330045, 0.01, -0.106, 0.99, 192.0, 0.0, 40.0, 126.0, 88.0, 15.0, 120.0, 0.0, 0.0, 0.0, 1.645922410223471E9, 0.0, 2022-02-27 11:40:10.223
0.0, -1318.842329840938, -3876.8653722840995, -1834.8547023361568, -9514.534117523923, -45.41874473318395, 355.95153045076495, -4722.02953362817, -1308.1358442468459, -2008.840681176267, -4722.2754028171785, -3677.398404764939, -2820.0078392038154, -3152.914721121159, -2053.901797998166, -8421.109130514757, -14991.605578852366, 0.01, -0.106, 0.99, 192.0, 0.0, 0.0, 0.0, 0.0, 0.0, 0.0, 0.0, 0.0, 0.0, 1.64592241023158E9, 0.0, 2022-02-27 11:40:10.231
2.0, -819.3702482426463, -3477.6185128234047, -1481.317160286565, -9107.620609715059, 414.043714290108, 676.9896360623403, -4563.175685784303, -1104.9808388925599, -2247.311442769938, -4370.078965434905, -3350.0571072169673, -2681.650541025465, -2797.320818581679, -1744.4865995033504, -8280.606064868696, -14751.927823058108, 0.01, -0.106, 0.99, 192.0, 0.0, 0.0, 0.0, 0.0, 0.0, 0.0, 0.0, 0.0, 0.0, 1.645922410238034E9, 0.0, 2022-02-27 11:40:10.238
4.0, -1404.6059733159511, -3959.902102935565, -1941.964261765988, -9617.642714696254, -138.37964992280604, 260.2637124375954, -4862.823171952149, -1473.1140700714673, -3445.4990560411284, -5119.979991910457, -3620.513215126183, -2885.7219679024183, -3030.6059754617186, -2016.3732190577055, -8602.314722813931, -15525.767567845294, 0.01, -0.106, 0.99, 192.0, 0.0, 0.0, 0.0, 0.0, 0.0, 0.0, 0.0, 0.0, 0.0, 1.645922410246166E9, 0.0, 2022-02-27 11:40:10.246
6.0, -995.725511995019, -3618.2556889361967, -1596.0039610867454, -9230.644611197069, 266.61160786290264, 592.0530071321734, -4563.153334039847, -1091.3462747748226, -1386.612819029429, -4264.712842072588, -3483.5417251040612, -2693.3405033755903, -2975.01718700137, -1865.4765922399274, -8234.047381168291, -14535.004143119353, 0.01, -0.106, 0.99, 192.0, 0.0, 0.0, 0.0, 0.0, 0.0, 0.0, 0.0, 0.0, 0.0, 1.645922410254208E9, 0.0, 2022-02-27 11:40:10.254
8.0, -1070.9614838315827, -3691.6141142385145, -1700.6995321154038, -9343.766789885378, 171.99667358358784, 458.81425843408806, -4760.787458513672, -1372.4865165336748, -3515.9741063087117, -4838.593880962597, -3401.019084575067, -2775.192591570925, -2791.285847578746, -1810.5136526243273, -8489.863096459281, -15327.954629415826, 0.012, -0.106, 0.99, 192.0, 0.0, 48.0, 126.0, 88.0, 15.0, 120.0, 0.0, 0.0, 0.0, 1.645922410261187E9, 0.0, 2022-02-27 11:40:10.261
10.0, -1318.0823705294574, -3879.949913018932, -1834.5641296582378, -9507.716835465055, -29.14667476972041, 361.85239098696604, -4706.204498553812, -1277.6033613208963, -1988.6570559331246, -4719.950821393826, -3682.695768200847, -2833.5753480881867, -3150.0536978308796, -2048.000937461965, -8416.66113336815, -14967.286880884993, 0.012, -0.106, 0.99, 192.0, 0.0, 0.0, 0.0, 0.0, 0.0, 0.0, 0.0, 0.0, 0.0, 1.645922410275852E9, 0.0, 2022-02-27 11:40:10.275
12.0, -821.4266087325345, -3490.604876351938, -1479.7972416636042, -9109.207583571386, 425.5772144290465, 671.8934383265303, -4558.772392126607, -1109.8311674393615, -2272.300693070971, -4379.824326017419, -3355.9803194976234, -2687.573753306121, -2795.018588902782, -1738.4739802448728, -8282.304797447301, -14751.279622468905, 0.012, -0.106, 0.99, 192.0, 0.0, 0.0, 0.0, 0.0, 0.0, 0.0, 0.0, 0.0, 0.0, 1.64592241028383E9, 0.0, 2022-02-27 11:40:10.283
14.0, -1407.80227277306, -3970.250960618372, -1938.4773896309603, -9620.481386242078, -130.7130015746357, 257.02270949157594, -4850.753229946284, -1472.3317590155316, -3463.246341138642, -5128.361896081197, -3621.7202093267692, -2889.8793923711055, -3028.0355248493584, -2012.416960289116, -8598.626684978806, -15526.482823667864, 0.012, -0.106, 0.99, 192.0, 0.0, 0.0, 0.0, 0.0, 0.0, 0.0, 0.0, 0.0, 0.0, 1.645922410291115E9, 0.0, 2022-02-27 11:40:10.291
16.0, -1003.950953954572, -3632.8737298099677, -1600.6531239334495, -9247.721343960922, 267.8633055523998, 582.2182395718384, -4554.793781613563, -1087.658236939697, -1390.993760942669, -4256.733269302043, -3488.950847262245, -2693.809890009152, -2978.369948669666, -1867.1082695851649, -8223.899689185582, -14533.7300936854, 0.012, -0.106, 0.99, 192.0, 0.0, 0.0, 0.0, 0.0, 0.0, 0.0, 0.0, 0.0, 0.0, 1.6459224102985E9, 0.0, 2022-02-27 11:40:10.298
18.0, -1063.1830767611357, -3698.051416641643, -1693.0328837672334, -9346.963089342486, 183.79839465598997, 461.25059857971655, -4766.107173694036, -1375.5263537795965, -3504.6864753587815, -4842.013697864259, -3397.643971162316, -2788.2013068439137, -2789.2294870888577, -1792.5204983378053, -8479.58129400984, -15323.4172252914, 0.014, -0.106, 0.988, 192.0, 0.0, 56.0, 126.0, 88.0, 15.0, 112.0, 0.0, 0.0, 0.0, 1.645922410306452E9, 0.0, 2022-02-27 11:40:10.306
20.0, -1315.1542920058123, -3877.9159042734987, -1838.2074640044527, -9507.381559298225, -27.24677649101931, 370.5695713245358, -4714.340533535545, -1295.8647365408822, -2005.420864274605, -4725.918737163393, -3671.698709928836, -2826.5569003292208, -3147.1703227961452, -2049.6549665516577, -8421.600868892774, -14993.930160275719, 0.014, -0.106, 0.988, 192.0, 0.0, 0.0, 0.0, 0.0, 0.0, 0.0, 0.0, 0.0, 0.0, 1.645922410313469E9, 0.0, 2022-02-27 11:40:10.313
22.0, -819.8396348762077, -3486.1345274608766, -1487.1286138449448, -9102.323246279151, 426.0018975736973, 670.2841127257482, -4546.858912331929, -1097.560059733398, -2232.335773984882, -4359.417183329723, -3345.095019947889, -2677.4931165567777, -2798.50546103781, -1734.1824453094537, -8281.567189880276, -14742.562442131335, 0.014, -0.106, 0.988, 192.0, 0.0, 0.0, 0.0, 0.0, 0.0, 0.0, 0.0, 0.0, 0.0, 1.645922410321063E9, 0.0, 2022-02-27 11:40:10.321
24.0, -1395.1064819224457, -3949.843817930677, -1938.4773896309603, -9610.154880303728, -125.9297282612, 267.30451194101715, -4850.887340413015, -1475.1704305613555, -3486.9168385168123, -5122.975125667468, -3608.7114940537804, -2878.055319554248, -3020.145359056635, -1991.4957274789488, -8605.80159494896, -15530.59554464764, 0.014, -0.106, 0.988, 192.0, 0.0, 0.0, 0.0, 0.0, 0.0, 0.0, 0.0, 0.0, 0.0, 1.645922410328018E9, 0.0, 2022-02-27 11:40:10.328
26.0, -1009.3600761127564, -3630.0574100085987, -1603.8047199016476, -9239.630012468102, 266.5445526295367, 576.6526552024669, -4563.846238117962, -1116.9613739206045, -1376.4651270467195, -4273.474725899068, -3484.8157745380136, -2690.747701018775, -2984.136698739135, -1867.8905806411005, -8238.830654481728, -14541.933183900499, 0.014, -0.106, 0.988, 192.0, 0.0, 0.0, 0.0, 0.0, 0.0, 0.0, 0.0, 0.0, 0.0, 1.645922410336061E9, 0.0, 2022-02-27 11:40:10.336
28.0, -1062.7360418720295, -3690.183602593375, -1688.9872180208229, -9331.56273741278, 188.0675778469536, 471.5994562625237, -4751.220911886801, -1362.294121062055, -3468.990739463656, -4832.178930303923, -3379.9190378092576, -2763.100297820604, -2782.3898532855337, -1796.5661640842159, -8481.01180565498, -15313.046015864136, 0.008, -0.106, 0.99, 192.0, 0.0, 32.0, 126.0, 88.0, 15.0, 120.0, 0.0, 0.0, 0.0, 1.645922410343103E9, 0.0, 2022-02-27 11:40:10.343
30.0, -1325.0784665439685, -3885.269628199295, -1836.5310831703048, -9512.097777378294, -26.71033462409194, 359.43840258579286, -4714.094664346536, -1267.746242016106, -2017.0437713913645, -4726.566937752597, -3667.3848232489618, -2822.935917727461, -3151.2830437759217, -2051.0184229634315, -8422.539642159896, -14986.956416005662, 0.008, -0.106, 0.99, 192.0, 0.0, 0.0, 0.0, 0.0, 0.0, 0.0, 0.0, 0.0, 0.0, 1.645922410350688E9, 0.0, 2022-02-27 11:40:10.350
32.0, -825.8522541346854, -3488.54851586205, -1473.3375875160204, -9107.106519592586, 435.6131476894793, 672.385176704547, -4542.254452974135, -1098.364722533789, -2219.0588377784297, -4368.067308433928, -3339.8200082564367, -2683.997474193272, -2801.858222706106, -1749.7392594503474, -8273.967596765471, -14736.035732750384, 0.008, -0.106, 0.99, 192.0, 0.0, 0.0, 0.0, 0.0, 0.0, 0.0, 0.0, 0.0, 0.0, 1.645922410358678E9, 0.0, 2022-02-27 11:40:10.358
34.0, -1401.1414529253784, -3954.7612017108445, -1928.7096773039912, -9607.80794713592, -124.25334742705196, 252.75352630061226, -4853.144866603001, -1493.6553232258946, -3484.9498850047453, -5126.8866809471465, -3601.8495085060013, -2881.3857294780887, -3018.4466264780317, -2000.034093860876, -8597.732615200594, -15535.289410983254, 0.008, -0.106, 0.99, 192.0, 0.0, 0.0, 0.0, 0.0, 0.0, 0.0, 0.0, 0.0, 0.0, 1.645922410366723E9, 0.0, 2022-02-27 11:40:10.366
36.0, -1013.562204070354, -3623.2177762052747, -1602.5753739566057, -9242.222814824918, 262.0965554829306, 568.4942684762798, -4565.612025929931, -1103.9079551587051, -1365.2669030746106, -4271.507772387001, -3480.121908202399, -2685.7632620052414, -2982.7508905829063, -1853.5184089563381, -8232.929793945526, -14545.218890335429, 0.008, -0.106, 0.99, 192.0, 0.0, 0.0, 0.0, 0.0, 0.0, 0.0, 0.0, 0.0, 0.0, 1.645922410373262E9, 0.0, 2022-02-27 11:40:10.373
38.0, -1048.7662015874628, -3675.274989041685, -1680.2700376832531, -9323.583164642236, 190.861545903867, 468.20199110531706, -4757.568807312108, -1359.678966960784, -3462.9781202051786, -4822.344162743588, -3385.8198983454586, -2766.83303914464, -2790.481184778355, -1785.3455883676515, -8489.818392970372, -15309.782661173662, 0.01, -0.10400000000000001, 0.984, 192.0, 0.0, 40.0, 126.0, 96.0, 15.0, 96.0, 0.0, 0.0, 0.0, 1.645922410381363E9, 0.0, 2022-02-27 11:40:10.381
40.0, -1333.3933154813428, -3886.834250311166, -1847.5951966756818, -9520.12205363775, -49.62087269078168, 345.66972800132373, -4732.4901500332535, -1315.8248443394714, -2067.3351964158055, -4756.115943922513, -3674.53738147466, -2831.5636910872095, -3154.591101955307, -2045.542245571881, -8443.52793020343, -15024.283829246026, 0.01, -0.10400000000000001, 0.984, 192.0, 0.0, 0.0, 0.0, 0.0, 0.0, 0.0, 0.0, 0.0, 0.0, 1.645922410388476E9, 0.0, 2022-02-27 11:40:10.388
42.0, -819.1914342870039, -3478.9819692351784, -1470.5212677146517, -9100.13277532253, 433.02034533266374, 662.259836466293, -4564.337976495979, -1138.0167171975038, -2159.334976593849, -4344.8438459448635, -3342.5692728244394, -2676.1743636339147, -2804.2051558739136, -1734.8977011320235, -8278.907332290093, -14726.469186123513, 0.01, -0.10400000000000001, 0.984, 192.0, 0.0, 0.0, 0.0, 0.0, 0.0, 0.0, 0.0, 0.0, 0.0, 1.645922410402912E9, 0.0, 2022-02-27 11:40:10.402
44.0, -1410.0374472185908, -3964.752431482367, -1923.9264039905554, -9606.556249446423, -125.70621081664692, 251.18890418874076, -4867.874666199049, -1512.609602523995, -3493.443547897762, -5116.761340708893, -3592.9311624683337, -2876.7812701202956, -3007.7401408839396, -1990.5346024673704, -8605.041635637479, -15546.174710532989, 0.01, -0.10400000000000001, 0.984, 192.0, 0.0, 0.0, 0.0, 0.0, 0.0, 0.0, 0.0, 0.0, 0.0, 1.645922410411134E9, 0.0, 2022-02-27 11:40:10.411
46.0, -1070.2909314979233, -3673.7550704187242, -1610.9125746384352, -9255.678564987013, 239.94597672772133, 560.6488061724671, -4576.385566757389, -1086.9206293726718, -1382.5895050274737, -4289.411519695702, -3501.1101962459325, -2709.098483216582, -3002.3310187257553, -1870.3492725311844, -8242.92102371705, -14550.69506772698, 0.013000000000000001, -0.10600000000000001, 0.983, 192.0, 0.0, 64.0, 126.0, 80.0, 15.0, 88.0, 0.0, 0.0, 0.0, 1.645922410418971E9, 0.0, 2022-02-27 11:40:10.418
48.0, -1124.8962432022386, -3746.755867809757, -1679.4877266273174, -9330.914536823575, 199.0646361189647, 470.79479346213265, -4746.974080440293, -1357.6673099598063, -3465.9732539621896, -4837.72216292884, -3401.9131543532794, -2784.4685655198773, -2792.805766201707, -1789.59241981416, -8482.218799855567, -15297.064518578592, 0.013000000000000001, -0.10600000000000001, 0.983, 192.0, 0.0, 0.0, 0.0, 0.0, 0.0, 0.0, 0.0, 0.0, 0.0, 1.645922410425598E9, 0.0, 2022-02-27 11:40:10.425
50.0, -1445.7331831137162, -3988.847612005188, -1850.3891647325952, -9520.5467367824, -37.75209638501363, 354.4763153167147, -4709.2443357997345, -1287.4157771367761, -2083.6072663792693, -4778.847668033561, -3706.746245234757, -2862.7890780912735, -3158.4132502571647, -2053.477114853515, -8433.760217876461, -15011.945666306696, 0.013000000000000001, -0.10600000000000001, 0.983, 192.0, 0.0, 0.0, 0.0, 0.0, 0.0, 0.0, 0.0, 0.0, 0.0, 1.645922410433711E9, 0.0, 2022-02-27 11:40:10.433
52.0, -981.7333199659968, -3626.8834622959453, -1478.2773230406433, -9107.888830648522, 432.12627555445147, 667.1325167575499, -4547.551816410043, -1116.134359375758, -2223.9985733030526, -4387.178049943215, -3390.0220263030565, -2718.1732914654367, -2811.447121077433, -1731.276718530264, -8280.293140446323, -14723.317590155315, 0.013000000000000001, -0.10600000000000001, 0.983, 192.0, 0.0, 0.0, 0.0, 0.0, 0.0, 0.0, 0.0, 0.0, 0.0, 1.645922410441594E9, 0.0, 2022-02-27 11:40:10.441
54.0, -1597.859155876536, -4139.9230527786085, -1933.4035436396057, -9620.816662408908, -118.06191421293191, 267.93036078576574, -4852.429610780431, -1477.3385497735203, -3561.7057754642697, -5182.676635107593, -3648.765820117691, -2934.2252533704345, -3013.1269112976684, -1987.4277099880828, -8606.159222860244, -15544.297163998745, 0.013000000000000001, -0.10600000000000001, 0.983, 192.0, 0.0, 0.0, 0.0, 0.0, 0.0, 0.0, 0.0, 0.0, 0.0, 1.645922410449623E9, 0.0, 2022-02-27 11:40:10.449
56.0, -1243.7628202155615, -3843.516569556781, -1617.1710630859213, -9264.708669746957, 260.42017464878256, 571.422346999925, -4552.156275767837, -1085.0207310939707, -1445.6884796248055, -4344.150941866749, -3559.962339396756, -2765.5589897106875, -3000.431120447054, -1871.7350806874135, -8237.735419003418, -14542.380218789605, 0.0125, -0.10600000000000001, 0.9835, 192.0, 0.0, 48.0, 126.0, 88.0, 15.0, 96.0, 0.0, 0.0, 0.0, 1.645922410455703E9, 0.0, 2022-02-27 11:40:10.455
58.0, -1243.4051923042766, -3863.43197386646, -1674.3691771470521, -9328.075865277751, 214.1967671152076, 483.2447151237387, -4729.249147087235, -1345.3738505093875, -3508.0392370270774, -4873.619064524062, -3443.1297711288657, -2836.3022609117343, -2794.616257502587, -1779.914114465012, -8476.20618059709, -15289.3084632526, 0.0125, -0.10600000000000001, 0.9835, 192.0, 0.0, 0.0, 0.0, 0.0, 0.0, 0.0, 0.0, 0.0, 0.0, 1.645922410463252E9, 0.0, 2022-02-27 11:40:10.463
60.0, -1542.538588349651, -4092.4255958110807, -1860.6262636931258, -9534.874204978252, -45.642262177737024, 340.61823375442435, -4726.432827285866, -1303.4643296556867, -2167.2921976199386, -4801.75820610025, -3730.573204824115, -2888.404177237055, -3156.759221167472, -2056.1816759326075, -8440.398685979688, -15037.091378818915, 0.0125, -0.10600000000000001, 0.9835, 192.0, 0.0, 0.0, 0.0, 0.0, 0.0, 0.0, 0.0, 0.0, 0.0, 1.645922410471269E9, 0.0, 2022-02-27 11:40:10.471
62.0, -1020.1336169402143, -3668.792983149646, -1486.3686545334645, -9111.554516739192, 432.5956621880129, 672.1840110044493, -4541.002755284638, -1101.337504546345, -2210.1628434852178, -4415.318896212447, -3412.8431573919247, -2732.165483494459, -2823.025324705282, -1730.62851794106, -8271.084221730736, -14706.19615390255, 0.0125, -0.10600000000000001, 0.9835, 192.0, 0.0, 0.0, 0.0, 0.0, 0.0, 0.0, 0.0, 0.0, 0.0, 1.645922410478365E9, 0.0, 2022-02-27 11:40:10.478
64.0, -1571.2605799747205, -4113.346828621248, -1937.8291890417563, -9621.28604904247, -116.07260895640958, 254.58636934594745, -4850.663822968462, -1481.2948085421096, -3575.608560515471, -5192.109071267733, -3654.5102184427046, -2936.952166193982, -3012.791635130839, -2000.8164049168117, -8598.51492625653, -15537.725751128883, 0.0125, -0.10600000000000001, 0.9835, 192.0, 0.0, 0.0, 0.0, 0.0, 0.0, 0.0, 0.0, 0.0, 0.0, 1.645922410485847E9, 0.0, 2022-02-27 11:40:10.485
66.0, -1184.5083456645425, -3795.460318977871, -1615.0699991071224, -9263.322861590726, 254.54166585703683, 576.8985243914752, -4559.889979349373, -1096.911859144194, -1415.9830112437023, -4335.031430128984, -3542.7514961661695, -2750.940948836917, -2998.3524082127105, -1878.4406040240056, -8232.661573012063, -14541.933183900499, 0.01125, -0.10400000000000001, 0.98075, 192.0, 0.0, 40.0, 126.0, 104.0, 15.0, 72.0, 0.0, 0.0, 0.0, 1.645922410495353E9, 0.0, 2022-02-27 11:40:10.495
68.0, -1183.6366276307856, -3805.2280313048404, -1677.7666423042588, -9326.08656002123, 212.47568279214894, 493.6382762954565, -4728.600946498031, -1343.5633592085076, -3474.9139517443123, -4876.658901769984, -3424.9578028867013, -2816.8785949800726, -2781.4063765295004, -1778.5506580532383, -8468.248959571, -15283.74287888323, 0.01125, -0.10400000000000001, 0.98075, 192.0, 0.0, 0.0, 0.0, 0.0, 0.0, 0.0, 0.0, 0.0, 0.0, 1.645922410501959E9, 0.0, 2022-02-27 11:40:10.501
70.0, -1457.6019594194843, -4005.9243447690424, -1856.2229700354303, -9528.325143852848, -48.346823256829175, 351.6376437708907, -4717.335667292556, -1290.0532829825024, -2122.3875430092266, -4811.6153254050405, -3711.8647947150225, -2868.3323107161896, -3158.9049886351813, -2054.102963698264, -8437.872938856237, -15023.412111212268, 0.01125, -0.10400000000000001, 0.98075, 192.0, 0.0, 0.0, 0.0, 0.0, 0.0, 0.0, 0.0, 0.0, 0.0, 1.645922410508546E9, 0.0, 2022-02-27 11:40:10.508
72.0, -931.7548193639302, -3578.156659383376, -1480.8701253974589, -9101.94326662341, 432.5509586991023, 679.448327952424, -4539.572243639498, -1090.4969084855209, -2169.9520552101203, -4373.0740991919165, -3376.7450900966037, -2704.6281343255205, -2809.256650120813, -1735.0094598543, -8273.073526987258, -14705.503249824436, 0.01125, -0.10400000000000001, 0.98075, 192.0, 0.0, 0.0, 0.0, 0.0, 0.0, 0.0, 0.0, 0.0, 0.0, 1.645922410523605E9, 0.0, 2022-02-27 11:40:10.523
74.0, -1497.3880645499307, -4040.6366039081345, -1931.034258727343, -9611.831261137875, -116.34082988987326, 267.57273287448083, -4848.763924689762, -1477.964398618269, -3563.0692318760434, -5149.461942847007, -3623.418941905373, -2896.6519709410636, -3006.600201916719, -1996.7483874259458, -8600.101900112855, -15537.59164066215, 0.01125, -0.10400000000000001, 0.98075, 192.0, 0.0, 0.0, 0.0, 0.0, 0.0, 0.0, 0.0, 0.0, 0.0, 1.645922410531611E9, 0.0, 2022-02-27 11:40:10.531
76.0, -1122.3257925898781, -3723.174777409408, -1609.1691385709214, -9267.592044781692, 250.9430349997324, 561.8334486285984, -4571.110555065937, -1124.1586356352134, -1383.349464338954, -4304.543650691945, -3522.9478505787674, -2726.0411055137047, -2998.844146590727, -1866.9294556295224, -8233.220366623445, -14546.604698491657, 0.012625, -0.10300000000000001, 0.983375, 192.0, 0.0, 56.0, 126.0, 104.0, 15.0, 104.0, 0.0, 0.0, 0.0, 1.645922410538191E9, 0.0, 2022-02-27 11:40:10.538
78.0, -1112.714542474096, -3726.3487251220618, -1661.1369444295103, -9313.79310057081, 216.4542933051936, 489.3020378711269, -4731.976059910781, -1344.5021324756303, -3429.897538411324, -4830.904880869971, -3399.029779318545, -2791.710530723397, -2778.3665392835783, -1791.4252628594952, -8464.158590335679, -15279.518399181175, 0.012625, -0.10300000000000001, 0.983375, 192.0, 0.0, 0.0, 0.0, 0.0, 0.0, 0.0, 0.0, 0.0, 0.0, 1.645922410546126E9, 0.0, 2022-02-27 11:40:10.546
80.0, -1411.7361797971942, -3952.59308249868, -1853.0937258116874, -9525.866451962764, -51.83369539185708, 351.2576641151505, -4738.4133623139105, -1303.5090331445972, -2139.196054839618, -4798.204278731857, -3700.554812020637, -2850.607377363131, -3156.781572911927, -2065.167077203641, -8445.830159882327, -15040.175919553749, 0.012625, -0.10300000000000001, 0.983375, 192.0, 0.0, 0.0, 0.0, 0.0, 0.0, 0.0, 0.0, 0.0, 0.0, 1.64592241055409E9, 0.0, 2022-02-27 11:40:10.554
82.0, -887.8783449981624, -3533.5872809394937, -1473.9410846163137, -9098.501097977292, 424.9290138398426, 678.5319064297565, -4544.288461719569, -1090.7651294189848, -2120.644106941713, -4358.232540873592, -3362.127049222833, -2680.644712524976, -2809.949554198927, -1737.1999308109203, -8269.251378685402, -14698.373043343192, 0.012625, -0.10300000000000001, 0.983375, 192.0, 0.0, 0.0, 0.0, 0.0, 0.0, 0.0, 0.0, 0.0, 0.0, 1.645922410560656E9, 0.0, 2022-02-27 11:40:10.560
84.0, -1454.0703837955457, -3995.955466741975, -1927.2568139143962, -9602.979970333574, -126.80144629495696, 268.1538782303188, -4859.470410283853, -1481.3842155199309, -3555.1790660833203, -5140.878872976169, -3605.0681597075654, -2879.7987556217618, -2999.492347179931, -1976.4753552049824, -8601.867687924825, -15538.776283118283, 0.012625, -0.10300000000000001, 0.983375, 192.0, 0.0, 0.0, 0.0, 0.0, 0.0, 0.0, 0.0, 0.0, 0.0, 1.645922410568906E9, 0.0, 2022-02-27 11:40:10.568
86.0, -1100.3540277903114, -3696.4867945297715, -1621.015563132234, -9259.321899333227, 231.31820336797279, 567.0414050866849, -4577.369043513423, -1102.9244784026716, -1371.771260711105, -4309.796310638942, -3518.544556921072, -2712.7865210517075, -3003.6050681597076, -1875.9148569005558, -8238.58478529272, -14543.095474612175, 0.0123125, -0.10450000000000001, 0.9856875, 192.0, 0.0, 48.0, 126.0, 88.0, 15.0, 112.0, 0.0, 0.0, 0.0, 1.645922410575769E9, 0.0, 2022-02-27 11:40:10.575
88.0, -1093.492042242532, -3706.5450795346596, -1661.4722205963399, -9304.360664410671, 213.6379735038249, 499.02504670918546, -4745.543568795153, -1353.5545889800298, -3405.3329712549416, -4805.781520102206, -3393.419491460263, -2768.889399634528, -2780.5346584957433, -1761.8315532006686, -8467.24313107051, -15264.162750740381, 0.0123125, -0.10450000000000001, 0.9856875, 192.0, 0.0, 0.0, 0.0, 0.0, 0.0, 0.0, 0.0, 0.0, 0.0, 1.645922410583685E9, 0.0, 2022-02-27 11:40:10.583
90.0, -1419.0675519785348, -3962.8301814592105, -1853.9877955898996, -9527.45342581909, -51.23019829156379, 350.20713212575106, -4733.5406820226535, -1313.321448960477, -2145.4992467760144, -4797.243153720278, -3698.565506764115, -2844.9970895048486, -3154.0546600883795, -2052.6277485642136, -8448.802941894883, -15044.35569576689, 0.0123125, -0.10450000000000001, 0.9856875, 192.0, 0.0, 0.0, 0.0, 0.0, 0.0, 0.0, 0.0, 0.0, 0.0, 1.645922410590288E9, 0.0, 2022-02-27 11:40:10.590
92.0, -925.4292756830783, -3566.4890487777056, -1478.925523629847, -9099.775147411245, 427.92414759685374, 683.8963250990302, -4548.334127465979, -1089.1781555626578, -2129.115418090274, -4362.166447897726, -3369.7266423376373, -2691.127680674515, -2810.3965890880336, -1742.0726111021772, -8269.810172296784, -14695.556723541824, 0.0123125, -0.10450000000000001, 0.9856875, 192.0, 0.0, 0.0, 0.0, 0.0, 0.0, 0.0, 0.0, 0.0, 0.0, 1.645922410598489E9, 0.0, 2022-02-27 11:40:10.598
94.0, -1528.7699137651819, -4061.9154646295865, -1931.0789622162538, -9604.768109889998, -115.60322232284813, 269.6067416199138, -4847.57928223363, -1478.925523629847, -3586.0691769205546, -5153.149980682133, -3625.341191928529, -2893.6791889285078, -3004.655600149107, -1987.807689643823, -8605.08633912639, -15541.369085475098, 0.0123125, -0.10450000000000001, 0.9856875, 192.0, 0.0, 0.0, 0.0, 0.0, 0.0, 0.0, 0.0, 0.0, 0.0, 1.645922410606516E9, 0.0, 2022-02-27 11:40:10.606
96.0, -1214.4373314901986, -3799.1483568129966, -1622.8931096664799, -9271.794172739288, 242.51642734008163, 565.7897073971877, -4560.962863083228, -1110.4793680285654, -1407.6905140507836, -4336.081962118383, -3550.708717192259, -2733.6183468840536, -3012.3669519861883, -1881.4357377810168, -8236.036686424815, -14549.957460159954, 0.01415625, -0.10525000000000001, 0.98684375, 192.0, 0.0, 64.0, 126.0, 88.0, 15.0, 112.0, 0.0, 0.0, 0.0, 1.645922410613382E9, 0.0, 2022-02-27 11:40:10.613
98.0, -1224.0262298615253, -3835.4699415528708, -1650.0951826685887, -9308.048702245796, 242.27055815107326, 518.4040091519367, -4713.044132357137, -1338.422457983787, -3431.328050056464, -4835.91167162796, -3422.186186574243, -2793.3645598130897, -2778.5230014947656, -1776.717815007903, -8456.044907098401, -15263.983936784738, 0.01415625, -0.10525000000000001, 0.98684375, 192.0, 0.0, 0.0, 0.0, 0.0, 0.0, 0.0, 0.0, 0.0, 0.0, 1.645922410621127E9, 0.0, 2022-02-27 11:40:10.621
100.0, -1583.375225469497, -4123.449817115047, -1864.5825224617151, -9549.626356318755, -50.53729421344927, 360.26541713063926, -4741.050868159637, -1300.5362511320413, -2237.8790066097986, -4865.684195242428, -3741.078524718109, -2886.146651047069, -3159.5308374799297, -2064.1388969586965, -8449.853473884283, -15068.964966412184, 0.01415625, -0.10525000000000001, 0.98684375, 192.0, 0.0, 0.0, 0.0, 0.0, 0.0, 0.0, 0.0, 0.0, 0.0, 1.645922410629161E9, 0.0, 2022-02-27 11:40:10.629
102.0, -1047.268634708957, -3695.3245038180953, -1473.963436360769, -9109.207583571386, 418.87169109245434, 666.5960748906225, -4554.324394980001, -1117.1178361317916, -2135.128037348752, -4397.817480303941, -3412.731398669648, -2722.2636607007576, -2821.125426426581, -1753.9413874079453, -8269.273730429857, -14693.478011307481, 0.01415625, -0.10525000000000001, 0.98684375, 192.0, 0.0, 0.0, 0.0, 0.0, 0.0, 0.0, 0.0, 0.0, 0.0, 1.645922410636177E9, 0.0, 2022-02-27 11:40:10.636
104.0, -1609.0797315931002, -4153.6023203852565, -1928.1732354370638, -9607.226801780082, -114.64209731126992, 268.71267184170154, -4858.732802716828, -1457.870180352948, -3612.086607466532, -5192.1537747566435, -3642.4626281812943, -2919.383695052111, -2997.435986690043, -1981.39273898515, -8608.506156028052, -15542.464320953408, 0.01415625, -0.10525000000000001, 0.98684375, 192.0, 0.0, 0.0, 0.0, 0.0, 0.0, 0.0, 0.0, 0.0, 0.0, 1.64592241065071E9, 0.0, 2022-02-27 11:40:10.650
106.0, -1251.585930774919, -3846.9587382028985, -1626.603499246061, -9272.822352984233, 230.15591265629683, 567.9578266093524, -4573.457488233744, -1094.3190567873785, -1417.5029298666634, -4362.2782066200025, -3566.7796214556247, -2750.4268587144447, -3012.9704490864815, -1871.779784176324, -8244.552701062286, -14543.698971712467, 0.014078125, -0.106625, 0.988421875, 192.0, 0.0, 56.0, 126.0, 80.0, 15.0, 120.0, 0.0, 0.0, 0.0, 1.64592241065881E9, 0.0, 2022-02-27 11:40:10.658
108.0, -1198.0311510600031, -3820.404865789994, -1650.4081070909629, -9296.135222451117, 228.23366263314043, 501.08140719907374, -4735.150007623435, -1343.0045655971248, -3417.8275964054583, -4837.520997228742, -3424.8460441644247, -2798.192536615436, -2778.83592591714, -1774.6838062624702, -8461.632843212228, -15249.58941335552, 0.014078125, -0.106625, 0.988421875, 192.0, 0.0, 0.0, 0.0, 0.0, 0.0, 0.0, 0.0, 0.0, 0.0, 1.645922410665641E9, 0.0, 2022-02-27 11:40:10.665
110.0, -1514.7106665027936, -4061.937816374042, -1858.2793305253185, -9538.383428857736, -66.02705312097706, 340.7523442211562, -4741.2967373486445, -1309.5887076364409, -2203.3902649152596, -4844.047706609691, -3726.1028559330534, -2873.4285084519993, -3153.9205496216478, -2065.7258708150234, -8459.464724000063, -15066.59568149992, 0.014078125, -0.106625, 0.988421875, 192.0, 0.0, 0.0, 0.0, 0.0, 0.0, 0.0, 0.0, 0.0, 0.0, 1.645922410673349E9, 0.0, 2022-02-27 11:40:10.673
112.0, -969.4175087711226, -3615.4170173903726, -1471.705910170783, -9103.284371290729, 429.1981970308062, 673.4133569494912, -4546.277766976091, -1095.0343126099483, -2111.3457812483052, -4379.600808572866, -3395.76642462807, -2703.86817501404, -2817.504443824821, -1745.7382971928475, -8263.171704193557, -14691.33224383977, 0.014078125, -0.106625, 0.988421875, 192.0, 0.0, 0.0, 0.0, 0.0, 0.0, 0.0, 0.0, 0.0, 0.0, 1.645922410681395E9, 0.0, 2022-02-27 11:40:10.681
114.0, -1506.3734658209642, -4052.5947871917238, -1915.6562585420918, -9594.75452837402, -101.2757541269963, 263.2588461946066, -4847.914558400459, -1485.407529521886, -3591.8806304789346, -5155.899245250135, -3614.85822377899, -2884.3808632350997, -2983.2873324498337, -1968.3840237121613, -8602.22531583611, -15548.678105911984, 0.014078125, -0.106625, 0.988421875, 192.0, 0.0, 0.0, 0.0, 0.0, 0.0, 0.0, 0.0, 0.0, 0.0, 1.645922410689255E9, 0.0, 2022-02-27 11:40:10.689
116.0, -1170.0467670019589, -3767.654748875469, -1628.0116591467452, -9276.957425708464, 234.67096503626885, 547.5283321772018, -4571.915217866328, -1114.659144241708, -1379.8178887150157, -4333.66797371721, -3543.51145547765, -2718.0838844876153, -3008.4330449620543, -1884.9226099160446, -8242.697506272496, -14558.764047475344, 0.014, -0.108, 0.986, 192.0, 0.0, 56.0, 126.0, 80.0, 15.0, 104.0, 0.0, 0.0, 0.0, 1.645922410695855E9, 0.0, 2022-02-27 11:40:10.695
118.0, -1110.6581819842079, -3736.988155482788, -1641.4450575643848, -9290.88256250412, 250.56305534399218, 506.490529357258, -4724.756446451717, -1319.1552542633121, -3377.3932906858076, -4815.482177195809, -3404.573011943461, -2773.2703415477686, -2779.3947195285227, -1779.4447278314506, -8463.577444979841, -15247.264831932169, 0.014, -0.108, 0.986, 192.0, 0.0, 0.0, 0.0, 0.0, 0.0, 0.0, 0.0, 0.0, 0.0, 1.645922410702807E9, 0.0, 2022-02-27 11:40:10.702
120.0, -1448.1024680259786, -3994.4131963745594, -1862.2132375494525, -9546.720629539566, -66.18351533216422, 329.57647199350265, -4742.5260832936865, -1323.0891612874464, -2228.357163471838, -4846.215825821856, -3705.852175456545, -2854.51893264281, -3143.2587675164664, -2052.605396819758, -8455.284947786922, -15084.633539275354, 0.014, -0.108, 0.986, 192.0, 0.0, 0.0, 0.0, 0.0, 0.0, 0.0, 0.0, 0.0, 0.0, 1.645922410711064E9, 0.0, 2022-02-27 11:40:10.711
122.0, -910.0736272422823, -3558.598882984982, -1474.4998782276964, -9106.637132959024, 436.0825343230408, 663.936217300441, -4549.027031544093, -1085.333655516345, -2045.2293211495069, -4348.1295523797935, -3377.3485871968974, -2685.4726893273223, -2814.1740339009802, -1742.0502593577219, -8256.801457023796, -14669.494589506936, 0.014, -0.108, 0.986, 192.0, 0.0, 0.0, 0.0, 0.0, 0.0, 0.0, 0.0, 0.0, 0.0, 1.645922410718931E9, 0.0, 2022-02-27 11:40:10.718
124.0, -1446.7390116142049, -3997.162460942562, -1912.1246829181532, -9588.18311550416, -105.25436464004096, 254.7875350460452, -4857.346994560599, -1488.0450353676124, -3599.1672991713644, -5149.841922502747, -3597.535621826127, -2879.5305346882983, -2976.6488643466073, -1999.8105764163229, -8599.408996034741, -15546.711152399917, 0.014, -0.108, 0.986, 192.0, 0.0, 0.0, 0.0, 0.0, 0.0, 0.0, 0.0, 0.0, 0.0, 1.645922410725565E9, 0.0, 2022-02-27 11:40:10.725
126.0, -1123.6668972571968, -3716.5139575617263, -1632.9960981602787, -9277.113887919651, 211.9839444141322, 531.9491662918527, -4585.259209306146, -1111.3510860623226, -1373.067661889513, -4338.540654008467, -3538.0129263416443, -2714.6864193304086, -3018.245460777934, -1909.8895084726225, -8248.151331919591, -14564.55314928927, 0.012, -0.106, 0.986, 192.0, 0.0, 48.0, 126.0, 88.0, 15.0, 104.0, 0.0, 0.0, 0.0, 1.645922410733571E9, 0.0, 2022-02-27 11:40:10.733
128.0, -1073.4872309550324, -3697.649085241447, -1649.536389057206, -9294.727062550433, 222.31045035248405, 487.6256570369789, -4735.865263446005, -1335.5614346935076, -3347.1066769488666, -4790.023540261214, -3388.591514657917, -2762.07211757566, -2775.125536337559, -1788.273666891297, -8454.145008819702, -15237.318305649556, 0.012, -0.106, 0.986, 192.0, 0.0, 0.0, 0.0, 0.0, 0.0, 0.0, 0.0, 0.0, 0.0, 1.6459224107417E9, 0.0, 2022-02-27 11:40:10.741
130.0, -1412.2279181752108, -3956.549341267269, -1873.299702799285, -9552.308565653393, -80.86861143930095, 308.3870182498715, -4765.3248626381, -1336.0755248159796, -2201.4680148921034, -4837.319831528644, -3704.9357539338775, -2855.99414777686, -3156.1557240671787, -2080.8803535557217, -8463.935072891125, -15084.812353230996, 0.012, -0.106, 0.986, 192.0, 0.0, 0.0, 0.0, 0.0, 0.0, 0.0, 0.0, 0.0, 0.0, 1.645922410748782E9, 0.0, 2022-02-27 11:40:10.748
132.0, -881.6198565506764, -3530.7933128825803, -1485.6757504553498, -9112.113310350574, 416.4129992023706, 656.5377898857344, -4557.453639203744, -1097.3141905443897, -2052.4265828641155, -4347.90603493524, -3375.7616133405704, -2690.099500429571, -2823.092379938648, -1784.1832976559756, -8268.670233329563, -14682.682118735567, 0.012, -0.106, 0.986, 192.0, 0.0, 0.0, 0.0, 0.0, 0.0, 0.0, 0.0, 0.0, 0.0, 1.645922410756362E9, 0.0, 2022-02-27 11:40:10.756
134.0, -1428.097656738479, -3983.5949520581908, -1928.7320290484465, -9605.304551756924, -109.72471353110237, 238.9401482272325, -4877.888247715026, -1499.3103145730872, -3606.923354497356, -5157.039184217356, -3600.3966451164065, -2887.2642382698346, -2989.21054473049, -2006.0467131193536, -8611.166013618233, -15559.719867672906, 0.012, -0.106, 0.986, 192.0, 0.0, 0.0, 0.0, 0.0, 0.0, 0.0, 0.0, 0.0, 0.0, 1.645922410771288E9, 0.0, 2022-02-27 11:40:10.771
136.0, -1096.8671556552836, -3701.4041783099387, -1635.4771417948177, -9286.523972335335, 221.8634154633779, 543.9297013198974, -4589.103709352459, -1122.4375513121547, -1350.2018273117337, -4337.646584230254, -3532.156769294354, -2720.8555008000735, -3011.4505304635204, -1914.6057265526924, -8248.687773786518, -14561.759181232355, 0.016, -0.106, 0.988, 192.0, 0.0, 64.0, 126.0, 88.0, 15.0, 112.0, 0.0, 0.0, 0.0, 1.645922410778244E9, 0.0, 2022-02-27 11:40:10.778
138.0, -1032.7400008130076, -3664.456744725316, -1636.661784250949, -9286.479268846426, 256.8885990248441, 499.27091589819383, -4736.044077401648, -1332.4545422142198, -3329.717019762638, -4787.117813482024, -3379.3602441978746, -2764.776678654752, -2763.1450013095146, -1788.273666891297, -8448.110037816768, -15235.954849237783, 0.016, -0.106, 0.988, 192.0, 0.0, 0.0, 0.0, 0.0, 0.0, 0.0, 0.0, 0.0, 0.0, 1.645922410785758E9, 0.0, 2022-02-27 11:40:10.785
140.0, -1398.3251331240099, -3948.9497481524645, -1874.6631592110587, -9554.499036610012, -67.97165488858877, 315.0031346086424, -4741.252033859734, -1320.7645798640942, -2231.1958350176615, -4848.763924689762, -3700.7112742318245, -2853.1107727421254, -3144.9351483506143, -2083.808432079367, -8462.616319968261, -15096.994053959139, 0.016, -0.106, 0.988, 192.0, 0.0, 0.0, 0.0, 0.0, 0.0, 0.0, 0.0, 0.0, 0.0, 1.645922410793915E9, 0.0, 2022-02-27 11:40:10.793
142.0, -859.379870817646, -3517.225803998209, -1482.6806166983388, -9109.095824849108, 434.2496912777056, 665.3667289455807, -4546.702450120742, -1088.1946788066243, -2015.7026667240461, -4338.3841917972795, -3367.9608545256683, -2682.030520681205, -2809.4801675653657, -1771.4875068053614, -8253.202826166491, -14666.99119412794, 0.016, -0.106, 0.988, 192.0, 0.0, 0.0, 0.0, 0.0, 0.0, 0.0, 0.0, 0.0, 0.0, 1.645922410801835E9, 0.0, 2022-02-27 11:40:10.801
144.0, -1407.9140314953365, -3966.3394053386937, -1926.1839301805414, -9605.483365712567, -98.79471049245721, 252.10532571140837, -4878.178820392945, -1501.2102128517884, -3606.565726586071, -5154.334623138264, -3586.8514879764903, -2885.5878574356866, -2973.8995997786046, -2003.2527450624402, -8604.549897259461, -15560.390420006564, 0.016, -0.106, 0.988, 192.0, 0.0, 0.0, 0.0, 0.0, 0.0, 0.0, 0.0, 0.0, 0.0, 1.645922410808392E9, 0.0, 2022-02-27 11:40:10.808
146.0, -1086.3841875057444, -3691.211782838319, -1640.3945255749854, -9289.675568303534, 210.91106068027744, 533.2232157258053, -4593.618761732431, -1121.4540745561212, -1340.7470394071388, -4321.374514266791, -3525.965336080234, -2712.540651862699, -3011.495233952431, -1924.1499214351086, -8252.576977321742, -14569.35877434716, 0.014, -0.106, 0.99, 192.0, 0.0, 56.0, 126.0, 88.0, 15.0, 120.0, 0.0, 0.0, 0.0, 1.64592241081662E9, 0.0, 2022-02-27 11:40:10.816
148.0, -1018.5466430838875, -3651.716250385791, -1643.0320314207115, -9284.020576956342, 262.05185199402, 500.5673170766017, -4733.607737256019, -1328.2747660010775, -3312.4391212986857, -4774.757298798239, -3371.71594759416, -2758.540541951721, -2765.000196099305, -1801.1259199530984, -8451.373392507243, -15231.193927668803, 0.014, -0.106, 0.99, 192.0, 0.0, 0.0, 0.0, 0.0, 0.0, 0.0, 0.0, 0.0, 0.0, 1.645922410823566E9, 0.0, 2022-02-27 11:40:10.823
150.0, -1381.091938148968, -3926.0615618302304, -1882.4639180259608, -9553.202635431604, -41.55189294241583, 317.662992198824, -4752.293795620656, -1336.768428894094, -2229.385343716782, -4841.566662975152, -3691.3458933050506, -2844.2594819378237, -3152.2888722764105, -2098.1806037641295, -8474.10511661829, -15101.620865061388, 0.014, -0.106, 0.99, 192.0, 0.0, 0.0, 0.0, 0.0, 0.0, 0.0, 0.0, 0.0, 0.0, 1.645922410830553E9, 0.0, 2022-02-27 11:40:10.830
152.0, -850.2827108243359, -3504.93234454779, -1487.0168551226682, -9106.525374236748, 416.0330195466304, 652.4474206504132, -4565.410860229834, -1101.9633533910935, -2014.2050998455406, -4331.410447527224, -3364.6304446018275, -2677.3143026011353, -2814.799882745729, -1766.748936980836, -8262.009413481881, -14672.109743608207, 0.014, -0.106, 0.99, 192.0, 0.0, 0.0, 0.0, 0.0, 0.0, 0.0, 0.0, 0.0, 0.0, 1.645922410838179E9, 0.0, 2022-02-27 11:40:10.838
154.0, -1389.2056213862445, -3946.1781318400067, -1925.200453424508, -9596.475612697079, -116.89962350125593, 249.55722684350334, -4888.6841402869395, -1507.6475152549167, -3618.3227441695626, -5146.511512578906, -3582.0682146630547, -2878.0776712987035, -2975.9336085240375, -1983.3149890083064, -8608.483804283596, -15563.921995630502, 0.014, -0.106, 0.99, 192.0, 0.0, 0.0, 0.0, 0.0, 0.0, 0.0, 0.0, 0.0, 0.0, 1.645922410846073E9, 0.0, 2022-02-27 11:40:10.846
156.0, -1090.139280574236, -3692.01644563871, -1652.5762263031277, -9296.179925940029, 195.9353918952217, 519.3204306746043, -4604.749930471174, -1131.3558973498223, -1356.9073506483257, -4340.373497053802, -3533.0061355836556, -2717.167462964948, -3021.3523532572217, -1929.6931540600247, -8259.371907636156, -14580.087611685707, 0.016, -0.106, 0.992, 192.0, 0.0, 64.0, 126.0, 88.0, 15.5, 0.0, 0.0, 0.0, 0.0, 1.645922410854143E9, 0.0, 2022-02-27 11:40:10.854
158.0, -1008.3542476122675, -3639.020459535177, -1640.5062842972618, -9274.252864629372, 250.11602045488604, 497.92981123087543, -4723.974135395782, -1328.900614845826, -3287.9863128645798, -4763.804944015139, -3366.485639391618, -2745.3306609786346, -2769.0682135901707, -1795.6050390726375, -8450.524026217941, -15218.408729840367, 0.016, -0.106, 0.992, 192.0, 0.0, 0.0, 0.0, 0.0, 0.0, 0.0, 0.0, 0.0, 0.0, 1.64592241086078E9, 0.0, 2022-02-27 11:40:10.860
160.0, -1389.0491591750574, -3938.6679457030236, -1888.0965576286983, -9561.003394246507, -95.39724533525055, 297.0323320665756, -4773.103269708547, -1356.4379640147645, -2293.758367748066, -4855.6929654709065, -3690.854154927034, -2843.924205770994, -3157.2509595454885, -2107.4118742241712, -8484.342215578821, -15135.595516633453, 0.016, -0.106, 0.992, 192.0, 0.0, 0.0, 0.0, 0.0, 0.0, 0.0, 0.0, 0.0, 0.0, 1.645922410868713E9, 0.0, 2022-02-27 11:40:10.868
162.0, -851.4002980471013, -3504.9099928033347, -1486.927448144847, -9109.453452760394, 420.9504033267979, 652.2462549503153, -4556.38075546989, -1098.4094260226996, -1965.0536137883205, -4322.827377656386, -3361.1435724667995, -2668.7535844747526, -2829.9990689753377, -1789.59241981416, -8261.048288470303, -14659.771580668878, 0.016, -0.106, 0.992, 192.0, 0.0, 0.0, 0.0, 0.0, 0.0, 0.0, 0.0, 0.0, 0.0, 1.645922410876765E9, 0.0, 2022-02-27 11:40:10.876
164.0, -1394.9500197112584, -3956.0799546337075, -1923.7028865460024, -9597.548496430934, -117.12314094580901, 231.3852586013387, -4881.486878572331, -1502.0372273966345, -3621.2955261821185, -5135.335640351253, -3573.7757174701355, -2875.641331153075, -2977.6770445915517, -2007.8795561646887, -8608.886135683792, -15562.424428751998, 0.016, -0.106, 0.992, 192.0, 0.0, 0.0, 0.0, 0.0, 0.0, 0.0, 0.0, 0.0, 0.0, 1.645922410883897E9, 0.0, 2022-02-27 11:40:10.883
166.0, -1078.8740013687614, -3682.338140289562, -1643.3226040986306, -9286.591027568702, 211.02281940255398, 522.5167301317132, -4606.381607816411, -1133.4793130730764, -1348.7042604332282, -4341.625194743299, -3525.406542468851, -2718.508567632266, -3023.296955024833, -1926.6980203030134, -8255.460352356477, -14572.443315081993, 0.012, -0.11, 0.99, 192.0, 0.0, 48.0, 126.0, 72.0, 15.0, 120.0, 0.0, 0.0, 0.0, 1.645922410898406E9, 0.0, 2022-02-27 11:40:10.898
168.0, -1000.8664132197397, -3630.504444897705, -1635.9465284283792, -9271.16832389454, 248.57375008746985, 503.361285133515, -4731.797245955139, -1341.484646974164, -3284.7006064296493, -4750.41624908641, -3357.8802177763246, -2745.0400883007155, -2766.1624868109807, -1797.7284547958918, -8451.328689018332, -15226.142433421903, 0.012, -0.11, 0.99, 192.0, 0.0, 0.0, 0.0, 0.0, 0.0, 0.0, 0.0, 0.0, 0.0, 1.645922410906819E9, 0.0, 2022-02-27 11:40:10.906
170.0, -1373.2241241007, -3923.0887798176745, -1881.525144758838, -9557.963557000585, -85.00368416353275, 298.4181402228046, -4751.980871198281, -1342.3563650079209, -2266.600998234868, -4841.834883908616, -3684.4392042683608, -2841.3984586475444, -3154.9487298665917, -2095.4983944294922, -8476.541456763918, -15125.827804306486, 0.012, -0.11, 0.99, 192.0, 0.0, 0.0, 0.0, 0.0, 0.0, 0.0, 0.0, 0.0, 0.0, 1.645922410913091E9, 0.0, 2022-02-27 11:40:10.913
172.0, -839.4197630190567, -3491.5883531079717, -1480.2889800416208, -9104.491365491314, 414.624859645946, 646.8147810476758, -4556.067831047515, -1092.4191585086774, -1967.355843467217, -4300.430929712168, -3351.3088049064645, -2666.8760379405066, -2824.0982084391367, -1779.6458935315484, -8258.20961692448, -14662.967880125987, 0.012, -0.11, 0.99, 192.0, 0.0, 0.0, 0.0, 0.0, 0.0, 0.0, 0.0, 0.0, 0.0, 1.645922410921108E9, 0.0, 2022-02-27 11:40:10.921
174.0, -1388.9597521972362, -3955.3423470666826, -1920.4395318555275, -9595.38037721877, -107.46718734111636, 240.57182557246992, -4879.341111104621, -1506.5299280321512, -3629.7221338417694, -5144.54455906684, -3563.2256940872307, -2869.3381392166784, -2972.782012555839, -1993.1497565686414, -8611.680103740706, -15569.241710810866, 0.012, -0.11, 0.99, 192.0, 0.0, 0.0, 0.0, 0.0, 0.0, 0.0, 0.0, 0.0, 0.0, 1.645922410929168E9, 0.0, 2022-02-27 11:40:10.929
176.0, -1083.8137368933842, -3686.2943990581516, -1649.022298934734, -9296.358739895672, 209.03351414603165, 512.9278317603864, -4609.622610762431, -1153.4394208716656, -1351.677042445784, -4347.928386679696, -3526.9041093473566, -2720.5649281221545, -3035.4786557529756, -1943.2830146888514, -8266.25624492839, -14587.351928633683, 0.01, -0.106, 0.992, 192.0, 0.0, 40.0, 126.0, 88.0, 15.5, 0.0, 0.0, 0.0, 0.0, 1.645922410936237E9, 0.0, 2022-02-27 11:40:10.936
178.0, -985.1084333787481, -3617.1604534578864, -1626.402333545963, -9265.222759869428, 263.54941887252556, 506.89286075745355, -4734.121827378492, -1328.0512485565243, -3255.5092281710185, -4731.5513767661305, -3352.0911159624, -2735.9876317963162, -2770.3646147685786, -1786.2843616347745, -8453.921491375148, -15216.687645517308, 0.01, -0.106, 0.992, 192.0, 0.0, 0.0, 0.0, 0.0, 0.0, 0.0, 0.0, 0.0, 0.0, 1.645922410943764E9, 0.0, 2022-02-27 11:40:10.943
180.0, -1381.8966009493593, -3931.3365735216826, -1886.8895634281116, -9562.970347758574, -113.79273102196825, 277.407500434816, -4772.298606908155, -1337.4389812277534, -2312.824405768443, -4858.822209694649, -3680.4829454997716, -2845.511179627321, -3154.9040263776815, -2102.002752065987, -8492.187677882634, -15153.365153475423, 0.01, -0.106, 0.992, 192.0, 0.0, 0.0, 0.0, 0.0, 0.0, 0.0, 0.0, 0.0, 0.0, 1.645922410950801E9, 0.0, 2022-02-27 11:40:10.950
182.0, -835.508207739378, -3485.64278908286, -1481.1159945864672, -9106.234801558829, 408.433426431826, 649.8546182935976, -4564.472086962711, -1090.9662951190824, -1932.8894535171335, -4302.152014035227, -3358.99780499909, -2666.4737065403115, -2834.8717492665946, -1772.9403701949561, -8266.122134461659, -14650.942641609032, 0.01, -0.106, 0.992, 192.0, 0.0, 0.0, 0.0, 0.0, 0.0, 0.0, 0.0, 0.0, 0.0, 1.645922410958774E9, 0.0, 2022-02-27 11:40:10.958
184.0, -1363.0540803735353, -3922.708800161934, -1909.4424735835164, -9584.383318946759, -121.8617107703341, 236.95084297071017, -4887.074814686157, -1503.4006838084083, -3622.0107820046883, -5123.958602423501, -3556.117839350443, -2862.096174013159, -2968.0657944757695, -1988.5900006997588, -8614.786996219993, -15563.2737950413, 0.009000000000000001, -0.10500000000000001, 0.992, 192.0, 0.0, 32.0, 126.0, 96.0, 15.5, 0.0, 0.0, 0.0, 0.0, 1.645922410965808E9, 0.0, 2022-02-27 11:40:10.965
186.0, -1074.3142454998786, -3677.152535575931, -1643.4567145653623, -9293.900048005587, 181.76438591055702, 498.5109565867134, -4613.355352086467, -1149.6172725698082, -1328.8559113569154, -4331.924537649696, -3514.6553533858482, -2706.9303640044172, -3029.3319260277663, -1936.6445465856252, -8264.132829205135, -14586.83783851121, 0.009000000000000001, -0.10500000000000001, 0.992, 192.0, 0.0, 0.0, 0.0, 0.0, 0.0, 0.0, 0.0, 0.0, 0.0, 1.645922410973392E9, 0.0, 2022-02-27 11:40:10.973
188.0, -974.759575695941, -3614.2323749342413, -1617.0816561081, -9257.757277221355, 245.2656919080844, 499.82970950957656, -4721.493091761243, -1319.1552542633121, -3235.59382386134, -4725.583460996564, -3347.218435671143, -2726.7116578473638, -2768.196495556414, -1791.6711320485035, -8447.305375016376, -15204.528296533621, 0.009000000000000001, -0.10500000000000001, 0.992, 192.0, 0.0, 0.0, 0.0, 0.0, 0.0, 0.0, 0.0, 0.0, 0.0, 1.645922410981414E9, 0.0, 2022-02-27 11:40:10.981
190.0, -1381.360159082432, -3932.387105511082, -1879.6475982245922, -9560.869283779775, -98.1018064143427, 287.3540267174276, -4775.561961598631, -1347.4302109992757, -2306.3423998764038, -4857.525808516241, -3682.047567611643, -2840.4373336359663, -3159.1285060797345, -2094.581972906825, -8493.886410461237, -15143.262164981625, 0.009000000000000001, -0.10500000000000001, 0.992, 192.0, 0.0, 0.0, 0.0, 0.0, 0.0, 0.0, 0.0, 0.0, 0.0, 1.645922410989523E9, 0.0, 2022-02-27 11:40:10.989
192.0, -861.4809347964448, -3512.21901324022, -1476.1092038284785, -9106.480670747838, 410.7803595996332, 644.5572548576897, -4568.5401044535765, -1103.1703475916802, -1943.417125155583, -4302.263772757504, -3357.299072420487, -2665.5349332731885, -2833.217720176902, -1779.623541787093, -8267.105611217692, -14654.8094933998, 0.009000000000000001, -0.10500000000000001, 0.992, 192.0, 0.0, 0.0, 0.0, 0.0, 0.0, 0.0, 0.0, 0.0, 0.0, 1.645922410996018E9, 0.0, 2022-02-27 11:40:10.996
194.0, -1417.547633355574, -3977.5376293108025, -1909.397770094606, -9589.591275404844, -101.9239547162002, 240.72828778365707, -4881.911561716982, -1517.7058002598048, -3647.827046850568, -5132.139340894144, -3564.0303568876216, -2869.0699182832145, -2971.3291491662444, -1984.5666866978036, -8616.910411943247, -15566.738315431872, 0.0105, -0.10650000000000001, 0.991, 192.0, 0.0, 48.0, 126.0, 80.0, 15.0, 120.0, 0.0, 0.0, 0.0, 1.645922411004082E9, 0.0, 2022-02-27 11:40:11.004
196.0, -1170.1808774686906, -3765.4419261743938, -1653.6938135258931, -9306.819356300755, 189.34162728090612, 504.009485722719, -4610.6284392629195, -1136.720316019096, -1367.837353686971, -4355.930311194696, -3548.898225891379, -2732.165483494459, -3040.8654261667048, -1938.2091686974966, -8264.959843749983, -14587.17311467804, 0.0105, -0.10650000000000001, 0.991, 192.0, 0.0, 0.0, 0.0, 0.0, 0.0, 0.0, 0.0, 0.0, 0.0, 1.64592241101895E9, 0.0, 2022-02-27 11:40:11.018
198.0, -1091.368626519278, -3721.9230797199107, -1623.6083654890497, -9265.625091269623, 290.4832709411706, 496.5216513301911, -4721.023705127681, -1323.1338647763569, -3269.434364966675, -4754.126638665991, -3387.2057065016875, -2768.934103123439, -2780.579361984654, -1795.7391495393695, -8448.199444794589, -15197.040462141093, 0.0105, -0.10650000000000001, 0.991, 192.0, 0.0, 0.0, 0.0, 0.0, 0.0, 0.0, 0.0, 0.0, 0.0, 1.64592241102569E9, 0.0, 2022-02-27 11:40:11.025
200.0, -1518.1081316600005, -4060.2837872843493, -1891.0469878967988, -9576.426097920668, -109.45649259763869, 281.45316618122655, -4776.813659288127, -1353.3757750243874, -2386.004017115118, -4906.721998062372, -3725.8346349995895, -2886.213706280435, -3170.840820174315, -2101.1980892655956, -8497.797965740916, -15160.227139023202, 0.0105, -0.10650000000000001, 0.991, 192.0, 0.0, 0.0, 0.0, 0.0, 0.0, 0.0, 0.0, 0.0, 0.0, 1.645922411033726E9, 0.0, 2022-02-27 11:40:11.033
202.0, -990.0034654144604, -3633.633689121448, -1483.3511690319979, -9119.399979043004, 404.6559816188791, 639.5728158441563, -4557.163066525825, -1090.206335807602, -1971.7591371249125, -4339.255909831037, -3400.8626223638803, -2707.8467855270846, -2838.8056562907286, -1783.2221726443975, -8259.796590780807, -14651.970821853974, 0.0105, -0.10650000000000001, 0.991, 192.0, 0.0, 0.0, 0.0, 0.0, 0.0, 0.0, 0.0, 0.0, 0.0, 1.645922411041654E9, 0.0, 2022-02-27 11:40:11.041
204.0, -1534.246091156732, -4091.6656364996, -1916.4385695980275, -9603.561115689412, -102.77332100550187, 236.32499412596158, -4872.792049979216, -1500.7855297071374, -3699.63839049797, -5170.561989612816, -3599.1225956824537, -2905.4809100009097, -2968.2893119203227, -1994.7590821694234, -8611.836565951893, -15571.096905600656, 0.01125, -0.10825000000000001, 0.9884999999999999, 192.0, 0.0, 48.0, 126.0, 72.0, 15.0, 104.0, 0.0, 0.0, 0.0, 1.645922411048245E9, 0.0, 2022-02-27 11:40:11.048
206.0, -1276.8210502649606, -3866.0247762232757, -1668.1330404440214, -9324.499586164902, 184.29013303400674, 494.6888082848559, -4600.234878091202, -1133.2557956285234, -1412.9431739977806, -4397.281038437014, -3585.7115490092697, -2765.8942658775172, -3053.3824030616765, -1950.0332415143541, -8269.050212985303, -14593.632768825624, 0.01125, -0.10825000000000001, 0.9884999999999999, 192.0, 0.0, 0.0, 0.0, 0.0, 0.0, 0.0, 0.0, 0.0, 0.0, 1.645922411056294E9, 0.0, 2022-02-27 11:40:11.056
208.0, -1144.7222405340958, -3772.7509466112792, -1625.7764847012145, -9273.716422762445, 269.07029975298644, 511.4749683707915, -4711.703027689819, -1308.44876866922, -3287.8522023978476, -4769.504638851242, -3409.222174790165, -2788.2907138217347, -2782.7921846857294, -1795.0462454612548, -8444.779627892927, -15189.552627748566, 0.01125, -0.10825000000000001, 0.9884999999999999, 192.0, 0.0, 0.0, 0.0, 0.0, 0.0, 0.0, 0.0, 0.0, 0.0, 1.645922411064283E9, 0.0, 2022-02-27 11:40:11.064
210.0, -1556.0166902562012, -4101.455700571025, -1901.418197324061, -9587.892542826241, -98.414730836717, 272.93715154375457, -4777.417156388421, -1366.3174350640102, -2419.106950653428, -4922.479977903364, -3739.4244956284165, -2899.9376773759936, -3170.0585091183793, -2109.490586458515, -8502.558887309897, -15168.027897838105, 0.01125, -0.10825000000000001, 0.9884999999999999, 192.0, 0.0, 0.0, 0.0, 0.0, 0.0, 0.0, 0.0, 0.0, 0.0, 1.645922411071324E9, 0.0, 2022-02-27 11:40:11.071
212.0, -997.692465507086, -3651.4927329412385, -1491.4648522692744, -9126.038447146231, 415.80950210207726, 639.8633885220753, -4551.061040289526, -1089.5804869628535, -1978.285846505862, -4354.678613505199, -3413.8936893813243, -2721.1460734779926, -2847.9475197729494, -1801.4835478643834, -8262.702317559995, -14650.607365442202, 0.01125, -0.10825000000000001, 0.9884999999999999, 192.0, 0.0, 0.0, 0.0, 0.0, 0.0, 0.0, 0.0, 0.0, 0.0, 1.645922411078006E9, 0.0, 2022-02-27 11:40:11.078
214.0, -1498.5950587505174, -4061.446077996025, -1912.2811451293405, -9593.458127195612, -90.5245650439936, 244.46102910769335, -4868.679328999439, -1496.6281052384502, -3708.8473092135564, -5162.895341264647, -3595.1886886583197, -2902.709293688452, -2968.512829364876, -1997.418939759605, -8618.743254988582, -15569.688745699972, 0.010624999999999999, -0.107125, 0.98825, 192.0, 0.0, 40.0, 126.0, 88.0, 15.0, 112.0, 0.0, 0.0, 0.0, 1.645922411086039E9, 0.0, 2022-02-27 11:40:11.086
216.0, -1225.5685002289415, -3822.3494675576053, -1663.6179880640493, -9321.929135552542, 182.5466969664928, 491.3136948721045, -4598.983180401705, -1140.6989265321406, -1399.9791622137025, -4370.391889857279, -3574.893304692901, -2757.221789028858, -3051.08017338278, -1954.5035904054155, -8268.089087973725, -14590.83880076871, 0.010624999999999999, -0.107125, 0.98825, 192.0, 0.0, 0.0, 0.0, 0.0, 0.0, 0.0, 0.0, 0.0, 0.0, 1.645922411093981E9, 0.0, 2022-02-27 11:40:11.093
218.0, -1077.4881932125322, -3713.7423412492685, -1609.2361938042873, -9257.556111521259, 282.5260499150813, 514.425398638892, -4700.527155462165, -1313.3661524493878, -3253.07288802539, -4741.4084960709215, -3391.8548693483913, -2770.811649657685, -2782.5239637522654, -1798.5778210851934, -8437.42590396713, -15182.5341799896, 0.010624999999999999, -0.107125, 0.98825, 192.0, 0.0, 0.0, 0.0, 0.0, 0.0, 0.0, 0.0, 0.0, 0.0, 1.645922411101202E9, 0.0, 2022-02-27 11:40:11.101
220.0, -1491.5319075026403, -4037.350897473204, -1896.4784617994383, -9580.851743322819, -104.18148090618622, 276.7592998456121, -4767.716499294817, -1371.2795223330884, -2444.0962009544614, -4909.49361437483, -3715.530480805693, -2879.1729067770134, -3162.2130468145665, -2102.002752065987, -8503.408253599198, -15185.216389324236, 0.010624999999999999, -0.107125, 0.98825, 192.0, 0.0, 0.0, 0.0, 0.0, 0.0, 0.0, 0.0, 0.0, 0.0, 1.645922411108614E9, 0.0, 2022-02-27 11:40:11.108
222.0, -932.8500548422403, -3581.75529024068, -1486.8156894225706, -9116.941287152922, 415.5189294241583, 634.4766181083463, -4546.501284420644, -1098.208260322602, -1912.7281800184467, -4306.845880370842, -3397.398101973308, -2695.910953987951, -2854.474229153899, -1795.1803559279867, -8257.96374773547, -14628.479138431447, 0.010624999999999999, -0.107125, 0.98825, 192.0, 0.0, 0.0, 0.0, 0.0, 0.0, 0.0, 0.0, 0.0, 0.0, 1.645922411116614E9, 0.0, 2022-02-27 11:40:11.116
224.0, -1432.9479852852805, -3991.3733591286373, -1904.7933107368126, -9585.120926513782, -87.61883826480368, 250.2948344105285, -4876.614198281074, -1512.117864145978, -3694.139861361964, -5111.955715651002, -3574.312159337063, -2878.1447265320694, -2961.092050205714, -1986.578343698781, -8616.865708454336, -15567.833550910182, 0.0123125, -0.1045625, 0.9901249999999999, 192.0, 0.0, 56.0, 126.0, 104.0, 15.5, 0.0, 0.0, 0.0, 0.0, 1.645922411124646E9, 0.0, 2022-02-27 11:40:11.124
226.0, -1174.3606536818331, -3764.9054843074664, -1669.340034644608, -9321.817376830266, 166.92282759223315, 491.9618954613085, -4608.996761917682, -1130.3500688493334, -1391.0608161760351, -4365.161581654737, -3568.1654296118536, -2742.7602103662744, -3058.433897308576, -1949.6756136030692, -8275.152239221601, -14599.98066425093, 0.0123125, -0.1045625, 0.9901249999999999, 192.0, 0.0, 0.0, 0.0, 0.0, 0.0, 0.0, 0.0, 0.0, 0.0, 1.645922411130794E9, 0.0, 2022-02-27 11:40:11.130
228.0, -1028.0014309884825, -3668.792983149646, -1607.4480542478627, -9253.130466119108, 272.3336544434612, 506.4681776128027, -4696.325027504567, -1301.87735579936, -3215.2090329180996, -4719.190862082346, -3378.9132093087687, -2762.2062280423916, -2782.769832941274, -1810.200728201953, -8439.99635457949, -15168.81020889404, 0.0123125, -0.1045625, 0.9901249999999999, 192.0, 0.0, 0.0, 0.0, 0.0, 0.0, 0.0, 0.0, 0.0, 0.0, 1.645922411146195E9, 0.0, 2022-02-27 11:40:11.146
230.0, -1454.092735540001, -3995.620190575146, -1897.0819588997317, -9582.70693811261, -91.93272494467794, 268.01976776358697, -4771.650406318951, -1361.3106443060212, -2434.484950838679, -4914.209832454901, -3714.8375767275784, -2876.7142148869298, -3173.2101050865776, -2111.457539970582, -8511.164308925188, -15180.410764266344, 0.0123125, -0.1045625, 0.9901249999999999, 192.0, 0.0, 0.0, 0.0, 0.0, 0.0, 0.0, 0.0, 0.0, 0.0, 1.645922411153247E9, 0.0, 2022-02-27 11:40:11.153
232.0, -898.6295340811652, -3545.0984293339766, -1481.473622497752, -9123.155072111496, 396.7434640817004, 644.8701792800641, -4562.95216833975, -1091.4356817526439, -1916.840900998223, -4311.070360072895, -3390.7596338700814, -2698.906087744962, -2858.0505082667482, -1796.074425706199, -8262.456448370987, -14636.436359457537, 0.0123125, -0.1045625, 0.9901249999999999, 192.0, 0.0, 0.0, 0.0, 0.0, 0.0, 0.0, 0.0, 0.0, 0.0, 1.64592241116084E9, 0.0, 2022-02-27 11:40:11.160
234.0, -1391.8207754875154, -3950.357908053149, -1893.1927553645082, -9579.018900277484, -97.38655059177287, 242.4493721067157, -4871.808573223183, -1512.5648990350842, -3685.467384513305, -5121.723427977971, -3559.247083574186, -2873.786136363284, -2959.9968147274035, -1997.7318641819793, -8617.782129977004, -15569.264062555321, 0.01215625, -0.10228125, 0.9910625, 192.0, 0.0, 48.0, 126.0, 112.0, 15.5, 0.0, 0.0, 0.0, 0.0, 1.645922411168852E9, 0.0, 2022-02-27 11:40:11.168
236.0, -1139.6930980316517, -3727.175739666908, -1658.655900794971, -9319.492795406914, 166.83342061441192, 489.2796861266716, -4602.157128114358, -1155.2722639170008, -1368.9772926541916, -4344.262700589025, -3550.6863654478034, -2724.029448512727, -3053.9635484175146, -1958.5045526629156, -8278.3038351898, -14606.417966654059, 0.01215625, -0.10228125, 0.9910625, 192.0, 0.0, 0.0, 0.0, 0.0, 0.0, 0.0, 0.0, 0.0, 0.0, 1.645922411176775E9, 0.0, 2022-02-27 11:40:11.176
238.0, -985.3990060566672, -3619.7085523257915, -1595.1322430529885, -9243.139236347584, 278.05570102401987, 516.8393870400652, -4694.939219348338, -1291.7967190500165, -3184.363625569776, -4693.26283851419, -3364.3622236683636, -2742.961376066372, -2777.1818968274474, -1794.4427483609616, -8436.844758611292, -15162.596423935465, 0.01215625, -0.10228125, 0.9910625, 192.0, 0.0, 0.0, 0.0, 0.0, 0.0, 0.0, 0.0, 0.0, 0.0, 1.64592241118344E9, 0.0, 2022-02-27 11:40:11.183
240.0, -1424.700191581272, -3964.7300797379116, -1893.460976297972, -9583.288083468447, -124.49921661606034, 267.90800904131044, -4780.2111244453345, -1380.868420704415, -2469.756003589154, -4902.005779982303, -3696.665608485414, -2867.4382409379773, -3161.6095497142733, -2113.2903830159166, -8516.461672361096, -15208.551610535576, 0.01215625, -0.10228125, 0.9910625, 192.0, 0.0, 0.0, 0.0, 0.0, 0.0, 0.0, 0.0, 0.0, 0.0, 1.645922411191518E9, 0.0, 2022-02-27 11:40:11.191
242.0, -863.827867964252, -3508.2404027271755, -1472.2870555266209, -9114.437891773927, 402.73373159572265, 638.678746065944, -4544.936662308773, -1105.3608185483001, -1852.9596153449554, -4275.329920688859, -3376.543924396506, -2685.3385788605906, -2852.3955169195556, -1796.1638326840202, -8255.370945378656, -14623.807623840288, 0.01215625, -0.10228125, 0.9910625, 192.0, 0.0, 0.0, 0.0, 0.0, 0.0, 0.0, 0.0, 0.0, 0.0, 1.645922411198424E9, 0.0, 2022-02-27 11:40:11.198
244.0, -1365.0880891189681, -3931.358925266138, -1887.8953919286005, -9573.855647308308, -95.50900405752708, 241.33178488395035, -4862.756116718783, -1508.2286606107546, -3679.410061765917, -5108.9829336384455, -3542.639737443893, -2865.2030664924464, -2952.4866285904204, -1986.7795093988789, -8610.204888606655, -15565.956004375936, 0.011078125000000001, -0.10314062500000001, 0.99153125, 192.0, 0.0, 40.0, 126.0, 96.0, 15.5, 0.0, 0.0, 0.0, 0.0, 1.645922411206415E9, 0.0, 2022-02-27 11:40:11.206
246.0, -1120.3588390778111, -3710.8813179589893, -1657.6500722944825, -9320.856251818688, 170.11912704934204, 478.99788367723033, -4609.957886929261, -1168.0351100009811, -1366.5633042530185, -4360.624177530311, -3545.4560572452615, -2730.3773439380343, -3055.9752054184924, -1965.746517866435, -8280.762527079884, -14615.090443502719, 0.011078125000000001, -0.10314062500000001, 0.99153125, 192.0, 0.0, 0.0, 0.0, 0.0, 0.0, 0.0, 0.0, 0.0, 0.0, 1.645922411213743E9, 0.0, 2022-02-27 11:40:11.213
248.0, -967.0482238588601, -3599.4578718492835, -1590.6618941619272, -9237.663058956035, 283.3530644599276, 521.1085702310288, -4693.329893747556, -1297.2728964415667, -3160.1790380691336, -4683.293960487123, -3353.6110345853613, -2738.736896364319, -2776.511344493788, -1794.8003762722465, -8438.05175281188, -15158.975441333705, 0.011078125000000001, -0.10314062500000001, 0.99153125, 192.0, 0.0, 0.0, 0.0, 0.0, 0.0, 0.0, 0.0, 0.0, 0.0, 1.645922411221068E9, 0.0, 2022-02-27 11:40:11.221
