%OpenBCI Raw EEG Data
%Number of channels = 16
%Sample Rate = 125 Hz
%Board = OpenBCI_GUI$BoardCytonSerialDaisy
Sample Index, EXG Channel 0, EXG Channel 1, EXG Channel 2, EXG Channel 3, EXG Channel 4, EXG Channel 5, EXG Channel 6, EXG Channel 7, EXG Channel 8, EXG Channel 9, EXG Channel 10, EXG Channel 11, EXG Channel 12, EXG Channel 13, EXG Channel 14, EXG Channel 15, Accel Channel 0, Accel Channel 1, Accel Channel 2, Other, Other, Other, Other, Other, Other, Other, Analog Channel 0, Analog Channel 1, Analog Channel 2, Timestamp, Other, Timestamp (Formatted)
20.0, -405.4382926748148, -3811.1512435854966, -1584.5822196700835, -9796.836649994451, -14.975668785055731, 406.3547141974824, -5120.359971566198, -1501.992523907724, -3516.93523132029, -5719.878461346443, -3501.2666584571193, -2723.1353787345147, -2820.1643014150027, -1979.872820362189, -9335.049609547808, -15199.901485431372, 0.0, 0.0, 0.0, 192.0, 0.0, 0.0, 0.0, 0.0, 0.0, 0.0, 0.0, 0.0, 0.0, 1.64592195540283E9, 0.0, 2022-02-27 11:32:35.402
22.0, -757.7241370349094, -4063.010700107897, -1782.9763034553891, -10012.374521776977, -309.1022740724414, 272.7806893325674, -5091.1015380742, -1438.4912179101966, -1690.5518401326945, -5606.800986147045, -3876.9547792619205, -2760.485143719333, -3299.0504263699563, -2296.753501505077, -9237.864224656132, -14771.709116901055, 0.0, 0.0, 0.0, 192.0, 0.0, 0.0, 0.0, 0.0, 0.0, 0.0, 0.0, 0.0, 0.0, 1.645921955402833E9, 0.0, 2022-02-27 11:32:35.402
0.0, -336.2596435856394, -1947.5074943909044, -870.4886878119336, -4966.423507502497, -171.77315613903477, 48.32447151237387, -2774.4549840039, -810.0048673158726, -1359.2319320716779, -2669.8264682086074, -1707.0250757962556, -1310.6168878813849, -1385.2493626176552, -938.3932874671564, -4585.974465128716, -7383.071766265842, 0.02, -0.106, 0.97, 192.0, 0.0, 80.0, 126.0, 88.0, 15.0, 40.0, 0.0, 0.0, 0.0, 1.64592195550276E9, 0.0, 2022-02-27 11:32:35.502
2.0, -758.5511515797558, -3942.4677422604254, -1733.0872098311438, -9942.860596520972, -386.99810349918647, 132.72465857561335, -5391.35252134234, -1396.6934557787724, -2028.0184779189203, -5468.8907228578, -3811.2853540522283, -2838.962118501916, -3193.751358241005, -2247.624367192312, -9383.731708971467, -14924.036255363973, 0.02, -0.106, 0.97, 192.0, 0.0, 0.0, 0.0, 0.0, 0.0, 0.0, 0.0, 0.0, 0.0, 1.645921955508855E9, 0.0, 2022-02-27 11:32:35.508
4.0, -185.98886561261006, -3519.058647043544, -1335.2708620155886, -9498.932599894119, 117.48076885709392, 461.60822649100146, -5197.138213770177, -1182.2508194745565, -1882.0615866257654, -4973.7995831727485, -3473.997530221645, -2677.738985745786, -2853.311938442223, -1930.1401889491308, -9194.524192157292, -14514.552296942747, 0.02, -0.106, 0.97, 192.0, 0.0, 0.0, 0.0, 0.0, 0.0, 0.0, 0.0, 0.0, 0.0, 1.645921955516714E9, 0.0, 2022-02-27 11:32:35.516
6.0, -773.4821168759009, -3960.3044343357606, -1794.5992105721486, -10000.617504193486, -436.12723781195143, 71.8608584238122, -5544.864302261389, -1593.3664552410194, -3531.6203274274267, -5809.799529290143, -3688.1048903590313, -2887.375996992111, -2999.6264576466633, -2180.3679681262934, -9580.158839244705, -15452.945584409903, 0.018000000000000002, -0.108, 0.976, 192.0, 0.0, 64.0, 126.0, 72.0, 15.0, 88.0, 0.0, 0.0, 0.0, 1.645921955524713E9, 0.0, 2022-02-27 11:32:35.524
8.0, -420.9504033267979, -3682.9416373898553, -1490.6154859799726, -9666.302462375459, -99.7111320151248, 353.8504664719661, -5241.908757914157, -1208.782340143006, -1123.7339524905626, -4944.7423153808495, -3640.026288035666, -2685.6291515385096, -3050.2308070934782, -2039.3955158466717, -9161.778886530266, -14371.32231847314, 0.018000000000000002, -0.108, 0.976, 192.0, 0.0, 0.0, 0.0, 0.0, 0.0, 0.0, 0.0, 0.0, 0.0, 1.645921955531961E9, 0.0, 2022-02-27 11:32:35.531
10.0, -360.84656248647724, -3659.0923260560426, -1519.5609950495952, -9683.5356573505, -85.83069870837912, 299.0886925564638, -5397.9239342122, -1418.1064269669566, -3251.0835827688675, -5421.437969379183, -3478.9372657462677, -2763.9496641099054, -2791.062330134193, -1973.8154976148007, -9428.234032181983, -15114.60722858992, 0.018000000000000002, -0.108, 0.976, 192.0, 0.0, 0.0, 0.0, 0.0, 0.0, 0.0, 0.0, 0.0, 0.0, 1.645921955539012E9, 0.0, 2022-02-27 11:32:35.539
12.0, -733.964232678918, -3919.356038493638, -1732.8413406421353, -9941.340677898012, -402.8901938069098, 138.06672550043172, -5415.827681520901, -1424.6107846034508, -2047.9785857175095, -5472.7352229041135, -3805.5186039827595, -2825.4169613619997, -3189.884506450237, -2237.990765332075, -9396.651017266633, -14940.978877661095, 0.018000000000000002, -0.108, 0.976, 192.0, 0.0, 0.0, 0.0, 0.0, 0.0, 0.0, 0.0, 0.0, 0.0, 1.645921955546708E9, 0.0, 2022-02-27 11:32:35.546
14.0, -163.14538277928625, -3490.4931176296614, -1337.2154637832002, -9492.696463191089, 101.18634714917508, 466.36914805998185, -5229.995278119478, -1197.3829504707994, -1851.685565911003, -4959.136838810067, -3467.739041774159, -2660.751659959753, -2853.08842099767, -1910.4483020840053, -9205.431843451483, -14517.100395810652, 0.018000000000000002, -0.108, 0.976, 192.0, 0.0, 0.0, 0.0, 0.0, 0.0, 0.0, 0.0, 0.0, 0.0, 1.645921955554629E9, 0.0, 2022-02-27 11:32:35.554
16.0, -755.7124800339318, -3944.0547161167524, -1796.87908850659, -9999.365806503989, -448.91243564038706, 56.46050649410564, -5538.449351602716, -1618.4451125198739, -3533.184949539298, -5798.95893322932, -3682.0028641227323, -2874.791964863773, -2994.239687232934, -2172.611912800302, -9592.385243461758, -15466.088410149625, 0.017, -0.11, 0.98, 192.0, 0.0, 64.0, 126.0, 64.0, 15.0, 96.0, 0.0, 0.0, 0.0, 1.64592195556877E9, 0.0, 2022-02-27 11:32:35.568
18.0, -415.07189453505214, -3672.1010413290314, -1495.2422970822213, -9670.929273477706, -122.19698693716371, 344.015698911631, -5263.209970380065, -1212.3139157669445, -1121.074094900381, -4948.922091593992, -3642.082648525554, -2684.7350817602974, -3055.7740397183943, -2049.7667252739343, -9171.300729668228, -14387.9967198368, 0.017, -0.11, 0.98, 192.0, 0.0, 0.0, 0.0, 0.0, 0.0, 0.0, 0.0, 0.0, 0.0, 1.645921955576287E9, 0.0, 2022-02-27 11:32:35.576
20.0, -343.94864367826506, -3633.499578654716, -1504.1606431198888, -9678.215942170136, -76.9123526707116, 299.8486518679442, -5376.846239190846, -1434.5349591416073, -3247.8202280783926, -5424.857786280845, -3480.3677773914073, -2766.676576933453, -2800.0253796607713, -1967.5570091673148, -9436.213604952527, -15120.306923426024, 0.017, -0.11, 0.98, 192.0, 0.0, 0.0, 0.0, 0.0, 0.0, 0.0, 0.0, 0.0, 0.0, 1.645921955584272E9, 0.0, 2022-02-27 11:32:35.584
22.0, -741.4297153269906, -3916.450311714448, -1743.950157636423, -9948.515587868165, -413.9543073122868, 128.72369631811338, -5410.798539018458, -1433.484427152208, -2124.063923843375, -5494.908153403778, -3805.8762318940444, -2827.4062666185223, -3188.29753259391, -2242.0364310784857, -9413.347770374749, -14982.374308392324, 0.017, -0.11, 0.98, 192.0, 0.0, 0.0, 0.0, 0.0, 0.0, 0.0, 0.0, 0.0, 0.0, 1.645921955592137E9, 0.0, 2022-02-27 11:32:35.592
24.0, -158.92090307723322, -3484.3016844155413, -1336.8354841274602, -9492.361187024258, 103.06389368342087, 469.6995579838226, -5201.854431850246, -1184.620104386819, -1793.6157338161152, -4937.634460644062, -3475.1374691888655, -2655.610758735032, -2861.09034551267, -1916.6397352981253, -9199.553334659737, -14494.860410077621, 0.017, -0.11, 0.98, 192.0, 0.0, 0.0, 0.0, 0.0, 0.0, 0.0, 0.0, 0.0, 0.0, 1.645921955599206E9, 0.0, 2022-02-27 11:32:35.599
26.0, -741.1614943935269, -3928.4308467424926, -1788.206611657931, -9995.834230880051, -434.3167465110715, 71.05619562342115, -5518.176319381752, -1600.1390338109773, -3546.663051445848, -5787.38072960147, -3679.499468743738, -2875.127241030603, -2999.045312290825, -2170.8237732438774, -9584.27156022448, -15454.309040821678, 0.0145, -0.114, 0.982, 192.0, 0.0, 48.0, 126.0, 40.0, 15.0, 96.0, 0.0, 0.0, 0.0, 1.645921955606986E9, 0.0, 2022-02-27 11:32:35.606
28.0, -420.2127957597728, -3668.5471139606375, -1500.4949570292183, -9680.652282315765, -122.21933868161902, 343.8368849559885, -5239.248900323975, -1205.4966337080757, -1125.4997403025318, -4941.411905457009, -3646.821218350079, -2680.2200293803253, -3055.5728740182967, -2056.718117799535, -9171.09956396813, -14391.75181290529, 0.0145, -0.114, 0.982, 192.0, 0.0, 0.0, 0.0, 0.0, 0.0, 0.0, 0.0, 0.0, 0.0, 1.645921955614876E9, 0.0, 2022-02-27 11:32:35.614
30.0, -331.85634992794394, -3620.7143808262804, -1501.4337302963413, -9671.979805467106, -71.79380319044628, 317.26066079862846, -5382.791803215958, -1402.6390198038841, -3218.8970707532253, -5393.54299229896, -3479.406652379829, -2764.1731815544586, -2803.8475279626286, -1973.1896487700521, -9430.6256688387, -15098.22339990418, 0.0145, -0.114, 0.982, 192.0, 0.0, 0.0, 0.0, 0.0, 0.0, 0.0, 0.0, 0.0, 0.0, 1.645921955620992E9, 0.0, 2022-02-27 11:32:35.620
32.0, -737.4511048139459, -3908.694256388457, -1741.7149831908923, -9956.070477494059, -417.91056608087615, 130.42242889671672, -5414.307762897941, -1434.8255318195263, -2148.628490999757, -5498.819708683456, -3806.457377249882, -2830.781380031274, -3187.1799453711446, -2241.5223409560135, -9418.376912877193, -14988.074003228427, 0.0145, -0.114, 0.982, 192.0, 0.0, 0.0, 0.0, 0.0, 0.0, 0.0, 0.0, 0.0, 0.0, 1.645921955628642E9, 0.0, 2022-02-27 11:32:35.628
34.0, -160.01613855554325, -3481.1053849584328, -1336.4331527272645, -9495.6915969481, 98.50413781453823, 473.1864301188505, -5210.973943588012, -1173.108955992336, -1770.7051957494255, -4918.233146456855, -3480.770108791603, -2656.258959324236, -2862.3643949466223, -1927.0779999587537, -9193.093680512153, -14478.34247092515, 0.0145, -0.114, 0.982, 192.0, 0.0, 0.0, 0.0, 0.0, 0.0, 0.0, 0.0, 0.0, 0.0, 1.645921955636461E9, 0.0, 2022-02-27 11:32:35.636
36.0, -731.125561133094, -3919.065465815719, -1784.652684289537, -9986.73707088674, -430.20402553129503, 74.92304741418927, -5522.244336872618, -1590.147804039455, -3571.317025580052, -5781.815145232099, -3681.2205530667966, -2874.6802061414965, -2995.2902192223337, -2172.366043611293, -9585.903237569719, -15451.91740416496, 0.01225, -0.113, 0.984, 192.0, 0.0, 40.0, 126.0, 64.0, 15.0, 104.0, 0.0, 0.0, 0.0, 1.645921955644606E9, 0.0, 2022-02-27 11:32:35.644
38.0, -432.03686857663024, -3676.884314642467, -1511.1343873899445, -9692.968093510639, -145.5992633818702, 332.9068819173434, -5242.199330592076, -1226.4849217516091, -1146.1974556681462, -4967.049356347246, -3668.658872682914, -2691.1723841634257, -3082.4843743424863, -2079.6957110995904, -9179.034433249764, -14405.051100856197, 0.01225, -0.113, 0.984, 192.0, 0.0, 0.0, 0.0, 0.0, 0.0, 0.0, 0.0, 0.0, 0.0, 1.645921955651274E9, 0.0, 2022-02-27 11:32:35.651
40.0, -326.73780044767864, -3615.439369134828, -1503.1324628749446, -9674.416145612735, -79.03576839396577, 312.72325667420114, -5381.294236337452, -1425.2589851926548, -3181.5696575128627, -5388.223277118597, -3479.4960593576507, -2755.6571669169866, -2802.50642329531, -1957.610482884703, -9422.556689090336, -15080.431411317757, 0.01225, -0.113, 0.984, 192.0, 0.0, 0.0, 0.0, 0.0, 0.0, 0.0, 0.0, 0.0, 0.0, 1.645921955659064E9, 0.0, 2022-02-27 11:32:35.659
42.0, -733.9195291900074, -3904.0003900528422, -1746.9676431378894, -9954.014117004172, -421.1962725158063, 142.20179822466352, -5415.425350120706, -1417.9499647557695, -2119.057133085386, -5493.298827802995, -3816.6497727215024, -2837.1516272010363, -3196.3888640867312, -2247.1326288142955, -9416.34290413176, -14970.572587319923, 0.01225, -0.113, 0.984, 192.0, 0.0, 0.0, 0.0, 0.0, 0.0, 0.0, 0.0, 0.0, 0.0, 1.645921955667169E9, 0.0, 2022-02-27 11:32:35.667
44.0, -158.8985513327779, -3477.3726436343964, -1338.1095335614127, -9499.35728303877, 100.3369808598734, 479.9366569443533, -5199.619257404716, -1169.264455946023, -1801.8411757756683, -4932.202986741422, -3485.5310303605834, -2669.4464885528673, -2865.292473470268, -1926.2062819249968, -9196.602904391635, -14485.62913961758, 0.01225, -0.113, 0.984, 192.0, 0.0, 0.0, 0.0, 0.0, 0.0, 0.0, 0.0, 0.0, 0.0, 1.645921955674457E9, 0.0, 2022-02-27 11:32:35.674
46.0, -724.7776657077868, -3906.369674965105, -1782.1939923994532, -9988.279341254156, -423.29733649460513, 87.95411443163329, -5523.786607240035, -1582.0341208021787, -3572.926351180834, -5761.430354288859, -3683.2545618122294, -2880.2010870219574, -2985.3436929397217, -2176.5011163355252, -9578.683624110654, -15453.079694876635, 0.013125000000000001, -0.1115, 0.983, 192.0, 0.0, 56.0, 126.0, 72.0, 15.0, 88.0, 0.0, 0.0, 0.0, 1.645921955688859E9, 0.0, 2022-02-27 11:32:35.688
48.0, -426.82891211854366, -3668.792983149646, -1512.475492057263, -9693.504535377568, -135.20570221015242, 353.69400426077897, -5241.126446858221, -1210.1457965547797, -1137.5473305639423, -4954.7782486412825, -3667.8542098825233, -2692.2452678972804, -3075.622388794707, -2064.2059521920623, -9173.222979691385, -14396.110403074075, 0.013125000000000001, -0.1115, 0.983, 192.0, 0.0, 0.0, 0.0, 0.0, 0.0, 0.0, 0.0, 0.0, 0.0, 1.645921955696793E9, 0.0, 2022-02-27 11:32:35.696
50.0, -310.24221303966203, -3600.1284241829426, -1486.6815789558386, -9665.944834464173, -60.34971002932907, 333.42097203981547, -5392.425405076195, -1405.61180181644, -3160.8272386583376, -5372.755869955525, -3474.7127860442147, -2757.6464721735088, -2789.698873722419, -1955.8223433282785, -9413.727750030488, -15073.681184492254, 0.013125000000000001, -0.1115, 0.983, 192.0, 0.0, 0.0, 0.0, 0.0, 0.0, 0.0, 0.0, 0.0, 0.0, 1.645921955703995E9, 0.0, 2022-02-27 11:32:35.703
52.0, -739.4180583260129, -3911.3764657230936, -1745.6488902150263, -9963.848884564506, -422.850301605499, 130.24361494107424, -5405.747044771558, -1418.128778711412, -2162.643034773235, -5506.933391920733, -3810.0560081071867, -2836.7492958008406, -3186.1964686151114, -2250.150114315762, -9420.00859022243, -14995.740651576598, 0.013125000000000001, -0.1115, 0.983, 192.0, 0.0, 0.0, 0.0, 0.0, 0.0, 0.0, 0.0, 0.0, 0.0, 1.645921955711514E9, 0.0, 2022-02-27 11:32:35.711
54.0, -165.33585373590634, -3474.4892685996615, -1339.4953417176416, -9507.448614531591, 103.68974252816946, 469.18546786135056, -5182.0731380073, -1172.7736798255062, -1765.0055009133223, -4937.969736810892, -3491.0519112410443, -2670.5640757756323, -2873.2273427519017, -1937.8068372973012, -9187.505744398326, -14482.321081438195, 0.013125000000000001, -0.1115, 0.983, 192.0, 0.0, 0.0, 0.0, 0.0, 0.0, 0.0, 0.0, 0.0, 0.0, 1.645921955719421E9, 0.0, 2022-02-27 11:32:35.719
56.0, -732.8242937116974, -3918.081989059686, -1784.5856290561712, -10001.511573971698, -427.16418828537326, 73.15725960222002, -5528.815749742478, -1577.116737022011, -3587.6561507768815, -5785.771404000689, -3678.9183233879003, -2886.5936859361755, -2984.7178440949733, -2173.014244200497, -9582.908103812708, -15461.662764747474, 0.013562500000000002, -0.11075, 0.9844999999999999, 192.0, 0.0, 56.0, 126.0, 72.0, 15.0, 104.0, 0.0, 0.0, 0.0, 1.645921955726588E9, 0.0, 2022-02-27 11:32:35.726
58.0, -432.5956621880129, -3675.6773204418805, -1514.733018247249, -9702.959323282163, -139.34077493438423, 340.4394197987819, -5244.568615504339, -1200.9368778391931, -1143.1576184222245, -4961.170847555501, -3670.8493436395343, -2704.1810994364146, -3077.566990562319, -2080.0533390108753, -9175.927540770477, -14402.905333388488, 0.013562500000000002, -0.11075, 0.9844999999999999, 192.0, 0.0, 0.0, 0.0, 0.0, 0.0, 0.0, 0.0, 0.0, 0.0, 1.645921955734259E9, 0.0, 2022-02-27 11:32:35.734
60.0, -314.8466723974553, -3605.515194596672, -1493.051826125601, -9668.62704379881, -50.470238980083344, 332.70571621724565, -5371.615930988304, -1385.8081562290379, -3165.3199392938545, -5366.475029763584, -3479.540762846561, -2757.73587915133, -2790.190612100436, -1962.460811431505, -9409.212697650517, -15065.679259977254, 0.013562500000000002, -0.11075, 0.9844999999999999, 192.0, 0.0, 0.0, 0.0, 0.0, 0.0, 0.0, 0.0, 0.0, 0.0, 1.6459219557411E9, 0.0, 2022-02-27 11:32:35.741
62.0, -739.9768519373956, -3910.5718029227023, -1746.8111809267023, -9970.442649178822, -416.7706271136555, 131.22709169710777, -5402.662504036725, -1418.352296155965, -2181.463203604603, -5495.064615614965, -3820.069589623164, -2843.477170881888, -3178.1498406112005, -2258.1743905752173, -9414.957095975531, -14991.337357918903, 0.013562500000000002, -0.11075, 0.9844999999999999, 192.0, 0.0, 0.0, 0.0, 0.0, 0.0, 0.0, 0.0, 0.0, 0.0, 1.645921955749127E9, 0.0, 2022-02-27 11:32:35.749
64.0, -166.60990316985885, -3486.447451883251, -1335.3826207378652, -9517.193975114105, 102.14747216075328, 477.8579447100097, -5191.460870678529, -1158.3568046518333, -1764.6925764909479, -4938.6402891445505, -3487.8779635283904, -2673.492154299278, -2870.254560739346, -1937.6950785750246, -9184.48825889686, -14475.213226701408, 0.013562500000000002, -0.11075, 0.9844999999999999, 192.0, 0.0, 0.0, 0.0, 0.0, 0.0, 0.0, 0.0, 0.0, 0.0, 1.645921955758086E9, 0.0, 2022-02-27 11:32:35.758
66.0, -724.8223691966974, -3914.9527448359427, -1782.6186755441042, -9998.672902425875, -422.4926736942141, 88.69172199865842, -5525.462988074182, -1575.9991497992457, -3606.9680579862666, -5790.129994169473, -3677.2866460426626, -2895.869659885128, -2977.989969013926, -2171.6284360442683, -9579.600045633322, -15458.757037968284, 0.012781250000000001, -0.107375, 0.98525, 192.0, 0.0, 48.0, 126.0, 96.0, 15.0, 104.0, 0.0, 0.0, 0.0, 1.645921955763729E9, 0.0, 2022-02-27 11:32:35.763
68.0, -433.6461941774123, -3678.694805943347, -1513.8165967245814, -9705.663884361255, -139.51958889002668, 353.26932111612814, -5244.725077715526, -1201.070988305925, -1142.7552870220288, -4971.69851919395, -3670.3576052615176, -2705.9468872483835, -3079.0645574408245, -2072.2749319404284, -9171.43484013496, -14401.51952523226, 0.012781250000000001, -0.107375, 0.98525, 192.0, 0.0, 0.0, 0.0, 0.0, 0.0, 0.0, 0.0, 0.0, 0.0, 1.645921955771654E9, 0.0, 2022-02-27 11:32:35.771
70.0, -311.1362828178743, -3607.482148108739, -1493.0071226366906, -9662.145037906772, -50.60434944681519, 344.0827541449969, -5366.117401852299, -1376.4427753022642, -3152.8029623988823, -5369.20194258713, -3485.1063472159326, -2764.128478065548, -2787.8883824215395, -1957.968110795988, -9403.37889234768, -15050.88240514784, 0.012781250000000001, -0.107375, 0.98525, 192.0, 0.0, 0.0, 0.0, 0.0, 0.0, 0.0, 0.0, 0.0, 0.0, 1.645921955779772E9, 0.0, 2022-02-27 11:32:35.779
72.0, -757.0088812123396, -3933.169416567018, -1761.9209601784898, -9974.376556202955, -425.979545829242, 135.54097837698203, -5418.867518766823, -1424.7895985590933, -2232.0004978180527, -5522.959592695188, -3824.7634559587786, -2857.514066399821, -3188.29753259391, -2260.0742888539185, -9425.998857736453, -15015.030207041527, 0.012781250000000001, -0.107375, 0.98525, 192.0, 0.0, 0.0, 0.0, 0.0, 0.0, 0.0, 0.0, 0.0, 0.0, 1.645921955786426E9, 0.0, 2022-02-27 11:32:35.786
74.0, -173.71775790664648, -3501.5348793905832, -1338.8024376395272, -9510.376693055236, 97.87828896978962, 489.9278867158755, -5195.327722469297, -1153.7076418051292, -1732.2601952862974, -4930.414847184998, -3498.696207844759, -2668.1724391189146, -2871.886238084583, -1933.135322706142, -9181.738994328856, -14461.936290494954, 0.012781250000000001, -0.107375, 0.98525, 192.0, 0.0, 0.0, 0.0, 0.0, 0.0, 0.0, 0.0, 0.0, 0.0, 1.645921955794314E9, 0.0, 2022-02-27 11:32:35.794
76.0, -715.0993603586388, -3914.885689602577, -1765.6089980136155, -9987.675844153864, -404.83479557452154, 101.00753319353262, -5528.458121831193, -1583.732853380782, -3618.434502891839, -5785.950217956331, -3675.833782653068, -2886.0348923247925, -2971.3515009106995, -2156.7198224925783, -9573.90035079722, -15455.761904211273, 0.014, -0.108, 0.988, 192.0, 0.0, 56.0, 126.0, 80.0, 15.0, 112.0, 0.0, 0.0, 0.0, 1.64592195580231E9, 0.0, 2022-02-27 11:32:35.802
78.0, -484.4740610687806, -3732.629565314003, -1523.696067773827, -9721.086588035416, -151.47777217361596, 346.69790824626784, -5250.7376969740035, -1202.747369140073, -1163.4753541320986, -4994.65376074955, -3687.188468836364, -2720.810797311163, -3084.6971970435616, -2084.4342809241152, -9175.324043670184, -14422.70897897589, 0.014, -0.108, 0.988, 192.0, 0.0, 0.0, 0.0, 0.0, 0.0, 0.0, 0.0, 0.0, 0.0, 1.645921955815952E9, 0.0, 2022-02-27 11:32:35.815
80.0, -374.59288532649106, -3675.520858230693, -1481.5630294755733, -9663.329680362902, -38.48970395203876, 357.04676592907504, -5359.34482328234, -1368.0832228759793, -3133.1781307671226, -5370.274826320985, -3499.2326497116865, -2783.5297922527543, -2797.4325773039554, -1959.1304015076641, -9394.348787587738, -15035.16912879576, 0.014, -0.108, 0.988, 192.0, 0.0, 0.0, 0.0, 0.0, 0.0, 0.0, 0.0, 0.0, 0.0, 1.64592195582399E9, 0.0, 2022-02-27 11:32:35.823
82.0, -869.9745976894615, -4048.2809005118493, -1766.1007363916322, -9987.765251131685, -420.5480719266024, 142.4029639247613, -5417.951097244156, -1429.0811334945124, -2278.9615129186527, -5564.735003082157, -3851.719659771879, -2892.04751158327, -3183.514259280474, -2256.6097684633455, -9425.82004378081, -15021.422805955746, 0.014, -0.108, 0.988, 192.0, 0.0, 0.0, 0.0, 0.0, 0.0, 0.0, 0.0, 0.0, 0.0, 1.645921955833183E9, 0.0, 2022-02-27 11:32:35.833
84.0, -353.1575623938516, -3673.4421459963496, -1350.4923999896528, -9524.748864739999, 103.26505938351863, 491.82778499457663, -5198.859298093235, -1150.041955714459, -1758.7246607213808, -4968.233998803377, -3546.6854031903035, -2722.06249500066, -2885.163174291036, -1943.2383111999407, -9179.034433249764, -14457.66710730399, 0.014, -0.108, 0.988, 192.0, 0.0, 0.0, 0.0, 0.0, 0.0, 0.0, 0.0, 0.0, 0.0, 1.645921955839037E9, 0.0, 2022-02-27 11:32:35.839
86.0, -955.3135580198239, -4142.135875479684, -1787.6031145576376, -10006.674826940874, -405.6618101193679, 109.05416119744316, -5537.979964969154, -1559.503562391229, -3681.8016984226347, -5848.11041928654, -3735.2447194152737, -2953.4477536019986, -2976.6488643466073, -2175.4729360905812, -9581.857571823308, -15448.475235518843, 0.014, -0.106, 0.992, 192.0, 0.0, 56.0, 126.0, 88.0, 15.5, 0.0, 0.0, 0.0, 0.0, 1.645921955846592E9, 0.0, 2022-02-27 11:32:35.846
88.0, -724.3306308186807, -3957.577521512213, -1531.183902166355, -9729.06616080596, -123.24751892656315, 364.28873113259453, -5232.498673498473, -1191.3256277234111, -1227.133122340813, -5049.840217809703, -3750.5333126227038, -2784.669731219975, -3080.651531297151, -2090.960990305065, -9171.233674434861, -14401.787746165723, 0.014, -0.106, 0.992, 192.0, 0.0, 0.0, 0.0, 0.0, 0.0, 0.0, 0.0, 0.0, 0.0, 1.645921955854513E9, 0.0, 2022-02-27 11:32:35.854
90.0, -585.9956843847852, -3886.9236572889877, -1493.8564889259922, -9674.594959568378, -18.216671731075255, 368.8931904903878, -5337.708334649603, -1351.6993941902392, -3211.58805031634, -5445.153170246264, -3570.244141846197, -2844.6618133380193, -2796.6949697369305, -1976.8553348607225, -9391.800688719832, -15035.124425306849, 0.014, -0.106, 0.992, 192.0, 0.0, 0.0, 0.0, 0.0, 0.0, 0.0, 0.0, 0.0, 0.0, 1.645921955861584E9, 0.0, 2022-02-27 11:32:35.861
92.0, -1032.337669412812, -4206.59830648879, -1771.8674864611014, -10001.042187338137, -409.64042063241254, 145.53220814850428, -5418.018152477522, -1424.7225433257274, -2366.9603308391966, -5629.979745147199, -3910.5047476893365, -2942.204826140979, -3193.170212885167, -2272.635969237801, -9426.892927514664, -15030.341151993412, 0.014, -0.106, 0.992, 192.0, 0.0, 0.0, 0.0, 0.0, 0.0, 0.0, 0.0, 0.0, 0.0, 1.645921955868153E9, 0.0, 2022-02-27 11:32:35.868
94.0, -433.35562149949334, -3753.886074291, -1353.8004581690382, -9530.426207831646, 102.84037623886779, 494.3982356069369, -5221.278097781908, -1142.7552870220288, -1787.6478180465483, -4999.6829032519945, -3576.882609949423, -2756.0371465727267, -2887.800680136762, -1943.8865117891446, -9185.024700763786, -14451.76624676779, 0.014, -0.106, 0.992, 192.0, 0.0, 0.0, 0.0, 0.0, 0.0, 0.0, 0.0, 0.0, 0.0, 1.645921955876257E9, 0.0, 2022-02-27 11:32:35.876
96.0, -960.2309417999915, -4150.718945350522, -1789.3465506251516, -10003.053844339114, -403.78426358512206, 96.67129476920304, -5478.144345062297, -1575.3509492100418, -3717.4080273399386, -5858.280463013704, -3745.1912456978853, -2963.059003717781, -2984.136698739135, -2184.4583373616147, -9584.338615457847, -15449.548119252697, 0.012, -0.10400000000000001, 0.992, 192.0, 0.0, 48.0, 126.0, 96.0, 15.5, 0.0, 0.0, 0.0, 0.0, 1.645921955884579E9, 0.0, 2022-02-27 11:32:35.884
98.0, -679.8730110970749, -3929.235509542884, -1539.5434545926398, -9737.224547532147, -147.02977502700986, 341.89228318837684, -5220.004048347956, -1197.6064679153524, -1233.5704247439414, -5061.686642371016, -3753.1484667239747, -2781.4510800184107, -3098.242354183478, -2112.3292580043385, -9176.978072759875, -14412.494231759816, 0.012, -0.10400000000000001, 0.992, 192.0, 0.0, 0.0, 0.0, 0.0, 0.0, 0.0, 0.0, 0.0, 0.0, 1.645921955891405E9, 0.0, 2022-02-27 11:32:35.891
100.0, -494.040607695652, -3802.6575806924798, -1479.4843172412297, -9668.984671710095, -26.509168923994178, 357.04676592907504, -5339.921157350678, -1378.6555980033397, -3169.0303288734353, -5424.857786280845, -3547.1100863349543, -2827.6744875519857, -2806.797958230729, -1984.0302448308762, -9397.030996922374, -15024.484994946122, 0.012, -0.10400000000000001, 0.992, 192.0, 0.0, 0.0, 0.0, 0.0, 0.0, 0.0, 0.0, 0.0, 0.0, 1.645921955898789E9, 0.0, 2022-02-27 11:32:35.898
102.0, -926.3904006946565, -4102.819156982799, -1763.463230545906, -9994.828402379562, -420.39160971541526, 122.1299317037978, -5423.226108935608, -1459.6583199093725, -2341.6805078602442, -5608.991457103665, -3870.785697792256, -2913.3040205602674, -3179.0662621338683, -2281.2860943420046, -9439.432256154092, -15050.79299817002, 0.012, -0.10400000000000001, 0.992, 192.0, 0.0, 0.0, 0.0, 0.0, 0.0, 0.0, 0.0, 0.0, 0.0, 1.64592195590696E9, 0.0, 2022-02-27 11:32:35.906
104.0, -332.70571621724565, -3660.9028173569227, -1354.5380657360633, -9527.632239774734, 90.94924818864443, 476.9191714428868, -5199.686312638082, -1140.207188154124, -1750.1639425949984, -4960.83557138867, -3548.7864671691023, -2726.219919469347, -2878.5023544433543, -1959.845657330234, -9186.499915897837, -14455.00724971381, 0.012, -0.10400000000000001, 0.992, 192.0, 0.0, 0.0, 0.0, 0.0, 0.0, 0.0, 0.0, 0.0, 0.0, 1.645921955914925E9, 0.0, 2022-02-27 11:32:35.914
106.0, -846.572321244755, -4053.265339525383, -1776.8295737301796, -9987.899361598416, -406.689990364312, 94.70434125713602, -5532.749656766612, -1576.1332602659775, -3682.114622845009, -5801.417625119403, -3714.658762771936, -2932.5935760251973, -2969.496306120909, -2189.3310176528717, -9591.021787049984, -15457.39358155651, 0.014, -0.108, 0.994, 192.0, 0.0, 56.0, 126.0, 80.0, 15.5, 8.0, 0.0, 0.0, 0.0, 1.645921955921521E9, 0.0, 2022-02-27 11:32:35.921
108.0, -594.4669955333467, -3846.198778891418, -1539.0070127257125, -9734.005896330584, -169.22505727112977, 321.9098236453323, -5269.803734994381, -1246.6685469947515, -1210.7939971439837, -5051.069563754745, -3734.685925803891, -2751.253873259291, -3107.4512728990644, -2109.9823248365315, -9198.413395692516, -14433.907202948, 0.014, -0.108, 0.994, 192.0, 0.0, 0.0, 0.0, 0.0, 0.0, 0.0, 0.0, 0.0, 0.0, 1.645921955938631E9, 0.0, 2022-02-27 11:32:35.938
110.0, -403.02430427364163, -3716.0222191837097, -1468.7554799026823, -9654.031354669494, -33.14763702722038, 342.65224249985727, -5360.0377273604545, -1388.9150487083255, -3088.4746418565087, -5373.851105433835, -3510.5649841505274, -2787.486051021344, -2805.8144814746956, -1967.3111399783065, -9403.490651069958, -15018.561782665467, 0.014, -0.108, 0.994, 192.0, 0.0, 0.0, 0.0, 0.0, 0.0, 0.0, 0.0, 0.0, 0.0, 1.645921955944535E9, 0.0, 2022-02-27 11:32:35.944
112.0, -865.7724697318638, -4043.743496387422, -1772.1580591390205, -9997.756480903206, -450.7452786857222, 110.64113505376996, -5451.232844738108, -1446.2249214917329, -2368.726118651166, -5602.151823300341, -3862.113220943597, -2902.9104593885495, -3202.8261664898596, -2284.705911243667, -9458.610052896745, -15064.02523088756, 0.014, -0.108, 0.994, 192.0, 0.0, 0.0, 0.0, 0.0, 0.0, 0.0, 0.0, 0.0, 0.0, 1.645921955951084E9, 0.0, 2022-02-27 11:32:35.951
114.0, -271.08195675396405, -3595.8815927364344, -1347.676080188284, -9528.07927466384, 71.61498923480383, 463.55282825861315, -5202.346170228264, -1165.0846797328807, -1701.7724158492586, -4937.254480988322, -3540.5163217206386, -2708.383227394012, -2908.0960641021807, -1967.2440847449404, -9193.227790978885, -14448.055857188208, 0.014, -0.108, 0.994, 192.0, 0.0, 0.0, 0.0, 0.0, 0.0, 0.0, 0.0, 0.0, 0.0, 1.645921955959257E9, 0.0, 2022-02-27 11:32:35.959
116.0, -778.4665558894344, -3983.0138067023527, -1766.6148265141044, -9982.445535951321, -415.1836532573287, 95.17372789069748, -5541.913871993288, -1591.5559639401395, -3672.1233930734866, -5789.750014513733, -3690.9435619048554, -2916.120340361636, -2973.92195152306, -2184.279523405972, -9600.454223210123, -15459.896976935504, 0.016, -0.108, 0.994, 192.0, 0.0, 64.0, 126.0, 80.0, 15.5, 8.0, 0.0, 0.0, 0.0, 1.645921955967079E9, 0.0, 2022-02-27 11:32:35.967
118.0, -539.3699454510147, -3789.2912375082065, -1537.509445847207, -9735.525814953544, -173.51659220654872, 317.81945441001113, -5276.844534497802, -1259.6549105232848, -1197.941744082182, -5030.058923966757, -3719.6432017854695, -2736.1664457519587, -3107.920659532626, -2115.346743505805, -9207.91288708602, -14445.127778664564, 0.016, -0.108, 0.994, 192.0, 0.0, 0.0, 0.0, 0.0, 0.0, 0.0, 0.0, 0.0, 0.0, 1.645921955973825E9, 0.0, 2022-02-27 11:32:35.973
120.0, -351.3470710929717, -3662.8697708689897, -1463.6145786779618, -9647.616404010821, -40.97074758657784, 347.72608849121195, -5357.0425936034435, -1377.962693925225, -3065.3182346008107, -5349.264186532997, -3503.5241846471054, -2772.0186438582714, -2806.730902997363, -1981.3033320073287, -9409.235049394973, -15007.475317415634, 0.016, -0.108, 0.994, 192.0, 0.0, 0.0, 0.0, 0.0, 0.0, 0.0, 0.0, 0.0, 0.0, 1.645921955981866E9, 0.0, 2022-02-27 11:32:35.981
122.0, -824.6229081896435, -4000.4034638885814, -1764.5137625353054, -9995.633065179953, -446.5207989836692, 102.61685879431472, -5415.671219309714, -1468.2413897802103, -2369.8660576183865, -5590.730081883679, -3849.5515405597143, -2885.2302295244017, -3200.2110123885886, -2290.0256264240297, -9457.96185230754, -15067.087419877938, 0.016, -0.108, 0.994, 192.0, 0.0, 0.0, 0.0, 0.0, 0.0, 0.0, 0.0, 0.0, 0.0, 1.64592195598872E9, 0.0, 2022-02-27 11:32:35.988
124.0, -223.87507246435553, -3548.473542746728, -1341.641109185351, -9520.658495504678, 75.77241370349094, 466.39149980443716, -5200.803899860847, -1171.879610047294, -1672.4022236349851, -4922.234108714355, -3522.143187778376, -2682.8575352260514, -2900.921154132027, -1960.2479887304294, -9187.461040909415, -14446.088903676142, 0.016, -0.108, 0.994, 192.0, 0.0, 0.0, 0.0, 0.0, 0.0, 0.0, 0.0, 0.0, 0.0, 1.645921955996761E9, 0.0, 2022-02-27 11:32:35.996
126.0, -728.7115727319209, -3934.734038678889, -1756.0871548756547, -9978.22105624927, -395.20119371428416, 100.67225702670301, -5529.776874754057, -1606.5092809807397, -3656.655985910414, -5771.734508482756, -3667.2060092933193, -2891.645180183075, -2963.0366519733257, -2164.3864708407486, -9590.6641591387, -15459.740514724317, 0.016, -0.112, 0.994, 192.0, 0.0, 64.0, 126.0, 64.0, 15.5, 8.0, 0.0, 0.0, 0.0, 1.645921956003468E9, 0.0, 2022-02-27 11:32:36.003
128.0, -496.7675205191995, -3744.297175919673, -1535.3189748905868, -9730.809596873474, -168.0851183039091, 316.6348119538799, -5270.295473372397, -1246.713250483662, -1173.3548251813443, -5003.661513765039, -3692.888163672467, -2714.999343752783, -3103.338551919288, -2104.640257911713, -9201.162660260517, -14442.24440362983, 0.016, -0.112, 0.994, 192.0, 0.0, 0.0, 0.0, 0.0, 0.0, 0.0, 0.0, 0.0, 0.0, 1.645921956011459E9, 0.0, 2022-02-27 11:32:36.011
130.0, -299.4910239566593, -3611.3937033884176, -1455.5903024185066, -9629.131511346282, -25.88332007924558, 348.08371640249686, -5361.53529423896, -1378.4991357921524, -3032.6176324626963, -5325.973668810567, -3479.9430942467566, -2757.5570651956878, -2806.999123930827, -1979.358730239717, -9399.221467878993, -14999.316930689447, 0.016, -0.112, 0.994, 192.0, 0.0, 0.0, 0.0, 0.0, 0.0, 0.0, 0.0, 0.0, 0.0, 1.645921956019438E9, 0.0, 2022-02-27 11:32:36.019
132.0, -779.9864745123953, -3958.806867457255, -1768.4923730483501, -9986.82647786456, -443.34685127101557, 122.01817298152126, -5451.903397071766, -1487.2627243116767, -2395.6152672309004, -5579.844782333945, -3825.4787117813485, -2870.9698165619156, -3194.9807041860468, -2277.218076851139, -9472.535189692402, -15087.069879420982, 0.016, -0.112, 0.994, 192.0, 0.0, 0.0, 0.0, 0.0, 0.0, 0.0, 0.0, 0.0, 0.0, 1.645921956026509E9, 0.0, 2022-02-27 11:32:36.026
134.0, -186.6817696907246, -3515.415312697329, -1342.3116615190104, -9516.389312313713, 86.12127138629812, 458.09900261151824, -5219.087626825289, -1204.1331772963022, -1614.310039795642, -4883.945570462414, -3502.3618939354296, -2665.9149129289285, -2899.870622142628, -1957.8116485848009, -9191.10437525563, -14450.022810700275, 0.016, -0.112, 0.994, 192.0, 0.0, 0.0, 0.0, 0.0, 0.0, 0.0, 0.0, 0.0, 0.0, 1.645921956034151E9, 0.0, 2022-02-27 11:32:36.034
136.0, -701.4424444964462, -3913.29871574625, -1751.952082151423, -9974.622425391964, -387.400434899382, 92.60327727833716, -5528.7933979980235, -1595.5792779420947, -3644.2284159932633, -5762.324424067071, -3652.0068230637103, -2877.921209087516, -2949.2009221554904, -2156.2951393479275, -9582.863400323797, -15460.880453691538, 0.014, -0.11, 0.986, 192.0, 0.0, 56.0, 126.0, 72.0, 15.0, 104.0, 0.0, 0.0, 0.0, 1.645921956041992E9, 0.0, 2022-02-27 11:32:36.041
138.0, -489.52555531568, -3733.858911259045, -1539.4316958703632, -9736.509291709577, -179.19393529819672, 314.75726541963405, -5274.609360052271, -1227.7589711855617, -1175.589999626875, -5011.574031302218, -3700.577163765093, -2714.1052739745705, -3117.0625230148466, -2113.357438249283, -9197.809898592222, -14446.871214732077, 0.014, -0.11, 0.986, 192.0, 0.0, 0.0, 0.0, 0.0, 0.0, 0.0, 0.0, 0.0, 0.0, 1.645921956050151E9, 0.0, 2022-02-27 11:32:36.050
140.0, -276.15580274531874, -3586.829136232035, -1451.0528982940791, -9623.85649965483, -25.79391310142435, 359.75132700816715, -5361.937625639156, -1360.707147205728, -3003.5603646707973, -5307.779348823947, -3478.803155279536, -2744.2801289892354, -2804.607487274109, -1971.6250266581808, -9389.85608695222, -14991.58322710791, 0.014, -0.11, 0.986, 192.0, 0.0, 0.0, 0.0, 0.0, 0.0, 0.0, 0.0, 0.0, 0.0, 1.645921956063764E9, 0.0, 2022-02-27 11:32:36.063
142.0, -763.5132388488339, -3936.321012535216, -1766.6595300030149, -9988.212286020791, -451.57229323056856, 103.53328031698231, -5477.563199706459, -1479.5960759635063, -2390.206145072716, -5567.484267650159, -3818.370857044561, -2860.5986071346533, -3193.527840796452, -2294.540678804002, -9469.92003559113, -15096.658777792309, 0.014, -0.11, 0.986, 192.0, 0.0, 0.0, 0.0, 0.0, 0.0, 0.0, 0.0, 0.0, 0.0, 1.645921956071878E9, 0.0, 2022-02-27 11:32:36.071
144.0, -191.37563602633907, -3516.2646789866308, -1350.9841383676694, -9516.232850102526, 71.10089911233176, 467.1738108603729, -5183.9953880304565, -1167.0516332449477, -1614.600612473561, -4883.923218717959, -3511.794330095569, -2663.076241383105, -2896.1378808185914, -1947.6416048576361, -9187.081061253675, -14434.778920981757, 0.013000000000000001, -0.108, 0.985, 192.0, 0.0, 48.0, 126.0, 88.0, 15.0, 96.0, 0.0, 0.0, 0.0, 1.645921956078788E9, 0.0, 2022-02-27 11:32:36.078
146.0, -699.967229362396, -3908.8507185996436, -1762.5021055343277, -9971.940216057326, -404.20894672977295, 90.54691678844891, -5520.210328127186, -1599.5131849662287, -3661.573369690582, -5766.124220624473, -3662.2215702797857, -2878.1894300209797, -2962.6119688286744, -2158.8208864713774, -9585.27738872497, -15458.53352052373, 0.013000000000000001, -0.108, 0.985, 192.0, 0.0, 0.0, 0.0, 0.0, 0.0, 0.0, 0.0, 0.0, 0.0, 1.645921956086357E9, 0.0, 2022-02-27 11:32:36.086
148.0, -492.7889100061548, -3733.210710669841, -1546.7854197961594, -9739.415018488768, -185.65358944578045, 310.97982060668716, -5268.306168115874, -1250.289529596511, -1182.7649095970285, -5014.8820894816035, -3711.3507045925508, -2721.391942667001, -3117.174281737123, -2119.548871463403, -9201.743805616356, -14451.09569443413, 0.013000000000000001, -0.108, 0.985, 192.0, 0.0, 0.0, 0.0, 0.0, 0.0, 0.0, 0.0, 0.0, 0.0, 1.645921956094309E9, 0.0, 2022-02-27 11:32:36.094
150.0, -286.728177872679, -3595.926296225345, -1456.797296619093, -9629.71265670212, -25.48098867905005, 357.49380081818117, -5354.58390171336, -1378.4991357921524, -3011.3164199967887, -5318.150558251209, -3492.9071060308347, -2758.9875768408274, -2815.5598420572096, -1981.191573285052, -9396.33809284426, -14994.041918997995, 0.013000000000000001, -0.108, 0.985, 192.0, 0.0, 0.0, 0.0, 0.0, 0.0, 0.0, 0.0, 0.0, 0.0, 1.645921956102474E9, 0.0, 2022-02-27 11:32:36.102
152.0, -782.5345733803002, -3953.1295243656073, -1775.8684487186015, -9996.013044835692, -456.5790839885574, 105.67904778469179, -5451.612824393848, -1479.0819858410343, -2437.81536076252, -5594.842802863455, -3834.5982235191136, -2873.786136363284, -3188.4763465495525, -2284.795318221488, -9478.100774061773, -15111.455632621723, 0.013000000000000001, -0.108, 0.985, 192.0, 0.0, 0.0, 0.0, 0.0, 0.0, 0.0, 0.0, 0.0, 0.0, 1.645921956109025E9, 0.0, 2022-02-27 11:32:36.109
154.0, -196.4718337621491, -3514.901222574857, -1350.5147517341081, -9522.625449016745, 73.62664623578146, 468.6713777388785, -5189.31510321082, -1174.0253775150034, -1604.274106535209, -4895.076739201158, -3517.605783653949, -2674.743851988775, -2912.856985671161, -1953.2965962048288, -9185.20351471943, -14432.052008158209, 0.013500000000000002, -0.108, 0.9855, 192.0, 0.0, 56.0, 126.0, 80.0, 15.0, 104.0, 0.0, 0.0, 0.0, 1.645921956116085E9, 0.0, 2022-02-27 11:32:36.116
156.0, -681.3482262311252, -3886.2531049553286, -1748.8898931610458, -9958.551521128598, -379.5996760844798, 105.45553034013872, -5530.179206154252, -1599.9378681108794, -3674.3138640301067, -5752.422601273371, -3652.6103201640035, -2874.8813718415945, -2958.0075094708814, -2157.971520182076, -9587.020824792484, -15459.315831579666, 0.013500000000000002, -0.108, 0.9855, 192.0, 0.0, 0.0, 0.0, 0.0, 0.0, 0.0, 0.0, 0.0, 0.0, 1.645921956124085E9, 0.0, 2022-02-27 11:32:36.124
158.0, -508.32337240259324, -3735.2670711597293, -1562.632806614972, -9752.580195972943, -193.3425895384061, 306.3530095044386, -5269.244941382997, -1255.4080790767764, -1220.7628751710506, -5026.8626245096475, -3718.078579673598, -2722.0177915117492, -3123.946860307081, -2127.9754791230534, -9211.48916619887, -14476.755497068823, 0.013500000000000002, -0.108, 0.9855, 192.0, 0.0, 0.0, 0.0, 0.0, 0.0, 0.0, 0.0, 0.0, 0.0, 1.645921956132047E9, 0.0, 2022-02-27 11:32:36.132
160.0, -264.97993051766525, -3575.6979674932923, -1447.8118953480596, -9615.631057695276, -5.364418669273695, 376.2022109272732, -5338.982384083555, -1355.2533215586332, -2955.1017826916914, -5277.403328109184, -3475.539800589061, -2743.6766318889418, -2802.7522924843183, -1959.5774363967703, -9380.71422347, -14962.81653199393, 0.013500000000000002, -0.108, 0.9855, 192.0, 0.0, 0.0, 0.0, 0.0, 0.0, 0.0, 0.0, 0.0, 0.0, 1.645921956138669E9, 0.0, 2022-02-27 11:32:36.138
162.0, -788.1448612385823, -3955.2752918333167, -1789.368902369607, -9999.723434415273, -465.36331955949305, 102.1921756496639, -5443.342678945384, -1473.1811253048331, -2478.875515326919, -5598.575544187492, -3819.9354791564324, -2877.317711987223, -3189.7280442390497, -2277.6204082513345, -9480.49241071849, -15123.860850794417, 0.013500000000000002, -0.108, 0.9855, 192.0, 0.0, 0.0, 0.0, 0.0, 0.0, 0.0, 0.0, 0.0, 0.0, 1.645921956146536E9, 0.0, 2022-02-27 11:32:36.146
164.0, -206.2842495780289, -3519.572737166016, -1363.7022809627392, -9522.580745527834, 65.60236997632623, 465.05039513711876, -5205.0283795629, -1170.784374568984, -1583.3975772139522, -4894.562649078685, -3522.2325947561976, -2678.610703779543, -2922.021200897837, -1965.7018143775242, -9182.498953640337, -14421.680798730946, 0.014750000000000001, -0.10500000000000001, 0.98775, 192.0, 0.0, 64.0, 126.0, 104.0, 15.0, 120.0, 0.0, 0.0, 0.0, 1.645921956154666E9, 0.0, 2022-02-27 11:32:36.154
166.0, -698.5367177172564, -3902.8604510856217, -1763.5749892681827, -9963.78182933114, -393.56951636904677, 108.67418154170294, -5520.120921149364, -1590.6395424174718, -3672.1010413290314, -5752.132028595452, -3645.0330787936546, -2878.658816654541, -2945.3340703647223, -2157.055098659408, -9589.032481793462, -15447.268241318256, 0.014750000000000001, -0.10500000000000001, 0.98775, 192.0, 0.0, 0.0, 0.0, 0.0, 0.0, 0.0, 0.0, 0.0, 0.0, 1.645921956162853E9, 0.0, 2022-02-27 11:32:36.162
168.0, -512.1455207044507, -3745.50417012026, -1569.3159782071089, -9755.955309385696, -199.55637449698145, 314.9137276308212, -5248.636632995204, -1247.0932301394023, -1207.485938964598, -5025.610926820151, -3718.078579673598, -2745.35301272309, -3131.747619121983, -2128.0425343564193, -9207.10822428563, -14455.878967747567, 0.014750000000000001, -0.10500000000000001, 0.98775, 192.0, 0.0, 0.0, 0.0, 0.0, 0.0, 0.0, 0.0, 0.0, 0.0, 1.645921956169313E9, 0.0, 2022-02-27 11:32:36.169
170.0, -283.42011969329354, -3598.4743950932498, -1458.9877675757132, -9621.017828109007, -19.825997331857366, 376.31396964954973, -5334.62379391477, -1352.1687808238007, -2965.629454330141, -5293.921267261657, -3485.4863268716726, -2774.097356092615, -2818.286754880757, -1974.2848842483622, -9381.47418278148, -14960.91663371523, 0.014750000000000001, -0.10500000000000001, 0.98775, 192.0, 0.0, 0.0, 0.0, 0.0, 0.0, 0.0, 0.0, 0.0, 0.0, 1.645921956184287E9, 0.0, 2022-02-27 11:32:36.184
172.0, -808.7531696263754, -3974.83306823171, -1799.494242607861, -10008.910001386404, -477.38855807644825, 97.61006803632594, -5455.211455251152, -1484.8710876549587, -2508.9386116193073, -5611.025465849098, -3844.1200666570744, -2890.058206326748, -3202.8038147454045, -2295.054768926474, -9485.454497987568, -15126.073673495493, 0.014750000000000001, -0.10500000000000001, 0.98775, 192.0, 0.0, 0.0, 0.0, 0.0, 0.0, 0.0, 0.0, 0.0, 0.0, 1.645921956190951E9, 0.0, 2022-02-27 11:32:36.190
174.0, -225.19382538721865, -3540.091638575988, -1376.3980718133537, -9532.236699132527, 53.554779714915725, 460.4235840348702, -5200.714492883026, -1170.8067263134392, -1591.8465366180583, -4900.4858613593415, -3534.123722806421, -2704.136395947504, -2929.5537387792756, -1979.358730239717, -9184.756479830323, -14422.507813275794, 0.016375, -0.1015, 0.988875, 192.0, 0.0, 72.0, 126.0, 120.0, 15.0, 120.0, 0.0, 0.0, 0.0, 1.645921956199166E9, 0.0, 2022-02-27 11:32:36.199
176.0, -707.1421393325495, -3923.200538539951, -1770.0569951602215, -9956.718678083264, -395.0223797586417, 111.64696355425878, -5519.0480374155095, -1577.4520131888407, -3697.626733496992, -5764.067860134585, -3654.398459720428, -2891.66753192753, -2958.096916448703, -2161.19017138364, -9588.764260859998, -15447.938793651914, 0.016375, -0.1015, 0.988875, 192.0, 0.0, 0.0, 0.0, 0.0, 0.0, 0.0, 0.0, 0.0, 0.0, 1.645921956206857E9, 0.0, 2022-02-27 11:32:36.206
178.0, -553.2503787577604, -3792.3087230096726, -1576.2673707327094, -9755.910605896785, -207.91592692326628, 305.50364321513695, -5266.696842515093, -1242.0417358925029, -1240.7900382030057, -5051.784819577315, -3727.8462920005672, -2740.7485533652966, -3131.591156910796, -2135.955051893598, -9220.116939558618, -14472.888645278055, 0.016375, -0.1015, 0.988875, 192.0, 0.0, 0.0, 0.0, 0.0, 0.0, 0.0, 0.0, 0.0, 0.0, 1.645921956213998E9, 0.0, 2022-02-27 11:32:36.213
180.0, -345.8261902125109, -3654.018480064688, -1446.38138370292, -9613.23942103856, -7.376075670251331, 376.40337662737096, -5334.57909042586, -1342.803399897027, -2956.375832125644, -5288.8921247592125, -3492.3259606749966, -2761.9380071089276, -2816.811539746707, -1970.7533086244237, -9380.021319391886, -14950.321906843414, 0.016375, -0.1015, 0.988875, 192.0, 0.0, 0.0, 0.0, 0.0, 0.0, 0.0, 0.0, 0.0, 0.0, 1.645921956221403E9, 0.0, 2022-02-27 11:32:36.221
182.0, -922.5235489038884, -4089.8551451987205, -1803.2269839318974, -10013.000370621727, -471.7559184737109, 97.90064071424493, -5486.36978702185, -1490.6601894688833, -2611.846043091541, -5651.839751224488, -3850.8255899936667, -2915.0698083722364, -3195.718311753072, -2293.110167158862, -9497.613846971255, -15159.66834541182, 0.016375, -0.1015, 0.988875, 192.0, 0.0, 0.0, 0.0, 0.0, 0.0, 0.0, 0.0, 0.0, 0.0, 1.645921956229506E9, 0.0, 2022-02-27 11:32:36.229
184.0, -406.7793973421332, -3718.2797453736957, -1383.4388713167752, -9541.915004481674, 66.18351533216422, 471.13006962896225, -5179.659149606126, -1165.5093628775314, -1598.1720802989103, -4932.06887627469, -3578.2684181056525, -2740.6814981319308, -2936.013392926859, -1981.4374424740604, -9182.588360618158, -14412.360121293083, 0.018187500000000002, -0.10175000000000001, 0.9874375, 192.0, 0.0, 80.0, 126.0, 104.0, 15.0, 104.0, 0.0, 0.0, 0.0, 1.645921956236627E9, 0.0, 2022-02-27 11:32:36.236
186.0, -927.0609530283157, -4132.457570130536, -1773.2532946173305, -9958.104486239492, -367.1050509339632, 131.9870510085882, -5503.379464552339, -1550.9204925203912, -3769.8452198320892, -5806.6702850664005, -3709.9425446918663, -2942.495398818898, -2956.733460036929, -2155.512828291992, -9581.790516589943, -15439.065151103157, 0.018187500000000002, -0.10175000000000001, 0.9874375, 192.0, 0.0, 0.0, 0.0, 0.0, 0.0, 0.0, 0.0, 0.0, 0.0, 1.645921956243663E9, 0.0, 2022-02-27 11:32:36.243
188.0, -830.3002512812915, -4045.062249310285, -1609.4820629932956, -9786.688958011742, -207.91592692326628, 312.5220909741034, -5232.811597920847, -1228.9883171306035, -1360.8189059280046, -5125.813797213292, -3812.984086630832, -2809.658981521008, -3151.886540876215, -2144.8286944423553, -9222.10624481514, -14483.997462272342, 0.018187500000000002, -0.10175000000000001, 0.9874375, 192.0, 0.0, 0.0, 0.0, 0.0, 0.0, 0.0, 0.0, 0.0, 0.0, 1.645921956251241E9, 0.0, 2022-02-27 11:32:36.251
190.0, -561.5652276951347, -3877.2230001953844, -1467.0343955796238, -9627.343371789859, 4.693866335614483, 396.8999262928875, -5318.552889651405, -1313.7014286162173, -3004.275620493367, -5327.962974067089, -3566.6231592444374, -2830.446103864444, -2822.354772371623, -1967.1770295115746, -9366.923197141075, -14919.722368684099, 0.018187500000000002, -0.10175000000000001, 0.9874375, 192.0, 0.0, 0.0, 0.0, 0.0, 0.0, 0.0, 0.0, 0.0, 0.0, 1.645921956259139E9, 0.0, 2022-02-27 11:32:36.259
192.0, -1103.103292358314, -4266.255112440003, -1822.3153736967295, -10032.55814702012, -463.55282825861315, 101.07458842689854, -5439.4534754101605, -1476.1092038284785, -2684.7127300158418, -5710.311914719572, -3911.041189556264, -2975.061890490281, -3190.4656518060747, -2295.0324171820184, -9499.603152227779, -15155.868548854418, 0.018187500000000002, -0.10175000000000001, 0.9874375, 192.0, 0.0, 0.0, 0.0, 0.0, 0.0, 0.0, 0.0, 0.0, 0.0, 1.645921956267045E9, 0.0, 2022-02-27 11:32:36.267
194.0, -514.6265643389899, -3826.953926915399, -1397.0734354345127, -9553.694373809622, 54.962939615600064, 468.6937294833338, -5185.984693286979, -1151.0030807260373, -1648.1058774120663, -4972.503181994341, -3626.5481861291155, -2766.542466466721, -2948.999756455393, -1988.902925122133, -9182.990692018353, -14403.262961299773, 0.014093750000000002, -0.103875, 0.98671875, 192.0, 0.0, 40.0, 126.0, 88.0, 15.0, 104.0, 0.0, 0.0, 0.0, 1.645921956273687E9, 0.0, 2022-02-27 11:32:36.273
196.0, -950.7314504064859, -4158.184427998594, -1772.2251143723863, -9972.588416646531, -381.54427785209157, 113.70332404414702, -5513.348342579406, -1577.8766963334915, -3797.2484585342954, -5813.264049680716, -3727.041629200176, -2967.931684009038, -2970.2562654323897, -2171.1366976662516, -9589.390109704747, -15443.669610460951, 0.014093750000000002, -0.103875, 0.98671875, 192.0, 0.0, 0.0, 0.0, 0.0, 0.0, 0.0, 0.0, 0.0, 0.0, 1.645921956281937E9, 0.0, 2022-02-27 11:32:36.281
198.0, -769.0564714737501, -3993.072091707241, -1592.6511994184496, -9788.834725479452, -217.1024938943975, 299.7368931456677, -5281.158421177676, -1229.5694624864416, -1335.8296556269713, -5117.186023853544, -3797.851955634589, -2800.0700831496815, -3154.6581571886727, -2148.7178979775786, -9227.224794295405, -14491.86527632061, 0.014093750000000002, -0.103875, 0.98671875, 192.0, 0.0, 0.0, 0.0, 0.0, 0.0, 0.0, 0.0, 0.0, 0.0, 1.645921956289853E9, 0.0, 2022-02-27 11:32:36.289
200.0, -461.6752817243674, -3770.3816616990166, -1447.3872122034088, -9621.643676953754, 6.794930314413347, 394.0612547470635, -5314.283706460441, -1315.7577891061055, -2961.5614368392753, -5306.326485434352, -3532.022658827622, -2801.7464639838295, -2818.2420513918464, -1980.2751517623844, -9374.14281060014, -14929.065397866416, 0.014093750000000002, -0.103875, 0.98671875, 192.0, 0.0, 0.0, 0.0, 0.0, 0.0, 0.0, 0.0, 0.0, 0.0, 1.645921956296798E9, 0.0, 2022-02-27 11:32:36.296
202.0, -986.047206645871, -4159.391422199181, -1811.5418328692715, -10024.288001571656, -472.4711742962807, 102.05806518293205, -5479.9548363631775, -1490.5707824910621, -2689.451299840367, -5672.112783445452, -3870.808049536711, -2934.4934743038984, -3182.843706946815, -2296.753501505077, -9504.989922641507, -15179.00260436566, 0.014093750000000002, -0.103875, 0.98671875, 192.0, 0.0, 0.0, 0.0, 0.0, 0.0, 0.0, 0.0, 0.0, 0.0, 1.64592195631157E9, 0.0, 2022-02-27 11:32:36.311
204.0, -395.0894349920076, -3720.716085519324, -1384.6905690062724, -9548.240548162526, 46.40222148921746, 463.686938725345, -5211.420978477118, -1146.8680080018055, -1560.6435013584498, -4920.602431369118, -3583.56578154156, -2711.0877884731044, -2942.3612883521664, -1989.9311053670772, -9187.48339265387, -14400.42428975395, 0.012046875000000002, -0.1019375, 0.993359375, 192.0, 0.0, 40.0, 126.0, 112.0, 15.5, 32.0, 0.0, 0.0, 0.0, 1.64592195631941E9, 0.0, 2022-02-27 11:32:36.319
206.0, -834.8823588946294, -4058.875627383665, -1764.983149168867, -9966.151114243403, -387.33337966601607, 111.28933564297387, -5528.011086942088, -1581.9447138243574, -3748.879283533011, -5774.23790386175, -3686.54026824716, -2920.791854952795, -2959.750945538395, -2161.3689853392825, -9594.37454871828, -15439.601592970086, 0.012046875000000002, -0.1019375, 0.993359375, 192.0, 0.0, 0.0, 0.0, 0.0, 0.0, 0.0, 0.0, 0.0, 0.0, 1.645921956326097E9, 0.0, 2022-02-27 11:32:36.326
208.0, -661.7904498327315, -3902.2569539853284, -1584.7833853701813, -9779.894027697328, -222.71278175267958, 291.1538232748298, -5298.14574696371, -1267.5674280604635, -1289.9638760046812, -5086.608837438684, -3761.820943572634, -2773.896190392517, -3144.778686139427, -2159.37968008276, -9235.293774043772, -14497.475564178892, 0.012046875000000002, -0.1019375, 0.993359375, 192.0, 0.0, 0.0, 0.0, 0.0, 0.0, 0.0, 0.0, 0.0, 0.0, 1.645921956333913E9, 0.0, 2022-02-27 11:32:36.333
210.0, -380.7396150517005, -3711.596573781559, -1445.509665669163, -9620.794310664452, -3.7774448129468934, 374.9952167266866, -5300.179755709142, -1331.2475480136334, -2919.607212496664, -5282.7900985229135, -3506.0052282816446, -2780.1770305844584, -2826.1322171845695, -1983.158526797119, -9378.099069368729, -14936.441473536668, 0.012046875000000002, -0.1019375, 0.993359375, 192.0, 0.0, 0.0, 0.0, 0.0, 0.0, 0.0, 0.0, 0.0, 0.0, 1.645921956342111E9, 0.0, 2022-02-27 11:32:36.342
212.0, -919.2378424689582, -4100.785148237365, -1816.3474579271626, -10030.121806874491, -484.58581979105713, 83.57317251839311, -5454.026812795021, -1485.2957707996097, -2662.4950960272668, -5677.03016722562, -3856.7935057632335, -2923.049381142781, -3197.484099565041, -2316.400684881292, -9506.420434286647, -15181.550703233564, 0.012046875000000002, -0.1019375, 0.993359375, 192.0, 0.0, 0.0, 0.0, 0.0, 0.0, 0.0, 0.0, 0.0, 0.0, 1.645921956350466E9, 0.0, 2022-02-27 11:32:36.350
214.0, -329.9788033936982, -3653.9067213424114, -1386.8810399628926, -9553.292042409426, 38.69086965213653, 448.688918195834, -5194.8583358357355, -1176.104089749347, -1548.282986674665, -4906.92316376247, -3564.767964454647, -2709.1655384499477, -2945.53523606482, -1994.1332333246748, -9190.702043855434, -14408.023882868754, 0.01, -0.106, 0.998, 192.0, 0.0, 40.0, 126.0, 88.0, 15.5, 24.0, 0.0, 0.0, 0.0, 1.645921956356783E9, 0.0, 2022-02-27 11:32:36.356
216.0, -761.9486167369624, -3986.880658493121, -1755.7965821977357, -9959.087962995525, -380.337283651505, 107.24366989656329, -5535.498921334615, -1594.9087256084354, -3734.3282978926063, -5762.011499644697, -3664.8814278699674, -2912.9463926489825, -2948.686832033018, -2171.00258719952, -9600.722444143586, -15447.514110507263, 0.01, -0.106, 0.998, 192.0, 0.0, 0.0, 0.0, 0.0, 0.0, 0.0, 0.0, 0.0, 0.0, 1.645921956363767E9, 0.0, 2022-02-27 11:32:36.363
218.0, -618.0257341892403, -3860.2133226648957, -1592.248868018254, -9790.153478402315, -230.49118882312644, 281.11789001439695, -5299.017464997467, -1263.745279758606, -1286.8793352698488, -5083.0996135592, -3754.333109180106, -2768.7776409122516, -3157.697994434595, -2173.7742035119777, -9247.564881749735, -14514.082910309186, 0.01, -0.106, 0.998, 192.0, 0.0, 0.0, 0.0, 0.0, 0.0, 0.0, 0.0, 0.0, 0.0, 1.645921956371852E9, 0.0, 2022-02-27 11:32:36.371
220.0, -325.6872684582792, -3656.0301370656657, -1440.7263923557273, -9611.607743693321, 9.611250115782036, 384.8299842870217, -5318.418779184673, -1323.871472343382, -2872.154459018047, -5262.025327923933, -3501.154899734843, -2770.856353146595, -2823.60647006112, -1988.835869888767, -9374.366328044693, -14912.703920925132, 0.01, -0.106, 0.998, 192.0, 0.0, 0.0, 0.0, 0.0, 0.0, 0.0, 0.0, 0.0, 0.0, 1.645921956378679E9, 0.0, 2022-02-27 11:32:36.378
222.0, -871.8744959681626, -4058.540351216835, -1813.687600336981, -10034.480397043277, -476.2262673647723, 82.12030912879816, -5466.052051311976, -1500.539660518129, -2662.740965216275, -5665.630777553413, -3850.065630682186, -2921.2388898419013, -3188.6998639941057, -2314.858414513876, -9515.40583555768, -15189.19499983728, 0.01, -0.106, 0.998, 192.0, 0.0, 0.0, 0.0, 0.0, 0.0, 0.0, 0.0, 0.0, 0.0, 1.645921956386283E9, 0.0, 2022-02-27 11:32:36.386
224.0, -275.6864161117573, -3610.2537644211966, -1380.220220115211, -9551.07921970835, 55.02999484896599, 459.685976467845, -5198.881649837691, -1163.363595409822, -1517.482282815252, -4895.143794434523, -3552.1615805818537, -2699.1743086784254, -2939.3885063396106, -1992.3003902793398, -9189.495049654848, -14405.18521132293, 0.014, -0.10400000000000001, 0.992, 192.0, 0.0, 56.0, 126.0, 96.0, 15.5, 0.0, 0.0, 0.0, 0.0, 1.645921956394421E9, 0.0, 2022-02-27 11:32:36.394
226.0, -693.7981478927312, -3933.459989244937, -1740.2174163123866, -9945.92278551135, -348.57545478051367, 128.4107718957391, -5515.270592602563, -1567.7737078396926, -3704.108739389031, -5732.820121386066, -3637.4558374233056, -2883.4197382235216, -2936.214558626957, -2149.477857289059, -9593.771051617987, -15435.53357547922, 0.014, -0.10400000000000001, 0.992, 192.0, 0.0, 0.0, 0.0, 0.0, 0.0, 0.0, 0.0, 0.0, 0.0, 1.645921956402397E9, 0.0, 2022-02-27 11:32:36.402
228.0, -573.165783067439, -3821.8353774351335, -1590.7065976508377, -9789.907609213305, -214.37558107085005, 286.9963988061427, -5286.165211935665, -1259.073765167447, -1269.8249542504495, -5075.298854744298, -3737.435190371894, -2751.4326872149336, -3138.207273269567, -2161.6595580172016, -9242.044000869275, -14513.077081808697, 0.014, -0.10400000000000001, 0.992, 192.0, 0.0, 0.0, 0.0, 0.0, 0.0, 0.0, 0.0, 0.0, 0.0, 1.645921956408955E9, 0.0, 2022-02-27 11:32:36.408
230.0, -266.5445526295367, -3603.861165506979, -1425.3036886815655, -9598.37551097578, 31.091276537332124, 398.3751414269378, -5319.312848962885, -1321.5692426644855, -2821.8853857380614, -5226.687219940093, -3481.64182682536, -2748.728126135841, -2808.630801276064, -1964.584227154759, -9368.018432619385, -14901.192772530649, 0.014, -0.10400000000000001, 0.992, 192.0, 0.0, 0.0, 0.0, 0.0, 0.0, 0.0, 0.0, 0.0, 0.0, 1.645921956416975E9, 0.0, 2022-02-27 11:32:36.416
232.0, -824.8240738897413, -4014.552118128791, -1804.9257165105007, -10023.572745749087, -468.15728761640645, 94.21260287911927, -5472.958740348666, -1498.6174104949725, -2671.2793315982026, -5649.001079678665, -3824.070551880664, -2893.5450784617756, -3173.075994619846, -2296.753501505077, -9521.373751327248, -15200.348520320478, 0.014, -0.10400000000000001, 0.992, 192.0, 0.0, 0.0, 0.0, 0.0, 0.0, 0.0, 0.0, 0.0, 0.0, 1.645921956431123E9, 0.0, 2022-02-27 11:32:36.431
234.0, -250.3171861549838, -3578.7154529947584, -1378.4097288143312, -9546.854740006298, 48.16800930118672, 463.4857730252472, -5210.415149976629, -1162.6259878427968, -1475.2151340502662, -4867.986424921325, -3545.7242781787254, -2681.717596258831, -2944.797628497795, -1983.6055616862252, -9186.969302531399, -14393.18232455043, 0.012, -0.108, 0.99, 192.0, 0.0, 48.0, 126.0, 80.0, 15.0, 120.0, 0.0, 0.0, 0.0, 1.645921956438609E9, 0.0, 2022-02-27 11:32:36.438
236.0, -665.5008394123125, -3903.3745412080934, -1731.0532010857107, -9936.222128417747, -351.0341466705974, 130.31067017444016, -5531.117979421375, -1575.9991497992457, -3695.4139107959168, -5713.329400221039, -3630.236223964241, -2876.021310808815, -2933.957032436971, -2135.6644792156794, -9592.09467078384, -15434.661857445462, 0.012, -0.108, 0.99, 192.0, 0.0, 0.0, 0.0, 0.0, 0.0, 0.0, 0.0, 0.0, 0.0, 1.645921956446751E9, 0.0, 2022-02-27 11:32:36.446
238.0, -565.9014661194642, -3812.4252930194493, -1593.634676174483, -9795.048510438028, -238.9401482272325, 272.6689306102909, -5310.618020369771, -1281.425509622754, -1285.8288032804494, -5081.423232725052, -3745.235949186796, -2750.6280244145423, -3151.104229820279, -2163.3582905958046, -9250.224739339918, -14533.126596585107, 0.012, -0.108, 0.99, 192.0, 0.0, 0.0, 0.0, 0.0, 0.0, 0.0, 0.0, 0.0, 0.0, 1.645921956454576E9, 0.0, 2022-02-27 11:32:36.454
240.0, -245.310395396995, -3583.5881332860154, -1416.1618251993448, -9594.016920806995, 27.045610790921547, 390.01558900065294, -5330.756942124002, -1332.029859069569, -2785.317931809179, -5211.309219754841, -3473.8410680104575, -2741.0391260432157, -2819.5608043147095, -1970.3062737353175, -9367.392583774637, -14900.61162717481, 0.012, -0.108, 0.99, 192.0, 0.0, 0.0, 0.0, 0.0, 0.0, 0.0, 0.0, 0.0, 0.0, 1.645921956461338E9, 0.0, 2022-02-27 11:32:36.461
242.0, -806.9426783254955, -3995.3072661527717, -1797.527289095794, -10023.4162835379, -474.4157760638924, 81.87443993978977, -5494.75169119259, -1515.7611984921932, -2679.974160191317, -5643.279033098106, -3813.9005081534992, -2887.8453836256726, -3172.405442286187, -2291.6126002803567, -9524.435940317624, -15218.162860651359, 0.012, -0.108, 0.99, 192.0, 0.0, 0.0, 0.0, 0.0, 0.0, 0.0, 0.0, 0.0, 0.0, 1.645921956469286E9, 0.0, 2022-02-27 11:32:36.469
244.0, -236.23558714814035, -3565.70673772177, -1370.9218944218035, -9549.805170274398, 42.89299760973425, 452.39930777541497, -5215.891327368179, -1177.2887322054783, -1457.736069886216, -4862.130267874035, -3535.7106966627475, -2672.218104865325, -2943.9035587195826, -1982.1526982966302, -9188.645683365547, -14406.571019479159, 0.014, -0.108, 0.988, 192.0, 0.0, 56.0, 126.0, 80.0, 15.0, 112.0, 0.0, 0.0, 0.0, 1.645921956477325E9, 0.0, 2022-02-27 11:32:36.477
246.0, -645.4066211469915, -3883.1015089871303, -1718.916203846479, -9930.857709748472, -353.7834112386002, 126.51087361703797, -5544.841950516934, -1591.6230191735053, -3687.7472624477464, -5698.711359347268, -3617.8086540470904, -2859.637482123075, -2924.211671854457, -2133.988098381531, -9592.653464395222, -15441.05445635968, 0.014, -0.108, 0.988, 192.0, 0.0, 0.0, 0.0, 0.0, 0.0, 0.0, 0.0, 0.0, 0.0, 1.645921956484388E9, 0.0, 2022-02-27 11:32:36.484
248.0, -544.3096809756375, -3790.6770456644354, -1577.4520131888407, -9789.50527781311, -230.80411324550073, 277.0945760124417, -5310.662723858682, -1280.2855706555333, -1268.2156286496675, -5066.805191851281, -3731.8025507691564, -2735.2723759737464, -3147.3491367517877, -2156.9433399371314, -9248.12367536112, -14534.802977419255, 0.014, -0.108, 0.988, 192.0, 0.0, 0.0, 0.0, 0.0, 0.0, 0.0, 0.0, 0.0, 0.0, 1.645921956491285E9, 0.0, 2022-02-27 11:32:36.491
250.0, -224.54562479801476, -3568.031319145122, -1399.8897552358812, -9584.338615457847, 33.01352656048853, 401.10205425048525, -5322.710314120092, -1337.3048707610214, -2763.256760031791, -5199.909830082635, -3463.82748649448, -2731.517282905255, -2810.7542169993185, -1964.4054131991165, -9360.016508104385, -14889.99454855854, 0.014, -0.108, 0.988, 192.0, 0.0, 0.0, 0.0, 0.0, 0.0, 0.0, 0.0, 0.0, 0.0, 1.645921956499084E9, 0.0, 2022-02-27 11:32:36.499
252.0, -803.4111027015571, -3993.5638300852575, -1798.913097252023, -10024.064484127102, -477.99205517674153, 84.8248702078903, -5505.614638997869, -1515.1129979029893, -2696.4250441104227, -5648.844617467477, -3810.3465807851057, -2885.4537469689544, -3166.303416049888, -2296.507632316069, -9523.11718739476, -15225.270715388146, 0.014, -0.108, 0.988, 192.0, 0.0, 0.0, 0.0, 0.0, 0.0, 0.0, 0.0, 0.0, 0.0, 1.645921956507065E9, 0.0, 2022-02-27 11:32:36.507
254.0, -235.4532760922046, -3561.638720230904, -1376.6886444912725, -9551.101571452806, 38.06502080738793, 449.7618019296887, -5207.934106342091, -1169.0185867570146, -1442.2686627231435, -4858.241064338811, -3538.929347864312, -2667.032500151694, -2943.9482622084934, -1990.6687129341024, -9180.129668728074, -14392.690586172414, 0.012, -0.10400000000000001, 0.992, 192.0, 0.0, 48.0, 126.0, 96.0, 15.5, 0.0, 0.0, 0.0, 0.0, 1.645921956515318E9, 0.0, 2022-02-27 11:32:36.515
0.0, -623.2336906473269, -3864.2142849223956, -1714.043523555222, -9926.342657368501, -339.9029779318545, 137.53028363350435, -5545.356040639405, -1588.3820162274858, -3683.366320534506, -5689.435385398315, -3611.684276066336, -2863.28081646929, -2919.4954537743874, -2128.646031456713, -9579.04125202194, -15432.136110322013, 0.012, -0.10400000000000001, 0.992, 192.0, 0.0, 0.0, 0.0, 0.0, 0.0, 0.0, 0.0, 0.0, 0.0, 1.645921956521516E9, 0.0, 2022-02-27 11:32:36.521
2.0, -536.6206808830119, -3780.328187981628, -1577.3626062110195, -9792.478059825668, -228.32306961096165, 276.17815448977404, -5315.28953496093, -1288.9133440152818, -1273.0212537075583, -5063.0948022717, -3725.298193132662, -2729.4609224153664, -3150.500732719986, -2162.3971655842265, -9245.7320387044, -14542.380218789605, 0.012, -0.10400000000000001, 0.992, 192.0, 0.0, 0.0, 0.0, 0.0, 0.0, 0.0, 0.0, 0.0, 0.0, 1.645921956529858E9, 0.0, 2022-02-27 11:32:36.529
4.0, -216.4766450496489, -3561.7728306976355, -1393.6536185328507, -9582.617531134789, 43.25062552101917, 405.0583130190746, -5307.2652587014745, -1331.7616381361054, -2731.740800349808, -5185.939989798068, -3461.346442859941, -2720.9225560334394, -2809.927202454472, -1969.3675004681947, -9343.453865463003, -14880.875036820775, 0.012, -0.10400000000000001, 0.992, 192.0, 0.0, 0.0, 0.0, 0.0, 0.0, 0.0, 0.0, 0.0, 0.0, 1.645921956536758E9, 0.0, 2022-02-27 11:32:36.536
6.0, -796.4597101759566, -3984.578428814224, -1789.234791902875, -10026.098492872536, -472.64998825192316, 87.50707954252715, -5494.952856892688, -1516.3199921035757, -2738.8263033421404, -5666.077812442519, -3805.496252238304, -2884.246752768368, -3167.2868928059215, -2288.8409839678984, -9520.479681549035, -15241.900413262894, 0.012, -0.10400000000000001, 0.992, 192.0, 0.0, 0.0, 0.0, 0.0, 0.0, 0.0, 0.0, 0.0, 0.0, 1.645921956544246E9, 0.0, 2022-02-27 11:32:36.544
8.0, -225.6855637652354, -3552.0721736040323, -1359.1201733494013, -9546.474760350557, 47.18453254515321, 459.6412729789344, -5209.297562753864, -1184.2177729866235, -1408.0257902176131, -4851.781410191227, -3534.280185017608, -2665.937264673384, -2944.3282418642334, -1986.287771020862, -9167.947967999931, -14392.71293791687, 0.01, -0.106, 0.988, 192.0, 0.0, 40.0, 126.0, 88.0, 15.0, 112.0, 0.0, 0.0, 0.0, 1.645921956559348E9, 0.0, 2022-02-27 11:32:36.559
10.0, -604.7935014716985, -3851.674956282968, -1689.8589360545798, -9911.523450794632, -321.39573352286027, 155.0987547753757, -5521.372618838861, -1552.798039054637, -3668.927093616378, -5689.748309820689, -3600.530755583138, -2855.256540209835, -2914.1086833606582, -2117.224290040051, -9568.357118172302, -15421.697845661385, 0.01, -0.106, 0.988, 192.0, 0.0, 0.0, 0.0, 0.0, 0.0, 0.0, 0.0, 0.0, 0.0, 1.645921956566297E9, 0.0, 2022-02-27 11:32:36.566
12.0, -557.3630997375369, -3794.6109526885693, -1587.309132493631, -9804.771519276086, -246.182113430752, 267.30451194101715, -5320.363380952284, -1292.7131405726839, -1315.9589548062033, -5089.201639795499, -3736.0940857045757, -2745.2412540008136, -3156.111020578268, -2173.9083139787094, -9248.838931183689, -14566.40834407906, 0.01, -0.106, 0.988, 192.0, 0.0, 0.0, 0.0, 0.0, 0.0, 0.0, 0.0, 0.0, 0.0, 1.645921956573894E9, 0.0, 2022-02-27 11:32:36.573
14.0, -219.53883404002596, -3555.603749227971, -1394.190060399778, -9578.303644454914, 38.9367388411449, 409.8639380769656, -5312.428511670651, -1312.9861727936475, -2694.346331876079, -5172.8418675472585, -3464.6321492948714, -2718.1732914654367, -2809.1448913985364, -1971.4015092136276, -9337.262432248883, -14856.556338853401, 0.01, -0.106, 0.988, 192.0, 0.0, 0.0, 0.0, 0.0, 0.0, 0.0, 0.0, 0.0, 0.0, 1.645921956581854E9, 0.0, 2022-02-27 11:32:36.581
16.0, -800.2371549889035, -3987.104175937674, -1797.2143646734196, -10031.574670264086, -479.3108080996046, 80.33216957237359, -5477.026757839532, -1511.8496432125144, -2747.6552424019865, -5653.538483803092, -3814.7275226983456, -2895.3332180182006, -3174.662968476173, -2300.6203532958452, -9519.429149559635, -15238.212375427769, 0.01, -0.106, 0.988, 192.0, 0.0, 0.0, 0.0, 0.0, 0.0, 0.0, 0.0, 0.0, 0.0, 1.64592195659001E9, 0.0, 2022-02-27 11:32:36.590
18.0, -233.68748828023533, -3559.962339396756, -1367.8150019425157, -9560.019917490474, 43.54119819893816, 446.654909450401, -5204.626048162705, -1184.620104386819, -1410.0821507075013, -4852.474314269342, -3541.991536854689, -2674.877962455507, -2954.185361169024, -1997.5306984818815, -9161.95770048591, -14392.601179194591, 0.01, -0.106, 0.982, 192.0, 0.0, 40.0, 126.0, 88.0, 15.0, 88.0, 0.0, 0.0, 0.0, 1.645921956596418E9, 0.0, 2022-02-27 11:32:36.596
20.0, -608.1462631399945, -3852.9266539724654, -1693.658732611982, -9914.67504676283, -319.92051838880997, 141.28537670199594, -5507.112205876375, -1571.0370625301675, -3675.409099508417, -5676.829001525522, -3608.800901031602, -2861.738546101874, -2924.189320110002, -2137.7208397055674, -9564.959653015096, -15426.257601530267, 0.01, -0.106, 0.982, 192.0, 0.0, 0.0, 0.0, 0.0, 0.0, 0.0, 0.0, 0.0, 0.0, 1.645921956604441E9, 0.0, 2022-02-27 11:32:36.604
22.0, -551.6857566458889, -3778.5624001696588, -1593.344103496564, -9807.587839077454, -249.26665416558436, 268.75737533061215, -5323.827901342857, -1276.8881054983265, -1316.2718792285775, -5086.318264760765, -3739.983289239799, -2753.1761232824474, -3154.9710816110473, -2187.8110990299106, -9245.888500915587, -14571.996280192887, 0.01, -0.106, 0.982, 192.0, 0.0, 0.0, 0.0, 0.0, 0.0, 0.0, 0.0, 0.0, 0.0, 1.645921956611387E9, 0.0, 2022-02-27 11:32:36.611
24.0, -205.25606933308475, -3540.7174874207367, -1392.6254382879065, -9567.530103627456, 39.65199466371473, 417.4858829362253, -5290.3002846598965, -1299.5304226315527, -2661.153991359948, -5142.801122999325, -3455.4679340681955, -2707.4668058713446, -2816.0739321796814, -1953.363651438195, -9335.161368270084, -14843.145292180216, 0.01, -0.106, 0.982, 192.0, 0.0, 0.0, 0.0, 0.0, 0.0, 0.0, 0.0, 0.0, 0.0, 1.645921956619465E9, 0.0, 2022-02-27 11:32:36.619
26.0, -789.6200763726326, -3975.16834439854, -1795.4709286059058, -10026.50082427273, -466.525610271169, 76.39826254823954, -5464.085097799909, -1543.4326581278633, -2782.3898532855337, -5654.074925670019, -3804.13279582653, -2874.479040441399, -3162.950654381592, -2287.4328240672144, -9520.300867593392, -15252.472788390254, 0.01, -0.106, 0.982, 192.0, 0.0, 0.0, 0.0, 0.0, 0.0, 0.0, 0.0, 0.0, 0.0, 1.645921956626182E9, 0.0, 2022-02-27 11:32:36.626
28.0, -223.65155501980246, -3545.2995950340746, -1369.4690310322085, -9553.247338920515, 42.065983064887895, 453.5392467426356, -5208.448196464562, -1149.237292914068, -1374.2746560900994, -4821.897127854482, -3531.2626995161418, -2656.929511657895, -2943.0765441747362, -1981.8621256187114, -9162.561197586203, -14386.32033900265, 0.012, -0.106, 0.986, 192.0, 0.0, 48.0, 126.0, 88.0, 15.0, 104.0, 0.0, 0.0, 0.0, 1.645921956634019E9, 0.0, 2022-02-27 11:32:36.634
30.0, -588.6108384860562, -3826.8421681931222, -1690.082453499133, -9910.204697871768, -314.8913758863659, 141.7771150800127, -5520.210328127186, -1569.2936264626535, -3651.9397678303444, -5651.16919889083, -3582.604656529982, -2838.671545823997, -2901.055264598759, -2143.0405548859308, -9565.6078536043, -15416.2887235032, 0.012, -0.106, 0.986, 192.0, 0.0, 0.0, 0.0, 0.0, 0.0, 0.0, 0.0, 0.0, 0.0, 1.645921956642178E9, 0.0, 2022-02-27 11:32:36.642
32.0, -552.8703991020202, -3785.692606650902, -1596.763920398226, -9806.872583254884, -252.1723809447743, 256.8438955359335, -5301.699674332103, -1286.2087829361897, -1307.1970709797229, -5086.0276920828455, -3732.428399613905, -2749.1081057915817, -3161.1178113362566, -2195.1648229557068, -9252.281099829806, -14573.516198815847, 0.012, -0.106, 0.986, 192.0, 0.0, 0.0, 0.0, 0.0, 0.0, 0.0, 0.0, 0.0, 0.0, 1.645921956648782E9, 0.0, 2022-02-27 11:32:36.648
34.0, -204.4067030437831, -3534.637812928893, -1394.8159092445267, -9566.27840593796, 44.77054414398005, 404.18659498531764, -5303.308999932886, -1306.459463412698, -2663.4338692943898, -5156.770963283892, -3460.1170969148993, -2708.0479512271827, -2818.0185339472932, -1971.423860958083, -9336.189548515029, -14848.465007360579, 0.012, -0.106, 0.986, 192.0, 0.0, 0.0, 0.0, 0.0, 0.0, 0.0, 0.0, 0.0, 0.0, 1.645921956657219E9, 0.0, 2022-02-27 11:32:36.657
36.0, -802.0923497786939, -3977.1800013995176, -1808.9713822569113, -10033.094588887046, -486.7986424921325, 73.35842530231778, -5499.0879296169205, -1521.6844107728496, -2813.481129822866, -5658.925254216821, -3807.6420197060133, -2895.243811040379, -3165.3199392938545, -2297.5134608165577, -9533.93543171113, -15262.016983272671, 0.014, -0.10300000000000001, 0.987, 192.0, 0.0, 64.0, 126.0, 112.0, 15.0, 112.0, 0.0, 0.0, 0.0, 1.645921956664607E9, 0.0, 2022-02-27 11:32:36.664
38.0, -238.00137496010962, -3558.509476007161, -1383.6176852724177, -9561.428077391158, 32.9241195826673, 438.78709540213293, -5215.086664567789, -1171.589037369375, -1383.8412027169709, -4844.271224054244, -3544.27141478913, -2666.093726884571, -2966.948207253004, -1992.5015559794374, -9168.015023233298, -14382.60994942307, 0.014, -0.10300000000000001, 0.987, 192.0, 0.0, 0.0, 0.0, 0.0, 0.0, 0.0, 0.0, 0.0, 0.0, 1.645921956678457E9, 0.0, 2022-02-27 11:32:36.678
40.0, -601.7089607368662, -3856.5029330853145, -1703.046465283211, -9907.589543770498, -320.434608511282, 136.3903446662837, -5521.797301983512, -1583.59874291405, -3676.884314642467, -5672.068079956542, -3598.7426160267137, -2840.213816191413, -2919.4507502854767, -2125.673249444157, -9565.451391393113, -15414.835860113606, 0.014, -0.10300000000000001, 0.987, 192.0, 0.0, 0.0, 0.0, 0.0, 0.0, 0.0, 0.0, 0.0, 0.0, 1.645921956686388E9, 0.0, 2022-02-27 11:32:36.686
42.0, -556.200809025861, -3802.791691159212, -1606.531632725195, -9815.27683917008, -261.6048171049139, 255.30162516851726, -5319.62577338526, -1297.4740621416643, -1323.580899665463, -5110.435797028041, -3742.330222407606, -2735.8758730740396, -3165.521104993952, -2191.834413031866, -9256.170303365028, -14580.042908196798, 0.014, -0.10300000000000001, 0.987, 192.0, 0.0, 0.0, 0.0, 0.0, 0.0, 0.0, 0.0, 0.0, 0.0, 1.645921956694282E9, 0.0, 2022-02-27 11:32:36.694
44.0, -207.17831935624116, -3556.631929472915, -1391.3960923428647, -9565.89842628222, 53.26420703699673, 421.173920771351, -5297.832822541335, -1290.0532829825024, -2646.781819675186, -5162.0459749753445, -3461.1676289042985, -2720.8778525445287, -2830.468455608899, -1970.9991778134322, -9334.84844384771, -14840.50778633449, 0.014, -0.10300000000000001, 0.987, 192.0, 0.0, 0.0, 0.0, 0.0, 0.0, 0.0, 0.0, 0.0, 0.0, 1.645921956701422E9, 0.0, 2022-02-27 11:32:36.701
46.0, -824.8687773786519, -4015.423836162548, -1808.9713822569113, -10027.238431839756, -474.25931385270525, 78.1416986157535, -5488.493202745104, -1521.5503003061176, -2858.5198949003097, -5695.313894190061, -3802.232897547829, -2893.2992092727673, -3155.8651513892596, -2290.472661313136, -9530.22504213155, -15271.337660710535, 0.015, -0.10350000000000001, 0.9864999999999999, 192.0, 0.0, 64.0, 126.0, 96.0, 15.0, 104.0, 0.0, 0.0, 0.0, 1.645921956708983E9, 0.0, 2022-02-27 11:32:36.708
48.0, -304.54251820355876, -3634.7512763442132, -1384.3105893505324, -9555.840141277331, 40.680174908658856, 450.20883681879485, -5202.145004528165, -1156.9486447511488, -1363.8810949183817, -4864.34309057511, -3558.017737629144, -2670.944055431373, -2975.2407044459233, -2002.1128060952194, -9162.449438863927, -14372.46225744036, 0.015, -0.10350000000000001, 0.9864999999999999, 192.0, 0.0, 0.0, 0.0, 0.0, 0.0, 0.0, 0.0, 0.0, 0.0, 1.645921956717E9, 0.0, 2022-02-27 11:32:36.717
50.0, -688.4560809679128, -3945.68639346199, -1683.9804272628342, -9886.109517348948, -282.72721561517903, 172.4213567282387, -5494.528173748037, -1537.3306318915645, -3684.5509629906373, -5693.525754633636, -3608.1303486979427, -2869.315787472223, -2906.7549594348625, -2112.7539411489893, -9555.594272088323, -15395.814525582138, 0.015, -0.10350000000000001, 0.9864999999999999, 192.0, 0.0, 0.0, 0.0, 0.0, 0.0, 0.0, 0.0, 0.0, 0.0, 1.645921956724868E9, 0.0, 2022-02-27 11:32:36.724
52.0, -746.4141543405241, -3986.2995131372827, -1625.1953393453766, -9833.448807412244, -251.23360767765138, 263.6835293392574, -5300.71619757607, -1282.0513584675025, -1431.2716044511324, -5185.783527586881, -3793.4710137213488, -2790.749405711819, -3177.7251574665497, -2189.95686649762, -9261.177094123017, -14596.203219437984, 0.015, -0.10350000000000001, 0.9864999999999999, 192.0, 0.0, 0.0, 0.0, 0.0, 0.0, 0.0, 0.0, 0.0, 0.0, 1.645921956731075E9, 0.0, 2022-02-27 11:32:36.731
54.0, -428.7735138861554, -3776.7072053798684, -1394.3465226109652, -9577.70014735462, 80.57803876138196, 430.4051912313928, -5269.244941382997, -1271.3672246178658, -2664.2385320947806, -5208.31408599783, -3511.5261091621055, -2767.7718124117628, -2812.2964873667347, -1964.874799832678, -9311.356760425182, -14808.20951559657, 0.015, -0.10350000000000001, 0.9864999999999999, 192.0, 0.0, 0.0, 0.0, 0.0, 0.0, 0.0, 0.0, 0.0, 0.0, 1.645921956738686E9, 0.0, 2022-02-27 11:32:36.738
56.0, -1084.3054752714008, -4258.230836180548, -1822.0471527632658, -10040.828292468583, -465.5644852595908, 94.25730636802989, -5472.444650226194, -1498.4609482837855, -2947.703355276985, -5765.163095612896, -3875.2783984277726, -2958.3651373821663, -3169.2985498068992, -2295.1888793932058, -9525.486472307024, -15260.631175116441, 0.0155, -0.10275000000000001, 0.98525, 192.0, 0.0, 64.0, 126.0, 104.0, 15.0, 96.0, 0.0, 0.0, 0.0, 1.645921956746586E9, 0.0, 2022-02-27 11:32:36.746
58.0, -535.167817493417, -3844.164770145985, -1401.8567087479485, -9565.56315011539, 41.26132026449684, 471.5994562625237, -5187.236390976476, -1133.8592927288166, -1465.9168083568584, -4921.429445913965, -3627.9116425408893, -2734.355954451079, -2979.0628527477807, -1990.2216780449962, -9159.588415573648, -14356.011373521254, 0.0155, -0.10275000000000001, 0.98525, 192.0, 0.0, 0.0, 0.0, 0.0, 0.0, 0.0, 0.0, 0.0, 0.0, 1.645921956756234E9, 0.0, 2022-02-27 11:32:36.756
60.0, -884.7714525188748, -4131.071761974306, -1707.919145574468, -9900.325226822522, -289.32098022949464, 178.65749343126936, -5482.4805834866265, -1524.8807102299584, -3770.895751821489, -5747.862845404487, -3675.766727419702, -2918.7131427184518, -2917.9308316625156, -2108.127130046741, -9557.56122560039, -15381.598816108564, 0.0155, -0.10275000000000001, 0.98525, 192.0, 0.0, 0.0, 0.0, 0.0, 0.0, 0.0, 0.0, 0.0, 0.0, 1.645921956762275E9, 0.0, 2022-02-27 11:32:36.762
62.0, -864.2525511089029, -4091.710339988511, -1627.408162046452, -9825.13395847487, -247.05383146450896, 275.46289866720423, -5295.485889373528, -1269.3108641279775, -1455.8361716075149, -5213.142062800177, -3834.5535200302033, -2821.1477781710364, -3189.258657605488, -2192.3708548987934, -9256.97496616542, -14570.521065058836, 0.0155, -0.10275000000000001, 0.98525, 192.0, 0.0, 0.0, 0.0, 0.0, 0.0, 0.0, 0.0, 0.0, 0.0, 1.645921956769167E9, 0.0, 2022-02-27 11:32:36.769
64.0, -467.84436319403216, -3799.170708557452, -1399.643886046873, -9562.925644269662, 80.39922480573951, 446.69961293931163, -5279.862019999268, -1263.7005762696954, -2704.6281343255205, -5224.250879794465, -3544.584339211505, -2782.993350385827, -2838.291566168257, -1963.4442881875384, -9319.51514715137, -14794.97728287903, 0.0155, -0.10275000000000001, 0.98525, 192.0, 0.0, 0.0, 0.0, 0.0, 0.0, 0.0, 0.0, 0.0, 0.0, 1.645921956777346E9, 0.0, 2022-02-27 11:32:36.777
66.0, -1054.8458760793062, -4227.653649765689, -1823.008277774844, -10039.017801167704, -450.54411298562445, 98.30297211444046, -5491.08600510192, -1508.407474566397, -3015.719713654484, -5769.834610204054, -3871.232732681362, -2954.3194716357557, -3161.0954595918015, -2285.8682019553426, -9536.684696279133, -15274.131628767447, 0.01375, -0.10237500000000001, 0.985625, 192.0, 0.0, 48.0, 126.0, 104.0, 15.0, 104.0, 0.0, 0.0, 0.0, 1.645921956784485E9, 0.0, 2022-02-27 11:32:36.784
68.0, -476.71800574278905, -3780.305836237173, -1395.933496467292, -9570.32407168437, 62.54018098594916, 464.96098815929753, -5189.896248566657, -1135.8262462408836, -1405.2765256496104, -4909.292448674732, -3620.9155465263784, -2717.458035642867, -2976.023015501859, -2003.9009456516442, -9156.213302160895, -14348.948222273377, 0.01375, -0.10237500000000001, 0.985625, 192.0, 0.0, 0.0, 0.0, 0.0, 0.0, 0.0, 0.0, 0.0, 0.0, 1.645921956792005E9, 0.0, 2022-02-27 11:32:36.792
70.0, -768.2965121622697, -4018.351914686193, -1674.4138806359626, -9879.42634575681, -248.7078605542017, 184.42424350073858, -5461.0005570650765, -1527.0488294421232, -3718.1903383958747, -5705.1263100059405, -3628.4480844078166, -2889.3205987597225, -2890.415834238033, -2110.4964149590037, -9539.948050969608, -15372.121676459514, 0.01375, -0.10237500000000001, 0.985625, 192.0, 0.0, 0.0, 0.0, 0.0, 0.0, 0.0, 0.0, 0.0, 0.0, 1.645921956807065E9, 0.0, 2022-02-27 11:32:36.807
72.0, -780.5676198682332, -4001.0069609888747, -1625.955298656857, -9830.319563188501, -249.55722684350334, 259.72727057066805, -5302.750206321502, -1294.8142045514828, -1473.3375875160204, -5207.040036563878, -3801.584696958625, -2798.863088949095, -3186.2635238484772, -2202.4961951370474, -9268.530818048814, -14610.485984144925, 0.01375, -0.10237500000000001, 0.985625, 192.0, 0.0, 0.0, 0.0, 0.0, 0.0, 0.0, 0.0, 0.0, 0.0, 1.645921956813646E9, 0.0, 2022-02-27 11:32:36.813
74.0, -365.1604491663515, -3695.4809660292826, -1381.6283800158956, -9549.93928074113, 89.898716199245, 447.83955190653234, -5265.80277273688, -1265.7345850151282, -2605.878127321974, -5165.957530255024, -3498.8079665670357, -2742.3578789660787, -2828.188577674458, -1949.519151391882, -9312.720216836955, -14778.548750704378, 0.01375, -0.10237500000000001, 0.985625, 192.0, 0.0, 0.0, 0.0, 0.0, 0.0, 0.0, 0.0, 0.0, 0.0, 1.645921956821602E9, 0.0, 2022-02-27 11:32:36.821
76.0, -961.2591220449356, -4141.085343490284, -1807.8537950341458, -10034.368638320999, -452.4663630087809, 88.40114932073944, -5467.616673423848, -1518.3763525934642, -2958.186323426524, -5737.022249343664, -3833.4135810629823, -2920.5906892526973, -3157.3180147788544, -2289.667998512745, -9534.583632300333, -15275.003346801204, 0.012875000000000001, -0.10218750000000001, 0.9838125, 192.0, 0.0, 48.0, 126.0, 104.0, 15.0, 88.0, 0.0, 0.0, 0.0, 1.645921956829502E9, 0.0, 2022-02-27 11:32:36.829
78.0, -396.0952634924965, -3708.5343847911818, -1390.2338016311887, -9567.463048394091, 49.15148605722023, 457.0261188776635, -5193.450175935051, -1146.331566134878, -1372.5312200225856, -4888.639436798029, -3583.5881332860154, -2699.576640078621, -2975.1736492125574, -2000.5928874722586, -9152.122932925575, -14352.50214964177, 0.012875000000000001, -0.10218750000000001, 0.9838125, 192.0, 0.0, 0.0, 0.0, 0.0, 0.0, 0.0, 0.0, 0.0, 0.0, 1.645921956836666E9, 0.0, 2022-02-27 11:32:36.836
80.0, -701.0848165851613, -3949.5308935083026, -1679.688892327415, -9876.364156766434, -274.0994422554305, 174.79064164050124, -5504.362941308373, -1532.793227767137, -3695.8385939405675, -5680.539391105103, -3608.152700442398, -2871.819182851217, -2903.4245495110217, -2105.7801968789336, -9551.123923197261, -15375.51914161672, 0.012875000000000001, -0.10218750000000001, 0.9838125, 192.0, 0.0, 0.0, 0.0, 0.0, 0.0, 0.0, 0.0, 0.0, 0.0, 1.645921956844218E9, 0.0, 2022-02-27 11:32:36.844
82.0, -696.9050403720189, -3921.1218263056076, -1624.8600631785469, -9822.719970073696, -253.8040582900117, 246.62914831985813, -5293.09425271681, -1306.3700564348767, -1427.5835666160067, -5169.533809367873, -3775.880190835022, -2773.6950246924193, -3173.4783260200415, -2203.0773404928855, -9267.256768614861, -14603.199315452495, 0.012875000000000001, -0.10218750000000001, 0.9838125, 192.0, 0.0, 0.0, 0.0, 0.0, 0.0, 0.0, 0.0, 0.0, 0.0, 1.645921956852062E9, 0.0, 2022-02-27 11:32:36.852
84.0, -283.3307127154723, -3624.1565494723977, -1375.8169264575156, -9541.512673081479, 82.81321320691266, 437.78126690164413, -5264.796944236391, -1273.8929717413155, -2577.6925775638315, -5139.560120053306, -3477.9761407346896, -2720.766093822252, -2841.197292947447, -1970.3733289686834, -9309.412158657571, -14785.5895502078, 0.012875000000000001, -0.10218750000000001, 0.9838125, 192.0, 0.0, 0.0, 0.0, 0.0, 0.0, 0.0, 0.0, 0.0, 0.0, 1.645921956859222E9, 0.0, 2022-02-27 11:32:36.859
86.0, -882.2904088843356, -4069.80563042231, -1806.1550624555425, -10026.187899850358, -466.32444457107124, 73.7607567025133, -5503.647685485803, -1533.8214080120813, -2984.9413615395265, -5718.738522379223, -3805.6303627050356, -2897.6801511860076, -3154.43463974412, -2293.9148299592534, -9540.305678880892, -15299.053823835115, 0.0104375, -0.10309375000000001, 0.98690625, 192.0, 0.0, 32.0, 126.0, 96.0, 15.0, 120.0, 0.0, 0.0, 0.0, 1.645921956866204E9, 0.0, 2022-02-27 11:32:36.866
88.0, -331.49872201665903, -3646.9776805612664, -1388.6691795193171, -9567.32893792736, 32.85706434930138, 439.010612846686, -5207.55412668635, -1164.2129616991238, -1323.6479548988289, -4861.370308562554, -3567.5619325115604, -2674.5873897775878, -2987.8917918076268, -2016.842605691267, -9159.588415573648, -14356.279594454718, 0.0104375, -0.10309375000000001, 0.98690625, 192.0, 0.0, 0.0, 0.0, 0.0, 0.0, 0.0, 0.0, 0.0, 0.0, 1.645921956873806E9, 0.0, 2022-02-27 11:32:36.873
90.0, -618.1374929115168, -3874.876067027577, -1663.2827118972198, -9869.301005518557, -266.99158751864286, 171.5272869500264, -5486.727414933135, -1540.1022482040225, -3659.7852301341572, -5645.648318010369, -3578.246066361197, -2850.987357018871, -2892.1369185610915, -2104.863775356266, -9542.920832982163, -15370.534702603187, 0.0104375, -0.10309375000000001, 0.98690625, 192.0, 0.0, 0.0, 0.0, 0.0, 0.0, 0.0, 0.0, 0.0, 0.0, 1.645921956881937E9, 0.0, 2022-02-27 11:32:36.881
92.0, -633.3813826300362, -3864.393098878038, -1617.2604700637426, -9826.877394542384, -267.0586427520088, 248.03730822054249, -5310.886241303235, -1306.3030012015106, -1435.3396219419983, -5167.365690155708, -3763.854952318067, -2767.5259432227544, -3186.10706163729, -2213.9179365537093, -9269.179018638019, -14614.442242913514, 0.0104375, -0.10309375000000001, 0.98690625, 192.0, 0.0, 0.0, 0.0, 0.0, 0.0, 0.0, 0.0, 0.0, 0.0, 1.645921956888864E9, 0.0, 2022-02-27 11:32:36.888
94.0, -211.51455778057073, -3554.6873277053032, -1359.544856494052, -9531.74496075451, 86.7024167421361, 448.3759937734597, -5296.648180085204, -1265.0193291925584, -2520.40505652488, -5106.144262092622, -3453.9703671896896, -2702.504718602266, -2821.728923526874, -1960.8291340862675, -9301.723158564944, -14765.5847389203, 0.0104375, -0.10309375000000001, 0.98690625, 192.0, 0.0, 0.0, 0.0, 0.0, 0.0, 0.0, 0.0, 0.0, 0.0, 1.645921956896553E9, 0.0, 2022-02-27 11:32:36.896
96.0, -828.3780012581351, -4011.802853560788, -1798.1307861960872, -10023.393931793444, -467.08440388255167, 85.24955335254114, -5484.872220143345, -1514.1518728914111, -2997.3912832011324, -5700.65596111488, -3782.2504380047844, -2884.537325446287, -3137.6931831470947, -2286.762271733555, -9542.02676320395, -15300.417280246887, 0.01021875, -0.10354687500000001, 0.989453125, 192.0, 0.0, 40.0, 126.0, 96.0, 15.5, 0.0, 0.0, 0.0, 0.0, 1.645921956904371E9, 0.0, 2022-02-27 11:32:36.904
98.0, -287.19756450624044, -3601.313066639074, -1379.7955369705603, -9565.406687904202, 27.62675614675953, 445.3361565275379, -5193.40547244614, -1164.7941070549616, -1290.7908905495276, -4845.05353511018, -3560.7893539416023, -2666.7642792182305, -2990.7081116089958, -2023.391666816672, -9145.171540399973, -14347.27184143923, 0.01021875, -0.10354687500000001, 0.989453125, 192.0, 0.0, 0.0, 0.0, 0.0, 0.0, 0.0, 0.0, 0.0, 0.0, 1.645921956912538E9, 0.0, 2022-02-27 11:32:36.912
100.0, -569.4777452323134, -3830.776075217256, -1653.3138338701528, -9856.33699373448, -266.94688402973225, 181.18324055471905, -5507.670999487758, -1535.9001202464249, -3624.178901216853, -5612.835957149978, -3557.8389236735015, -2820.253708392824, -2885.833726624695, -2095.4089874516712, -9537.958745713086, -15356.631917551986, 0.01021875, -0.10354687500000001, 0.989453125, 192.0, 0.0, 0.0, 0.0, 0.0, 0.0, 0.0, 0.0, 0.0, 0.0, 1.645921956926152E9, 0.0, 2022-02-27 11:32:36.926
102.0, -603.5641555266566, -3833.9276711854545, -1613.7959496731698, -9822.541156118055, -271.9760265321763, 251.59123558893629, -5320.095160018821, -1297.2728964415667, -1415.580679843507, -5149.149018424633, -3748.2981381771733, -2742.871969088551, -3171.2207998300555, -2206.3853986722706, -9276.823315241732, -14618.912591804576, 0.01021875, -0.10354687500000001, 0.989453125, 192.0, 0.0, 0.0, 0.0, 0.0, 0.0, 0.0, 0.0, 0.0, 0.0, 1.645921956934153E9, 0.0, 2022-02-27 11:32:36.934
104.0, -185.8100516569676, -3534.7272199067143, -1357.3990890263426, -9536.12590266775, 80.01924514999928, 445.8949501389206, -5274.877580985735, -1259.4313930787318, -2504.848242383986, -5101.1151195901775, -3447.153085130821, -2691.9323434749062, -2817.705609524919, -1958.683366618558, -9303.667760332557, -14769.742163388988, 0.01021875, -0.10354687500000001, 0.989453125, 192.0, 0.0, 0.0, 0.0, 0.0, 0.0, 0.0, 0.0, 0.0, 0.0, 1.645921956942196E9, 0.0, 2022-02-27 11:32:36.942
106.0, -807.5908789146995, -3996.1119289531625, -1801.0141612308219, -10025.293830072145, -472.33706382954887, 77.67231198219204, -5486.973284122144, -1540.3257656485755, -2973.5643236117753, -5693.302237189083, -3773.4438506893935, -2882.883296356594, -3146.4103634846647, -2286.40464382227, -9545.31246963888, -15308.285094295157, 0.012, -0.106, 0.988, 192.0, 0.0, 48.0, 126.0, 88.0, 15.0, 112.0, 0.0, 0.0, 0.0, 1.645921956948759E9, 0.0, 2022-02-27 11:32:36.948
108.0, -271.12666024287466, -3587.3879298434176, -1382.4106910718313, -9561.092801224328, 18.149616497709335, 448.7783251736552, -5197.093510281266, -1147.426801613188, -1284.5324021020415, -4828.312078513155, -3549.9040543918677, -2651.81096217763, -2983.823774316761, -2011.9922771444653, -9154.738087026846, -14352.815074064145, 0.012, -0.106, 0.988, 192.0, 0.0, 0.0, 0.0, 0.0, 0.0, 0.0, 0.0, 0.0, 0.0, 1.645921956956793E9, 0.0, 2022-02-27 11:32:36.956
110.0, -545.8519513430538, -3809.072531351153, -1645.2001506328763, -9844.848197084451, -254.87694202386643, 188.78283366952346, -5477.22792353963, -1520.25389912771, -3622.413113404884, -5608.834994892478, -3555.8719701614345, -2819.5161008257987, -2889.09708131517, -2095.476042685037, -9538.875167235752, -15351.580423305086, 0.012, -0.106, 0.988, 192.0, 0.0, 0.0, 0.0, 0.0, 0.0, 0.0, 0.0, 0.0, 0.0, 1.645921956964725E9, 0.0, 2022-02-27 11:32:36.964
112.0, -597.2609635902601, -3824.718752469868, -1621.3284875546085, -9824.396350907846, -274.6135323779026, 242.15879942879673, -5320.7657123524805, -1298.9045737868041, -1434.937290541803, -5158.179123184576, -3749.8404085445895, -2746.515303434766, -3171.332558552332, -2209.2240702180948, -9280.086669932207, -14633.843557100721, 0.012, -0.106, 0.988, 192.0, 0.0, 0.0, 0.0, 0.0, 0.0, 0.0, 0.0, 0.0, 0.0, 1.645921956971793E9, 0.0, 2022-02-27 11:32:36.971
114.0, -179.61861844284755, -3527.574661681016, -1356.5720744814962, -9528.906289208686, 95.44194882416116, 447.72779318425575, -5259.410173822663, -1244.7239452271397, -2460.301215684559, -5087.1005758167, -3447.242492108642, -2695.8215470101295, -2822.086551438159, -1951.7990293263233, -9296.984588740419, -14748.508006156446, 0.012, -0.106, 0.988, 192.0, 0.0, 0.0, 0.0, 0.0, 0.0, 0.0, 0.0, 0.0, 0.0, 1.645921956978432E9, 0.0, 2022-02-27 11:32:36.978
116.0, -808.8872800931073, -4000.5375743553136, -1804.9704199994112, -10024.869146927495, -465.1174503704847, 71.10089911233176, -5498.998522639099, -1536.0342307131566, -3036.819760420294, -5710.490728675214, -3772.147449510986, -2891.5557732052534, -3124.148026007179, -2277.218076851139, -9548.531120840446, -15329.832175950072, 0.012, -0.106, 0.99, 192.0, 0.0, 48.0, 126.0, 88.0, 15.0, 120.0, 0.0, 0.0, 0.0, 1.645921956986429E9, 0.0, 2022-02-27 11:32:36.986
118.0, -284.40359644932704, -3600.955438727789, -1393.7877289995824, -9572.961577530095, 28.90080558071203, 434.09322906651846, -5198.658132393138, -1155.0934499613584, -1268.2379803941228, -4849.456828767876, -3566.9137319223564, -2659.4999622702558, -2977.967617269471, -2018.295469080862, -9152.011174203299, -14355.385524676505, 0.012, -0.106, 0.99, 192.0, 0.0, 0.0, 0.0, 0.0, 0.0, 0.0, 0.0, 0.0, 0.0, 1.645921956994443E9, 0.0, 2022-02-27 11:32:36.994
120.0, -548.198884510861, -3812.1570720859854, -1646.8094762336584, -9844.870548828907, -237.3978778598163, 186.6594179462693, -5480.334816018917, -1519.2704223716764, -3610.365523143473, -5611.114872826919, -3557.0789643620215, -2827.4956735963433, -2871.9085898290386, -2091.899763572188, -9531.543795054413, -15344.852548224038, 0.012, -0.106, 0.99, 192.0, 0.0, 0.0, 0.0, 0.0, 0.0, 0.0, 0.0, 0.0, 0.0, 1.645921957000873E9, 0.0, 2022-02-27 11:32:37.000
122.0, -622.0266964467403, -3848.880988226055, -1625.0388771341893, -9833.672324856798, -268.64561660833556, 237.55434007100345, -5324.8784333322565, -1298.166966219779, -1455.7244128852383, -5182.810745574325, -3758.490533648793, -2761.2898065197237, -3175.422927787653, -2214.052047020441, -9278.92437922053, -14641.621964171169, 0.012, -0.106, 0.99, 192.0, 0.0, 0.0, 0.0, 0.0, 0.0, 0.0, 0.0, 0.0, 0.0, 1.645921957009077E9, 0.0, 2022-02-27 11:32:37.009
124.0, -188.0005226135877, -3540.963356609745, -1358.1366965933678, -9527.721646752554, 101.36516110481753, 440.59758670301284, -5267.210932637565, -1258.6937855117067, -2462.6705005968215, -5093.403767753097, -3464.118059172399, -2703.6893610583975, -2831.5636910872095, -1953.4530584160161, -9293.855344516676, -14742.473035153513, 0.012, -0.106, 0.99, 192.0, 0.0, 0.0, 0.0, 0.0, 0.0, 0.0, 0.0, 0.0, 0.0, 1.645921957017052E9, 0.0, 2022-02-27 11:32:37.017
126.0, -813.8493673621855, -4007.8242430477435, -1807.004428744844, -10022.902193415428, -458.12135435597355, 72.71022471311387, -5498.70794996118, -1538.1352946919556, -3051.4601530385203, -5727.902737605898, -3777.623626902536, -2894.0368168397927, -3138.43079071412, -2283.051882153974, -9551.660365064188, -15330.770949217196, 0.012, -0.108, 0.992, 192.0, 0.0, 48.0, 126.0, 80.0, 15.5, 0.0, 0.0, 0.0, 0.0, 1.64592195702415E9, 0.0, 2022-02-27 11:32:37.024
128.0, -286.0799772834751, -3602.0730259505544, -1393.0054179436468, -9572.246321707526, 31.851235848812564, 440.70934542528937, -5197.920524826112, -1153.2159034271126, -1274.1164891858684, -4848.562758989663, -3566.511400522161, -2668.2394943522804, -2987.4224051740653, -2008.393646287161, -9146.110313667097, -14346.377771661017, 0.012, -0.108, 0.992, 192.0, 0.0, 0.0, 0.0, 0.0, 0.0, 0.0, 0.0, 0.0, 0.0, 1.645921957031559E9, 0.0, 2022-02-27 11:32:37.031
130.0, -536.9559570498416, -3807.083226094631, -1638.3828685740077, -9837.829749325485, -227.78662774403426, 197.29884830699544, -5479.03841484051, -1522.891404973436, -3618.9709447587666, -5601.838898877967, -3549.926406136323, -2831.697801553941, -2872.7132526294295, -2081.5285541449257, -9526.22407987405, -15341.790359233662, 0.012, -0.108, 0.992, 192.0, 0.0, 0.0, 0.0, 0.0, 0.0, 0.0, 0.0, 0.0, 0.0, 1.64592195703983E9, 0.0, 2022-02-27 11:32:37.039
132.0, -626.4076383599804, -3858.0004999638204, -1639.0757726521222, -9846.85985408543, -277.04987252353106, 225.59615678741417, -5332.746247380525, -1331.6275276693736, -1499.4667767842743, -5209.968115087523, -3764.8384290741005, -2779.1935538284247, -3183.782480213938, -2219.148244756251, -9284.936998479008, -14665.873606905176, 0.012, -0.108, 0.992, 192.0, 0.0, 0.0, 0.0, 0.0, 0.0, 0.0, 0.0, 0.0, 0.0, 1.645921957053797E9, 0.0, 2022-02-27 11:32:37.053
134.0, -188.51461273605977, -3541.991536854689, -1362.964673395714, -9530.001524686995, 99.0182279370103, 445.2467495497167, -5268.574389049339, -1253.776401731539, -2428.584090302478, -5088.285218272832, -3462.508733571617, -2709.2102419388584, -2831.6083945761197, -1972.4073377141165, -9289.049719458786, -14736.706285084045, 0.012, -0.108, 0.992, 192.0, 0.0, 0.0, 0.0, 0.0, 0.0, 0.0, 0.0, 0.0, 0.0, 1.645921957061307E9, 0.0, 2022-02-27 11:32:37.061
136.0, -807.121492281138, -3998.7941382877993, -1808.7702165568135, -10027.014914395204, -461.27295032417186, 75.23597183656358, -5514.220060613163, -1556.3519664230307, -3095.493089615475, -5732.194272541317, -3780.238781003807, -2901.2340785544015, -3126.2490899859777, -2284.303579843471, -9556.018955232974, -15345.009010435226, 0.012, -0.11, 0.99, 192.0, 0.0, 48.0, 126.0, 72.0, 15.0, 120.0, 0.0, 0.0, 0.0, 1.645921957069444E9, 0.0, 2022-02-27 11:32:37.069
138.0, -285.3647214609053, -3606.47631960825, -1397.0510836900573, -9578.527161899467, 25.525692167960667, 439.4129442468815, -5208.515251697928, -1162.2236564426014, -1251.6753377527402, -4848.227482822834, -3573.4851447922165, -2670.4299653089006, -3006.331980983255, -2026.319745340317, -9149.261909635296, -14350.378733918516, 0.012, -0.11, 0.99, 192.0, 0.0, 0.0, 0.0, 0.0, 0.0, 0.0, 0.0, 0.0, 0.0, 1.645921957077272E9, 0.0, 2022-02-27 11:32:37.077
140.0, -530.362192435526, -3812.1794238304406, -1639.3439935855858, -9837.047438269548, -219.44942706220473, 200.45044427519375, -5481.027720097032, -1522.6008322955172, -3595.8145375030685, -5597.837936620466, -3551.51337999265, -2832.9047957545276, -2870.545133417265, -2088.390539692705, -9519.227983859539, -15330.212155605812, 0.012, -0.11, 0.99, 192.0, 0.0, 0.0, 0.0, 0.0, 0.0, 0.0, 0.0, 0.0, 0.0, 1.645921957083885E9, 0.0, 2022-02-27 11:32:37.083
142.0, -635.0354117197289, -3865.5330378452586, -1651.7045082693708, -9853.833598355484, -281.5425731590478, 226.33376435443932, -5335.8531398598125, -1328.1406555343456, -1513.34721009102, -5223.535623971895, -3779.4788216923266, -2789.4083010445, -3197.9981896875133, -2237.990765332075, -9288.557981080769, -14669.606348229212, 0.012, -0.11, 0.99, 192.0, 0.0, 0.0, 0.0, 0.0, 0.0, 0.0, 0.0, 0.0, 0.0, 1.645921957092037E9, 0.0, 2022-02-27 11:32:37.092
144.0, -183.5972289558922, -3540.046935087077, -1367.7926501980603, -9530.850890976297, 108.2047949081415, 449.0912495960295, -5264.349909347286, -1257.643253522307, -2415.530671540579, -5077.534029189829, -3472.410556365318, -2709.545518105688, -2837.08457196767, -1973.8602011037115, -9282.902989733577, -14725.5751163453, 0.012, -0.11, 0.99, 192.0, 0.0, 0.0, 0.0, 0.0, 0.0, 0.0, 0.0, 0.0, 0.0, 1.645921957100015E9, 0.0, 2022-02-27 11:32:37.100
146.0, -808.4178934595459, -4005.36555115766, -1822.6953533524697, -10032.245222597745, -456.6908427108339, 74.47601252508314, -5509.66030474428, -1552.9768530102795, -3099.6281623397067, -5729.176787039851, -3788.888906108011, -2900.76469192084, -3132.0605435443576, -2283.6106757653565, -9555.638975577232, -15343.690257512362, 0.012, -0.10400000000000001, 0.988, 192.0, 0.0, 48.0, 126.0, 96.0, 15.0, 112.0, 0.0, 0.0, 0.0, 1.64592195710683E9, 0.0, 2022-02-27 11:32:37.106
148.0, -287.62224765089127, -3607.415092875373, -1414.0831129650014, -9582.438717179146, 18.663706620181397, 434.76378140017766, -5220.719304170526, -1166.939874522671, -1257.5314948000307, -4852.451962524887, -3580.3024268510853, -2675.0791281556044, -3002.956867570504, -2027.25851860744, -9151.8100085032, -14347.562414117148, 0.012, -0.10400000000000001, 0.988, 192.0, 0.0, 0.0, 0.0, 0.0, 0.0, 0.0, 0.0, 0.0, 0.0, 1.645921957113464E9, 0.0, 2022-02-27 11:32:37.113
150.0, -508.65864856942284, -3785.6702549064466, -1636.0359354062005, -9821.669438084298, -209.41349380177186, 215.71668573816845, -5487.08504284442, -1521.4608933282964, -3611.1925376883196, -5602.2859337670725, -3564.0750603765323, -2836.5034266118323, -2877.2953602427674, -2086.9823797920203, -9528.772178741954, -15331.821481206594, 0.012, -0.10400000000000001, 0.988, 192.0, 0.0, 0.0, 0.0, 0.0, 0.0, 0.0, 0.0, 0.0, 0.0, 1.645921957121713E9, 0.0, 2022-02-27 11:32:37.121
152.0, -640.131609455539, -3862.426145365971, -1662.6568630524712, -9866.529389206098, -298.1722710337962, 219.78470322903433, -5348.548930710427, -1341.5740539519852, -1576.2673707327094, -5236.499635755973, -3786.7431386403014, -2790.2800190782573, -3203.4520153346084, -2237.834303120888, -9302.773690554344, -14703.022206189897, 0.012, -0.10400000000000001, 0.988, 192.0, 0.0, 0.0, 0.0, 0.0, 0.0, 0.0, 0.0, 0.0, 0.0, 1.645921957129624E9, 0.0, 2022-02-27 11:32:37.129
154.0, -167.4592694591605, -3521.539690678083, -1358.7625454381164, -9522.893669950208, 109.09886468635378, 458.3672235449819, -5298.078691730344, -1241.5052940255755, -2346.1285050068504, -5045.61573810765, -3464.7215562726924, -2699.643695311987, -2840.996127247349, -1957.9457590515328, -9273.761126251356, -14694.193267130051, 0.012, -0.10400000000000001, 0.988, 192.0, 0.0, 0.0, 0.0, 0.0, 0.0, 0.0, 0.0, 0.0, 0.0, 1.64592195713618E9, 0.0, 2022-02-27 11:32:37.136
156.0, -799.0972160216828, -3991.976856228931, -1815.431036404495, -10034.256879598723, -457.76372644468864, 62.31666354139609, -5502.0830633739315, -1574.2110102428212, -3144.5775204393294, -5737.961022610787, -3774.494382678793, -2896.540212218787, -3109.7758543224163, -2280.8837629418094, -9556.980080244552, -15358.80003676415, 0.014, -0.108, 0.986, 192.0, 0.0, 56.0, 126.0, 80.0, 15.0, 104.0, 0.0, 0.0, 0.0, 1.645921957144181E9, 0.0, 2022-02-27 11:32:37.144
158.0, -287.62224765089127, -3595.6804270363364, -1412.6973048087723, -9589.725385871576, 14.819206573868582, 430.0922668090185, -5221.948650115568, -1175.746461838062, -1232.9222241547375, -4853.793067192205, -3588.885496721923, -2675.123831644515, -3013.730408397962, -2041.3401176142834, -9145.640927033535, -14353.776199075724, 0.014, -0.108, 0.986, 192.0, 0.0, 0.0, 0.0, 0.0, 0.0, 0.0, 0.0, 0.0, 0.0, 1.645921957152173E9, 0.0, 2022-02-27 11:32:37.152
160.0, -502.13193918847315, -3770.3816616990166, -1631.6773452374155, -9822.429397395777, -207.2900780785177, 214.62145025985842, -5492.650627213791, -1528.6358032984501, -3574.46862154825, -5569.473572906682, -3545.903092134368, -2821.79597876024, -2868.8464008386613, -2070.039757494898, -9514.936448924118, -15314.208306575812, 0.014, -0.108, 0.986, 192.0, 0.0, 0.0, 0.0, 0.0, 0.0, 0.0, 0.0, 0.0, 0.0, 1.64592195715933E9, 0.0, 2022-02-27 11:32:37.159
162.0, -633.0461064632067, -3857.0840784411525, -1656.5995403050829, -9861.120267047914, -287.91282032881026, 223.67390676425777, -5323.984363554045, -1321.8821670868597, -1549.7805535531704, -5222.775664660414, -3784.977350828332, -2782.8815916635504, -3200.389826344231, -2224.15503551424, -9295.844649773198, -14685.38667981466, 0.014, -0.108, 0.986, 192.0, 0.0, 0.0, 0.0, 0.0, 0.0, 0.0, 0.0, 0.0, 0.0, 1.645921957174134E9, 0.0, 2022-02-27 11:32:37.174
164.0, -164.35237697987284, -3516.1976237532645, -1360.2377605721665, -9523.608925772778, 115.08913220037607, 462.90462766940925, -5233.1245223432215, -1229.3906485307991, -2366.110964549895, -5065.844066839703, -3474.35515813293, -2704.3375616476014, -2843.7453918153515, -1960.583264897259, -9270.676585516523, -14699.6694445216, 0.014, -0.108, 0.986, 192.0, 0.0, 0.0, 0.0, 0.0, 0.0, 0.0, 0.0, 0.0, 0.0, 1.645921957181941E9, 0.0, 2022-02-27 11:32:37.181
166.0, -794.0010182858728, -3983.4608415914586, -1817.3756381721066, -10028.870109184994, -457.0261188776635, 75.57124800339318, -5494.282304559029, -1542.896216260936, -3136.530892435419, -5732.596603941513, -3780.8422781041004, -2894.8191278957283, -3114.134444491201, -2281.733129231111, -9555.370754643769, -15355.335516373578, 0.014, -0.108, 0.986, 192.0, 0.0, 56.0, 126.0, 80.0, 15.0, 104.0, 0.0, 0.0, 0.0, 1.645921957189082E9, 0.0, 2022-02-27 11:32:37.189
168.0, -276.13345100086343, -3586.1585838983756, -1410.0150954741355, -9585.635016636255, 27.38088695775115, 424.77255162865544, -5210.83983312128, -1183.681331119696, -1221.3887240157992, -4838.795046662694, -3581.062386162566, -2659.7234797148085, -2997.6818558790515, -2029.7842657308897, -9148.546653812726, -14349.909347284956, 0.014, -0.108, 0.986, 192.0, 0.0, 0.0, 0.0, 0.0, 0.0, 0.0, 0.0, 0.0, 0.0, 1.64592195719638E9, 0.0, 2022-02-27 11:32:37.196
170.0, -485.1669651468951, -3759.518713893737, -1624.5918422450832, -9811.70056005723, -200.24927857509599, 216.23077586064053, -5484.581647465426, -1496.2928290716206, -3564.343281309996, -5564.355023426417, -3547.378307268418, -2812.6541152780196, -2859.481019911888, -2074.957141275065, -9515.003504157485, -15314.007140875716, 0.014, -0.108, 0.986, 192.0, 0.0, 0.0, 0.0, 0.0, 0.0, 0.0, 0.0, 0.0, 0.0, 1.645921957204558E9, 0.0, 2022-02-27 11:32:37.204
172.0, -621.7584755132766, -3843.225996878862, -1657.1359821720102, -9858.393354224367, -295.53476518806997, 216.58840377192544, -5334.400276470217, -1330.7334578911614, -1552.7756873101816, -5219.93699311459, -3780.2834844927174, -2770.1410973240254, -3191.2479628620104, -2231.0617245509297, -9307.959295267976, -14699.311816610316, 0.014, -0.108, 0.986, 192.0, 0.0, 0.0, 0.0, 0.0, 0.0, 0.0, 0.0, 0.0, 0.0, 1.645921957212398E9, 0.0, 2022-02-27 11:32:37.212
174.0, -146.94036804918863, -3498.2044694667425, -1352.705222690728, -9509.952009910585, 109.99293446456606, 458.6130927339903, -5286.433432869128, -1254.8269337209385, -2324.9390512632194, -5040.3630781606535, -3466.1073644289213, -2684.131584660004, -2841.1078859696254, -1962.0584800313093, -9273.179980895518, -14695.713185753011, 0.016, -0.109, 0.988, 192.0, 0.0, 72.0, 126.0, 72.0, 15.0, 120.0, 0.0, 0.0, 0.0, 1.645921957219034E9, 0.0, 2022-02-27 11:32:37.219
176.0, -781.7299105799092, -3977.4035188440707, -1813.5311381257939, -10024.93620216086, -454.7685926876775, 75.99593114804401, -5501.077234873443, -1540.3481173930309, -3152.3112240208657, -5721.4430834583145, -3765.039594774198, -2880.4916596998764, -3103.360903663743, -2271.8760099263204, -9569.698222839621, -15365.013821722725, 0.016, -0.109, 0.988, 192.0, 0.0, 0.0, 0.0, 0.0, 0.0, 0.0, 0.0, 0.0, 0.0, 1.645921957226008E9, 0.0, 2022-02-27 11:32:37.226
178.0, -290.8185471080002, -3603.145909684409, -1421.0121537461464, -9591.401766705725, 3.3304099238407523, 426.2477667627057, -5188.935123555079, -1150.176066181191, -1215.487863479598, -4847.691040955906, -3590.6289327894374, -2663.746793716764, -3012.3669519861883, -2033.673469266113, -9149.373668357572, -14344.343762915583, 0.016, -0.109, 0.988, 192.0, 0.0, 0.0, 0.0, 0.0, 0.0, 0.0, 0.0, 0.0, 0.0, 1.645921957234106E9, 0.0, 2022-02-27 11:32:37.234
180.0, -474.169906874884, -3756.7694493257345, -1612.5219002392175, -9804.458594853711, -183.15019406678607, 220.2540898625958, -5440.414600421739, -1498.05861688359, -3555.8719701614345, -5561.091668735942, -3548.2947287910856, -2809.189594887447, -2865.381880448089, -2079.963932033054, -9511.807204700375, -15299.389100001945, 0.016, -0.109, 0.988, 192.0, 0.0, 0.0, 0.0, 0.0, 0.0, 0.0, 0.0, 0.0, 0.0, 1.645921957241168E9, 0.0, 2022-02-27 11:32:37.241
182.0, -629.067495950162, -3856.52528482977, -1657.9182932279462, -9867.602272939954, -294.79715762104485, 210.441674046716, -5329.348782223318, -1345.3291470204767, -1599.9378681108794, -5246.759086460958, -3788.0171880742537, -2775.4608125043887, -3192.589067529329, -2241.8799688672984, -9305.567658611257, -14727.318552412815, 0.016, -0.109, 0.988, 192.0, 0.0, 0.0, 0.0, 0.0, 0.0, 0.0, 0.0, 0.0, 0.0, 1.645921957248741E9, 0.0, 2022-02-27 11:32:37.248
184.0, -145.73337384860204, -3503.412425924829, -1348.8160191555046, -9512.008370400474, 112.89866124375597, 462.61405499149026, -5244.166284104143, -1242.7569917150727, -2282.5154402870467, -5033.657554824061, -3468.2978353855415, -2681.315264858635, -2839.1632842020135, -1952.581340382259, -9259.701878988968, -14674.881359920664, 0.016, -0.1095, 0.989, 192.0, 0.0, 64.0, 126.0, 72.0, 15.0, 120.0, 0.0, 0.0, 0.0, 1.645921957256791E9, 0.0, 2022-02-27 11:32:37.256
186.0, -784.5909338701886, -3980.353949112171, -1813.3523241701514, -10022.119882359491, -454.9027031544093, 79.34869281634008, -5512.2978105900065, -1556.083745489567, -3169.8573434182817, -5732.998935341709, -3775.164935012452, -2880.692825399974, -3115.5202526474304, -2273.977073905119, -9559.930510512651, -15367.986603735282, 0.016, -0.1095, 0.989, 192.0, 0.0, 0.0, 0.0, 0.0, 0.0, 0.0, 0.0, 0.0, 0.0, 1.645921957264787E9, 0.0, 2022-02-27 11:32:37.264
188.0, -293.47840469818175, -3604.956400985289, -1418.0170199891354, -9594.061624295906, 5.744398325013915, 429.30995575308276, -5196.98175155899, -1163.520057621009, -1208.2235465316232, -4843.421857764943, -3595.434557847328, -2656.0577936241384, -3016.457321221509, -2032.3770680877053, -9148.032563690253, -14339.605193091058, 0.016, -0.1095, 0.989, 192.0, 0.0, 0.0, 0.0, 0.0, 0.0, 0.0, 0.0, 0.0, 0.0, 1.645921957271349E9, 0.0, 2022-02-27 11:32:37.271
190.0, -482.3506453455264, -3763.0055860287653, -1612.6783624504046, -9806.760824532608, -185.05009234548717, 230.3347266119393, -5448.796504592479, -1491.8224801805593, -3551.379269525918, -5559.616453601891, -3551.826304415024, -2808.2061181314134, -2865.828915337195, -2072.453745896071, -9502.933562151618, -15293.152963298913, 0.016, -0.1095, 0.989, 192.0, 0.0, 0.0, 0.0, 0.0, 0.0, 0.0, 0.0, 0.0, 0.0, 1.645921957279369E9, 0.0, 2022-02-27 11:32:37.279
192.0, -634.3648593860697, -3859.6768807979684, -1656.5995403050829, -9865.009470583138, -285.54353541654774, 220.924642196255, -5330.466369446083, -1329.615870668396, -1588.8066993721366, -5244.166284104143, -3792.5322404542258, -2774.4326322594443, -3200.5015850665077, -2232.7157536406226, -9300.002074241886, -14711.515869082914, 0.016, -0.1095, 0.989, 192.0, 0.0, 0.0, 0.0, 0.0, 0.0, 0.0, 0.0, 0.0, 0.0, 1.645921957287377E9, 0.0, 2022-02-27 11:32:37.287
194.0, -161.46900194513822, -3517.4269696983065, -1349.486571489164, -9511.494280278002, 125.59445209437038, 465.96681665978633, -5242.825179436824, -1227.2225293186343, -2291.4114345802586, -5040.3630781606535, -3472.701129043237, -2684.95859920485, -2838.023345234793, -1948.8262473137675, -9259.12073363313, -14676.401278543626, 0.016, -0.10775, 0.9884999999999999, 192.0, 0.0, 64.0, 126.0, 88.0, 15.0, 112.0, 0.0, 0.0, 0.0, 1.645921957301021E9, 0.0, 2022-02-27 11:32:37.301
196.0, -796.1914892424929, -3997.944771998498, -1814.0005247593554, -10026.903155672928, -447.95131062880887, 72.68787296865857, -5512.387217567828, -1558.0059955127235, -3210.3140008823875, -5750.075668105563, -3774.0696995341423, -2888.694749914974, -3114.1567962356567, -2272.434803537703, -9560.623414590766, -15380.302414930156, 0.016, -0.10775, 0.9884999999999999, 192.0, 0.0, 0.0, 0.0, 0.0, 0.0, 0.0, 0.0, 0.0, 0.0, 1.645921957309018E9, 0.0, 2022-02-27 11:32:37.309
198.0, -314.46669274171506, -3629.3645059304845, -1423.2473281916773, -9601.750624388531, 17.479064164050122, 425.3089934955828, -5198.814594604325, -1158.6026738408416, -1200.2886772499892, -4860.409183550976, -3601.0448457056104, -2668.4630117968336, -3016.12204505468, -2041.742449014479, -9141.282336864751, -14348.814111806645, 0.016, -0.10775, 0.9884999999999999, 192.0, 0.0, 0.0, 0.0, 0.0, 0.0, 0.0, 0.0, 0.0, 0.0, 1.645921957317062E9, 0.0, 2022-02-27 11:32:37.317
200.0, -476.9191714428868, -3767.140658752997, -1604.4305687463964, -9792.925094714772, -155.97047280913267, 243.45520060720452, -5440.951042288666, -1484.4017010213972, -3540.60572869846, -5557.873017534378, -3551.960414881756, -2814.3081443677124, -2855.3012436987456, -2065.167077203641, -9496.40685277067, -15287.721489396274, 0.016, -0.10775, 0.9884999999999999, 192.0, 0.0, 0.0, 0.0, 0.0, 0.0, 0.0, 0.0, 0.0, 0.0, 1.645921957324082E9, 0.0, 2022-02-27 11:32:37.324
202.0, -657.1189352415723, -3886.7671950778004, -1675.8667440255576, -9883.606121969953, -301.9050123578325, 212.56508976997017, -5343.028049829966, -1344.9268156202813, -1666.7695840322476, -5279.549095576894, -3805.2950865382063, -2790.101205122615, -3199.2722391214656, -2234.4144862192256, -9315.290667449317, -14751.167863746628, 0.016, -0.10775, 0.9884999999999999, 192.0, 0.0, 0.0, 0.0, 0.0, 0.0, 0.0, 0.0, 0.0, 0.0, 1.645921957331621E9, 0.0, 2022-02-27 11:32:37.331
204.0, -166.22992351411864, -3529.2286907707085, -1355.6333012143734, -9517.17162336965, 125.57210034991508, 469.364281816993, -5235.158531088654, -1218.52770072552, -2231.44170420667, -5027.488473354397, -3475.0480622110445, -2690.5912388075876, -2843.0524877372372, -1949.3179856917843, -9252.25874808535, -14654.47421723297, 0.015, -0.107875, 0.99025, 192.0, 0.0, 56.0, 126.0, 80.0, 15.5, 0.0, 0.0, 0.0, 0.0, 1.64592195733963E9, 0.0, 2022-02-27 11:32:37.339
206.0, -804.9086695800627, -4005.454958135481, -1824.908176053545, -10034.74861797674, -445.5149704831804, 70.51975375649378, -5506.419301798261, -1556.7766495676817, -3225.3567249008092, -5755.28362456365, -3776.9307228244215, -2900.9658576209376, -3096.9683047495255, -2266.533943001502, -9562.813885547386, -15382.649348097963, 0.015, -0.107875, 0.99025, 192.0, 0.0, 0.0, 0.0, 0.0, 0.0, 0.0, 0.0, 0.0, 0.0, 1.645921957347232E9, 0.0, 2022-02-27 11:32:37.347
208.0, -324.05559111304177, -3637.6570031234032, -1435.0043457751688, -9608.277333769482, 6.4373024031284345, 424.9066620953873, -5200.692141138571, -1163.9894442545706, -1201.0933400503802, -4856.095296871102, -3613.986505745233, -2673.7603752327414, -3013.819815375783, -2031.8629779652333, -9141.774075242767, -14346.55658561666, 0.015, -0.107875, 0.99025, 192.0, 0.0, 0.0, 0.0, 0.0, 0.0, 0.0, 0.0, 0.0, 0.0, 1.6459219573533E9, 0.0, 2022-02-27 11:32:37.353
210.0, -486.8880494699537, -3780.3505397260833, -1613.0806938506, -9802.066958196994, -168.1298217928197, 234.4474475917158, -5448.9082633147555, -1496.6281052384502, -3530.212167526742, -5554.162627954796, -3549.859350902957, -2820.2760601372793, -2861.962063546427, -2052.6724520531243, -9494.842230658798, -15282.73705038274, 0.015, -0.107875, 0.99025, 192.0, 0.0, 0.0, 0.0, 0.0, 0.0, 0.0, 0.0, 0.0, 0.0, 1.645921957361238E9, 0.0, 2022-02-27 11:32:37.361
212.0, -667.2889789687371, -3894.2103259814176, -1680.0912237276107, -9882.667348702831, -298.1499192893409, 212.16275836977465, -5335.070828803877, -1337.6177951833959, -1632.1914353598877, -5276.129278675232, -3801.0482550916977, -2796.516155781288, -3202.3120763673874, -2230.5476344284575, -9314.195431971006, -14743.836491565287, 0.015, -0.107875, 0.99025, 192.0, 0.0, 0.0, 0.0, 0.0, 0.0, 0.0, 0.0, 0.0, 0.0, 1.645921957369186E9, 0.0, 2022-02-27 11:32:37.369
214.0, -189.81101391446757, -3556.2072463282643, -1368.12792636489, -9520.054998404385, 127.62846083980332, 471.5547527736131, -5228.542414729884, -1209.43054073221, -2259.2249225646165, -5046.755677074871, -3484.636960582371, -2712.96533500735, -2842.9183772705055, -1945.741706578935, -9255.767971964833, -14664.063115604296, 0.0155, -0.10793749999999999, 0.991125, 192.0, 0.0, 64.0, 126.0, 80.0, 15.5, 0.0, 0.0, 0.0, 0.0, 1.645921957376433E9, 0.0, 2022-02-27 11:32:37.376
216.0, -840.8726264086517, -4045.2634150103827, -1824.5728998867155, -10038.056676156126, -441.2234355477614, 75.0348061364658, -5504.742920964113, -1551.4345826428632, -3278.0844900708785, -5771.622749760479, -3783.278618249729, -2912.856985671161, -3101.8633367852376, -2255.7827539184996, -9565.004356504007, -15393.668758114429, 0.0155, -0.10793749999999999, 0.991125, 192.0, 0.0, 0.0, 0.0, 0.0, 0.0, 0.0, 0.0, 0.0, 0.0, 1.645921957383946E9, 0.0, 2022-02-27 11:32:37.383
218.0, -405.013609530164, -3709.2272888692964, -1444.2579679796659, -9620.526089730989, -1.2964011784078096, 423.9008335948984, -5198.367559715219, -1159.787316296973, -1205.8989651082713, -4885.264323385278, -3628.537491385638, -2694.905125487462, -3036.7080016980176, -2036.1545129006522, -9147.496121823326, -14348.769408317734, 0.0155, -0.10793749999999999, 0.991125, 192.0, 0.0, 0.0, 0.0, 0.0, 0.0, 0.0, 0.0, 0.0, 0.0, 1.645921957391938E9, 0.0, 2022-02-27 11:32:37.391
220.0, -576.8985243914752, -3864.1248779445746, -1614.1535775844548, -9794.93675171575, -160.01613855554325, 252.2170844336849, -5452.0151557940435, -1470.543619459107, -3539.3316792645073, -5557.917721023288, -3569.662996490359, -2834.5811765886756, -2856.0835547546812, -2041.5859868032917, -9492.11531783525, -15263.939233295827, 0.0155, -0.10793749999999999, 0.991125, 192.0, 0.0, 0.0, 0.0, 0.0, 0.0, 0.0, 0.0, 0.0, 0.0, 1.645921957399944E9, 0.0, 2022-02-27 11:32:37.399
222.0, -830.1884925590149, -4048.772638889866, -1700.4536629263955, -9901.308703578557, -295.44535821024874, 210.19580485770763, -5324.2302327430525, -1337.841312627949, -1721.978392836856, -5327.29242173343, -3847.5845870476473, -2834.290603910757, -3208.3470473703205, -2227.9101285827314, -9318.643429117612, -14755.213529493038, 0.0155, -0.10793749999999999, 0.991125, 192.0, 0.0, 0.0, 0.0, 0.0, 0.0, 0.0, 0.0, 0.0, 0.0, 1.645921957406545E9, 0.0, 2022-02-27 11:32:37.406
224.0, -373.54235333709164, -3725.432303599394, -1368.060871131524, -9529.26391711997, 144.54873139247078, 479.7801947331661, -5213.633801178194, -1199.9310493387043, -2271.2948645704823, -5077.198753022999, -3530.4356849712954, -2744.0566115446823, -2857.08938325517, -1943.9312152780553, -9242.111056102642, -14644.147711294618, 0.01675, -0.10696875, 0.9885625, 192.0, 0.0, 72.0, 126.0, 88.0, 15.0, 104.0, 0.0, 0.0, 0.0, 1.645921957421555E9, 0.0, 2022-02-27 11:32:37.421
226.0, -1046.2181027195577, -4240.215330149571, -1840.6438041500812, -10047.153836149435, -425.44310396231464, 86.83652720886793, -5477.294978772996, -1529.2393003987434, -3349.0736304609336, -5822.674134096401, -3824.629345492047, -2960.5109048498757, -3099.069368728324, -2250.507742227047, -9555.773086043964, -15392.797040080672, 0.01675, -0.10696875, 0.9885625, 192.0, 0.0, 0.0, 0.0, 0.0, 0.0, 0.0, 0.0, 0.0, 0.0, 1.645921957429621E9, 0.0, 2022-02-27 11:32:37.429
228.0, -600.5466700251901, -3894.657360870524, -1461.3347007435204, -9629.220918324103, 9.566546626871423, 436.4178104898704, -5187.616370632216, -1145.6833655456742, -1269.4673263391646, -4932.582966397163, -3681.667587955903, -2743.386059211023, -3035.7021731975287, -2029.6501552641578, -9135.314421095183, -14341.773312303223, 0.01675, -0.10696875, 0.9885625, 192.0, 0.0, 0.0, 0.0, 0.0, 0.0, 0.0, 0.0, 0.0, 0.0, 1.645921957436206E9, 0.0, 2022-02-27 11:32:37.436
230.0, -719.837930183164, -3994.614362074657, -1618.4451125198739, -9792.478059825668, -144.34756569237302, 270.5902183759473, -5467.191990279197, -1466.3414915015092, -3586.7173775097585, -5592.786442373567, -3605.3363806410293, -2872.1097555291362, -2856.7541070883403, -2032.0194401764204, -9488.136707322206, -15254.059762246581, 0.01675, -0.10696875, 0.9885625, 192.0, 0.0, 0.0, 0.0, 0.0, 0.0, 0.0, 0.0, 0.0, 0.0, 1.645921957444151E9, 0.0, 2022-02-27 11:32:37.444
232.0, -924.1105227602152, -4131.541148607868, -1706.756854862792, -9897.017168643139, -302.888489113866, 218.39889507280532, -5323.29145947593, -1339.227120784178, -1759.9987101553334, -5346.447866731628, -3861.3532616321163, -2854.6753948539967, -3197.171175142667, -2219.952907556642, -9328.075865277751, -14755.213529493038, 0.01675, -0.10696875, 0.9885625, 192.0, 0.0, 0.0, 0.0, 0.0, 0.0, 0.0, 0.0, 0.0, 0.0, 1.645921957452326E9, 0.0, 2022-02-27 11:32:37.452
234.0, -419.60929865947946, -3770.3816616990166, -1373.1794206117893, -9525.709989751576, 130.04244924097648, 480.7636714891996, -5208.112920297733, -1178.0263397725034, -2284.504745543569, -5082.630226925638, -3544.9866706117, -2755.4336494724334, -2864.1301827585917, -1948.781543824857, -9242.289870058283, -14633.195356511516, 0.015375, -0.104484375, 0.98928125, 192.0, 0.0, 56.0, 126.0, 104.0, 15.0, 120.0, 0.0, 0.0, 0.0, 1.645921957459099E9, 0.0, 2022-02-27 11:32:37.459
236.0, -1037.210349704069, -4225.664344509166, -1839.9509000719668, -10044.963365192814, -439.3682407579709, 81.82973645087915, -5484.738109676613, -1540.63869007095, -3373.4370319172185, -5818.896689283453, -3827.8032932047004, -2966.925855508549, -3105.685485087095, -2257.570893474924, -9561.383373902247, -15395.121621504024, 0.015375, -0.104484375, 0.98928125, 192.0, 0.0, 0.0, 0.0, 0.0, 0.0, 0.0, 0.0, 0.0, 0.0, 1.645921957466787E9, 0.0, 2022-02-27 11:32:37.466
238.0, -548.4447536998694, -3837.2133776203846, -1460.3065204985762, -9622.470691498602, -6.77257856995804, 432.5956621880129, -5198.680484137593, -1142.174141666191, -1250.3342330854218, -4913.673390587973, -3668.0330238381657, -2726.7340095918194, -3027.812007404805, -2038.6355565351912, -9134.196833872418, -14340.320448913628, 0.015375, -0.104484375, 0.98928125, 192.0, 0.0, 0.0, 0.0, 0.0, 0.0, 0.0, 0.0, 0.0, 0.0, 1.64592195747531E9, 0.0, 2022-02-27 11:32:37.475
240.0, -654.3473189291143, -3929.3696200096156, -1612.4548450058514, -9789.885257468852, -158.31740597693994, 259.1908287037407, -5417.727579799603, -1452.3045959835763, -3566.109069121965, -5576.268503221096, -3589.868973477957, -2851.4567436524326, -2859.9727582899045, -2048.380917117705, -9481.274721774427, -15248.963564510772, 0.015375, -0.104484375, 0.98928125, 192.0, 0.0, 0.0, 0.0, 0.0, 0.0, 0.0, 0.0, 0.0, 0.0, 1.645921957481945E9, 0.0, 2022-02-27 11:32:37.481
242.0, -845.2982718108025, -4053.0418220808297, -1702.8452995831133, -9896.257209331658, -314.15376831934077, 219.15885438428575, -5333.48385494755, -1324.9220043327814, -1754.5001810193278, -5343.318622507885, -3846.4446480804263, -2843.700688326441, -3207.363570614287, -2238.9965938325636, -9315.044798260307, -14761.472017940525, 0.015375, -0.104484375, 0.98928125, 192.0, 0.0, 0.0, 0.0, 0.0, 0.0, 0.0, 0.0, 0.0, 0.0, 1.645921957488388E9, 0.0, 2022-02-27 11:32:37.488
244.0, -311.4715589847039, -3659.9416923453446, -1361.4671065172085, -9512.723626223044, 131.56236786393737, 488.78794774865486, -5229.972926375023, -1200.2216220166233, -2237.6554891652454, -5045.638089852106, -3516.957583064745, -2721.257832200269, -2857.379955933089, -1941.9195582770776, -9239.942936890477, -14626.579240152747, 0.01, -0.10400000000000001, 0.99, 192.0, 0.0, 40.0, 126.0, 96.0, 15.0, 120.0, 0.0, 0.0, 0.0, 1.645921957496568E9, 0.0, 2022-02-27 11:32:37.496
246.0, -921.8306448257739, -4116.8560525007315, -1817.6438591055703, -10030.367676063499, -437.58010120154637, 85.00368416353275, -5518.802168226501, -1558.1401059794553, -3345.609110070361, -5788.230095890773, -3784.6420746615026, -2924.9716311659377, -3082.7302435314946, -2245.858579380343, -9566.658385593699, -15403.99526405278, 0.01, -0.10400000000000001, 0.99, 192.0, 0.0, 0.0, 0.0, 0.0, 0.0, 0.0, 0.0, 0.0, 0.0, 1.645921957504457E9, 0.0, 2022-02-27 11:32:37.504
248.0, -451.3487757860155, -3747.135847465497, -1445.353203457976, -9622.135415331772, -12.18170072814235, 422.5373771831247, -5185.35884444223, -1142.4423625996546, -1204.267287763034, -4889.041768198224, -3632.0467152651213, -2694.905125487462, -3023.4087137471097, -2037.897948968166, -9136.52141529577, -14347.69652458388, 0.01, -0.10400000000000001, 0.99, 192.0, 0.0, 0.0, 0.0, 0.0, 0.0, 0.0, 0.0, 0.0, 0.0, 1.645921957511551E9, 0.0, 2022-02-27 11:32:37.511
250.0, -555.2620357587381, -3841.95194744491, -1593.9476005968572, -9779.491696297133, -147.36505119383946, 270.8360875649557, -5415.112425698331, -1451.4552296942747, -3513.247193485164, -5540.1257324368635, -3554.6202724719374, -2820.9019089820276, -2836.7716475452958, -2033.5840622882918, -9474.949178093575, -15248.82945404404, 0.01, -0.10400000000000001, 0.99, 192.0, 0.0, 0.0, 0.0, 0.0, 0.0, 0.0, 0.0, 0.0, 0.0, 1.64592195751911E9, 0.0, 2022-02-27 11:32:37.519
