%OpenBCI Raw EEG Data
%Number of channels = 16
%Sample Rate = 125 Hz
%Board = OpenBCI_GUI$BoardCytonSerialDaisy
Sample Index, EXG Channel 0, EXG Channel 1, EXG Channel 2, EXG Channel 3, EXG Channel 4, EXG Channel 5, EXG Channel 6, EXG Channel 7, EXG Channel 8, EXG Channel 9, EXG Channel 10, EXG Channel 11, EXG Channel 12, EXG Channel 13, EXG Channel 14, EXG Channel 15, Accel Channel 0, Accel Channel 1, Accel Channel 2, Other, Other, Other, Other, Other, Other, Other, Analog Channel 0, Analog Channel 1, Analog Channel 2, Timestamp, Other, Timestamp (Formatted)
222.0, -1287.1475562033124, -3836.2299008643513, -1676.3808341480296, -9422.28846815687, -18.619003131270784, 380.02435922913065, -4642.949061745294, -1185.5588776539419, -2386.339293281948, -4732.825426200084, -3530.256871015653, -2697.1850034219033, -2903.8045291667618, -1842.9236820845226, -8501.44130008713, -15050.010687114083, 0.0, 0.0, 0.0, 192.0, 0.0, 0.0, 0.0, 0.0, 0.0, 0.0, 0.0, 0.0, 0.0, 1.645922373338669E9, 0.0, 2022-02-27 11:39:33.338
224.0, -858.1058213836934, -3512.643696384871, -1371.3242258219989, -9054.222292211329, 383.6676935753457, 644.1325717130389, -4474.148687618815, -934.7499531209413, -1612.7677694282258, -4152.641195373678, -3299.2739438145095, -2537.8394172000194, -2701.878869757518, -1615.0252956182119, -8258.276672157845, -14484.556255883725, 0.007, -0.051000000000000004, 0.504, 192.0, 0.0, 56.0, 126.0, 104.0, 15.5, 64.0, 0.0, 0.0, 0.0, 1.645922373338671E9, 0.0, 2022-02-27 11:39:33.338
0.0, -357.76202175164485, -1708.5673461636718, -625.714734281866, -4465.07387936996, 140.8383418128898, 348.91073094734327, -2384.8417264034424, -491.6936745278448, -1646.921234955935, -2502.948344105285, -1762.1668293674982, -1386.389301584876, -1426.4883311376968, -938.1697700226033, -4324.8837381462745, -7689.1342030923615, 0.012, -0.10200000000000001, 0.996, 192.0, 0.0, 48.0, 126.0, 104.0, 15.5, 16.0, 0.0, 0.0, 0.0, 1.645922373453476E9, 0.0, 2022-02-27 11:39:33.453
2.0, -1352.3028912905327, -3911.3764657230936, -1722.4030759815068, -9478.033718828407, -309.4599019837263, 322.8709486569105, -5052.276557955332, -1339.2718242730887, -3553.994423627189, -4993.022083404313, -3502.4289491687955, -2715.580489108621, -2805.702722752419, -1779.1318034090762, -8627.214566137143, -15472.68217476394, 0.012, -0.10200000000000001, 0.996, 192.0, 0.0, 0.0, 0.0, 0.0, 0.0, 0.0, 0.0, 0.0, 0.0, 1.64592237345978E9, 0.0, 2022-02-27 11:39:33.459
4.0, -1054.0859167678257, -3670.8493436395343, -1448.3036337260764, -9182.521305384793, -6.347895425307206, 578.329036036615, -4828.289726768699, -972.0326628723935, -1070.7379663870295, -4098.281752858371, -3454.149181145332, -2500.2214312817373, -2800.0477314052264, -1658.0747554391332, -8210.890973912594, -14394.881057129034, 0.012, -0.10200000000000001, 0.996, 192.0, 0.0, 0.0, 0.0, 0.0, 0.0, 0.0, 0.0, 0.0, 0.0, 1.645922373467178E9, 0.0, 2022-02-27 11:39:33.467
6.0, -954.8441713862624, -3613.539470856127, -1442.2463109786881, -9142.444627576426, 59.14271582874249, 560.5370474501905, -4912.131120220557, -1155.9651679951153, -3187.5152215379744, -4592.836450676496, -3287.65103669775, -2586.6332753459546, -2598.4349964183566, -1562.1857717258658, -8469.254788071488, -15107.342911641947, 0.011, -0.099, 0.994, 192.0, 0.0, 40.0, 126.5, 0.0, 15.5, 0.0, 0.0, 0.0, 0.0, 1.64592237347519E9, 0.0, 2022-02-27 11:39:33.475
8.0, -1367.703243220239, -3904.5591836642247, -1694.0387122677223, -9461.359317464749, -311.60566945143574, 376.1128039494519, -4957.885141120571, -1204.1778807852127, -2117.604269695791, -4659.3999456644, -3622.8377965495347, -2658.248264580758, -2959.2592071603785, -1828.9314900555005, -8454.39087800871, -14986.554084605466, 0.011, -0.099, 0.994, 192.0, 0.0, 0.0, 0.0, 0.0, 0.0, 0.0, 0.0, 0.0, 0.0, 1.64592237348322E9, 0.0, 2022-02-27 11:39:33.483
10.0, -810.2060330159704, -3487.296818172553, -1299.3739604203654, -8991.570352503104, 200.00340938608758, 681.0129500642956, -4818.6561249084625, -957.1687528096144, -1737.5128552332944, -4099.108767403218, -3296.837603668881, -2506.815195896053, -2634.845988136052, -1529.4404660988412, -8247.100799930191, -14502.839982848167, 0.011, -0.099, 0.994, 192.0, 0.0, 0.0, 0.0, 0.0, 0.0, 0.0, 0.0, 0.0, 0.0, 1.645922373489829E9, 0.0, 2022-02-27 11:39:33.489
12.0, -1362.7858594400716, -3924.96632635192, -1733.8918726315349, -9483.73341366451, -331.61048073893556, 315.04783809755304, -5082.987854836923, -1349.1736470667895, -3560.0517463745773, -4993.111490382134, -3505.513489903628, -2714.842881541596, -2813.1011501671255, -1779.0200446867998, -8640.536205832506, -15471.028145674247, 0.011, -0.099, 0.994, 192.0, 0.0, 0.0, 0.0, 0.0, 0.0, 0.0, 0.0, 0.0, 0.0, 1.645922373496909E9, 0.0, 2022-02-27 11:39:33.496
14.0, -1073.2413617660238, -3683.1651548344084, -1461.7593838881712, -9193.518363656804, -24.162235756186934, 565.0297480857072, -4815.504528940264, -965.9976918694606, -1080.818603136373, -4115.961982722519, -3472.4552598542286, -2526.618841483455, -2824.7464090283406, -1679.1300987160325, -8214.601363492175, -14392.556475705682, 0.011, -0.099, 0.994, 192.0, 0.0, 0.0, 0.0, 0.0, 0.0, 0.0, 0.0, 0.0, 0.0, 1.645922373504861E9, 0.0, 2022-02-27 11:39:33.504
16.0, -952.4972382184552, -3606.833947519535, -1441.1734272448334, -9142.33286885415, 50.67140468018111, 543.169742008417, -4971.720870938405, -1167.364557667322, -3187.135241882234, -4604.772282215629, -3301.0844351153896, -2605.0511127771274, -2612.226022747281, -1578.346082967053, -8472.607549739785, -15103.878391251374, 0.010499999999999999, -0.0985, 0.992, 192.0, 0.0, 40.0, 126.0, 120.0, 15.0, 120.0, 0.0, 0.0, 0.0, 1.645922373512946E9, 0.0, 2022-02-27 11:39:33.512
18.0, -1370.7207287217057, -3911.0635413007194, -1694.9998372793004, -9461.046393042374, -310.97982060668716, 379.1973446842843, -4951.805466628726, -1190.7891858564838, -2105.8472521122994, -4664.026756766648, -3625.4529506508056, -2657.868284925018, -2958.3651373821663, -1838.0062983043551, -8456.648404198695, -14983.760116548554, 0.010499999999999999, -0.0985, 0.992, 192.0, 0.0, 0.0, 0.0, 0.0, 0.0, 0.0, 0.0, 0.0, 0.0, 1.645922373519453E9, 0.0, 2022-02-27 11:39:33.519
20.0, -812.5306144393223, -3490.8507455409463, -1300.0892162429352, -8996.30892232763, 199.19874658569654, 690.0430548242397, -4768.767031284217, -946.9093021046284, -1754.209608341409, -4113.302125132337, -3306.94059216268, -2505.943477862296, -2639.025764349194, -1536.9506522358242, -8240.685849271518, -14496.089756022664, 0.010499999999999999, -0.0985, 0.992, 192.0, 0.0, 0.0, 0.0, 0.0, 0.0, 0.0, 0.0, 0.0, 0.0, 1.645922373527417E9, 0.0, 2022-02-27 11:39:33.527
22.0, -1337.3272225054768, -3893.942105047954, -1718.4244654684624, -9473.093983303785, -316.07601834249715, 327.3189458035166, -5098.499965488907, -1362.0482518730464, -3575.161525626365, -4990.295170580765, -3499.2326497116865, -2728.3433351926014, -2806.373275086078, -1766.1901433694534, -8631.349638861375, -15472.771581741761, 0.010499999999999999, -0.0985, 0.992, 192.0, 0.0, 0.0, 0.0, 0.0, 0.0, 0.0, 0.0, 0.0, 0.0, 1.645922373535408E9, 0.0, 2022-02-27 11:39:33.535
24.0, -1065.7982308624066, -3685.020349624199, -1460.57474143204, -9196.58055264718, -32.54413992692708, 554.7032421473554, -4834.2129390493565, -1006.4543493335664, -1078.3822629907445, -4113.682104788078, -3467.806097007525, -2515.0629896000614, -2820.70074328193, -1652.3303571141194, -8225.039628152803, -14415.109385861086, 0.010499999999999999, -0.0985, 0.992, 192.0, 0.0, 0.0, 0.0, 0.0, 0.0, 0.0, 0.0, 0.0, 0.0, 1.645922373542683E9, 0.0, 2022-02-27 11:39:33.542
26.0, -937.9686043225056, -3602.7882817731243, -1432.4115434183532, -9129.257098347796, 50.93962561364479, 541.6721751299114, -4968.4575162479305, -1178.1157467503247, -3147.8632268742595, -4573.926874867306, -3289.8862111432804, -2588.533173624656, -2599.4631766633006, -1577.8990480779469, -8466.863151414771, -15096.435260347756, 0.01225, -0.09925, 0.991, 192.0, 0.0, 56.0, 126.0, 112.0, 15.0, 120.0, 0.0, 0.0, 0.0, 1.64592237355003E9, 0.0, 2022-02-27 11:39:33.550
28.0, -1365.289254819066, -3913.0304948127864, -1696.9667907913674, -9460.197026753072, -319.1158555884189, 372.60358006996876, -5003.885031209592, -1218.3712385143326, -2161.9724824395757, -4684.500954687709, -3619.7532558147022, -2658.851761681052, -2951.7043175344847, -1857.5640747027487, -8470.171209594157, -15017.131271020327, 0.01225, -0.09925, 0.991, 192.0, 0.0, 0.0, 0.0, 0.0, 0.0, 0.0, 0.0, 0.0, 0.0, 1.64592237355794E9, 0.0, 2022-02-27 11:39:33.557
30.0, -809.2002045154816, -3487.587390850472, -1298.099910986413, -8987.859962923523, 192.4038162712832, 677.4366709514464, -4786.581371615097, -958.5545609658434, -1708.5673461636718, -4093.945514434042, -3296.7258449466044, -2486.7656811196425, -2637.349383515046, -1546.0701639735896, -8239.3447446042, -14483.684537849967, 0.01225, -0.09925, 0.991, 192.0, 0.0, 0.0, 0.0, 0.0, 0.0, 0.0, 0.0, 0.0, 0.0, 1.645922373571715E9, 0.0, 2022-02-27 11:39:33.571
32.0, -1341.2611295296108, -3909.4765674443925, -1721.173730036465, -9474.189218782094, -335.1420563628741, 320.7698846781117, -5116.157843608599, -1375.8616299464263, -3568.925388923334, -4991.904496181548, -3484.7487193046477, -2706.729198304319, -2798.9524959269165, -1774.30382660673, -8633.920089473735, -15468.368288084066, 0.01225, -0.09925, 0.991, 192.0, 0.0, 0.0, 0.0, 0.0, 0.0, 0.0, 0.0, 0.0, 0.0, 1.6459223735797E9, 0.0, 2022-02-27 11:39:33.579
34.0, -1073.8001553774066, -3685.981474635777, -1465.8050496345818, -9194.524192157292, -47.27393952297444, 559.5982741830676, -4808.262563736745, -987.3883113131895, -1074.6942251556188, -4109.278811130383, -3464.6321492948714, -2508.133948818916, -2822.377124116078, -1679.979465005334, -8222.446825795987, -14402.145374077008, 0.01225, -0.09925, 0.991, 192.0, 0.0, 0.0, 0.0, 0.0, 0.0, 0.0, 0.0, 0.0, 0.0, 1.645922373587811E9, 0.0, 2022-02-27 11:39:33.587
36.0, -945.0541073148379, -3605.8728225079567, -1437.418334176342, -9127.111330880087, 30.66659339268129, 557.9889485822855, -4956.74520215335, -1178.13809849478, -3162.9283026371363, -4588.544915741077, -3296.6364379687834, -2596.0880632505496, -2611.622525646988, -1576.4461846883519, -8470.618244483263, -15089.528571311066, 0.012125, -0.105625, 0.9884999999999999, 192.0, 0.0, 48.0, 126.0, 64.0, 15.0, 104.0, 0.0, 0.0, 0.0, 1.645922373594991E9, 0.0, 2022-02-27 11:39:33.594
38.0, -1366.228028086189, -3907.979000565887, -1691.825889566647, -9457.112486018239, -327.5201115036144, 382.84067903049936, -5008.578897545207, -1217.5665757139416, -2139.0395926284305, -4668.54180914662, -3622.077837238054, -2653.28617731168, -2954.6100443136747, -1838.296870982274, -8472.495791017507, -15001.194477223693, 0.012125, -0.105625, 0.9884999999999999, 192.0, 0.0, 0.0, 0.0, 0.0, 0.0, 0.0, 0.0, 0.0, 0.0, 1.645922373602334E9, 0.0, 2022-02-27 11:39:33.602
40.0, -815.3916377296016, -3485.732196060681, -1294.1883557067342, -8997.493564783761, 194.05784536097593, 687.9643425898961, -4787.833069304594, -949.0327178278826, -1726.3816864945516, -4096.7171307465, -3296.6364379687834, -2500.891983615397, -2632.387296245968, -1534.1343324344555, -8243.278651628334, -14493.273436221294, 0.012125, -0.105625, 0.9884999999999999, 192.0, 0.0, 0.0, 0.0, 0.0, 0.0, 0.0, 0.0, 0.0, 0.0, 1.645922373610253E9, 0.0, 2022-02-27 11:39:33.610
42.0, -1332.901577103326, -3899.887669073066, -1708.9026223305016, -9469.92003559113, -315.8748526423994, 332.99628889516464, -5087.994645594913, -1372.866496189415, -3585.532735053627, -4998.341798584676, -3483.5640768485164, -2714.0605704856603, -2794.348036569123, -1779.265913875808, -8626.56636554794, -15477.39839284401, 0.012125, -0.105625, 0.9884999999999999, 192.0, 0.0, 0.0, 0.0, 0.0, 0.0, 0.0, 0.0, 0.0, 0.0, 1.645922373618396E9, 0.0, 2022-02-27 11:39:33.618
44.0, -1067.3852047187336, -3685.2885705576628, -1462.4075844773752, -9195.39591019105, -45.53050345546049, 559.8664951165313, -4824.177005788923, -1006.72257026703, -1070.2909314979233, -4111.893965231653, -3454.417402078796, -2510.5479372200894, -2813.212908889402, -1689.5013081432949, -8221.150424617581, -14414.327074805151, 0.012125, -0.105625, 0.9884999999999999, 192.0, 0.0, 0.0, 0.0, 0.0, 0.0, 0.0, 0.0, 0.0, 0.0, 1.645922373624452E9, 0.0, 2022-02-27 11:39:33.624
46.0, -931.2407292414581, -3593.2664386351635, -1427.896491038381, -9122.082188377643, 50.000852346521896, 556.4466782148693, -4955.985242841869, -1165.5764181108973, -3126.6514213861733, -4582.889924393884, -3294.55772573444, -2603.1512144984263, -2601.296019708636, -1576.6249986439943, -8463.979776380036, -15075.849303704419, 0.013062500000000001, -0.1078125, 0.98525, 192.0, 0.0, 56.0, 126.0, 72.0, 15.0, 88.0, 0.0, 0.0, 0.0, 1.645922373631984E9, 0.0, 2022-02-27 11:39:33.631
48.0, -1372.3747578113982, -3916.7632361368223, -1701.1912704934205, -9462.119276776228, -342.29461458857236, 367.1944579117844, -5035.892729269592, -1243.5169510265532, -2216.331924954882, -4696.16856529338, -3618.7474273142134, -2662.38333730499, -2958.2757304043453, -1857.429964236017, -8484.096346389812, -15035.21383228467, 0.013062500000000001, -0.1078125, 0.98525, 192.0, 0.0, 0.0, 0.0, 0.0, 0.0, 0.0, 0.0, 0.0, 0.0, 1.645922373640122E9, 0.0, 2022-02-27 11:39:33.640
50.0, -819.4596552204675, -3501.6242863684042, -1300.6256581098626, -8989.156364101931, 177.74107190860175, 678.4424994519353, -4808.083749781103, -958.8674853882177, -1672.2010579348873, -4093.967866178497, -3305.4206735397192, -2503.328323761025, -2639.7857236606746, -1546.9418820073465, -8247.369020863654, -14475.14617146804, 0.013062500000000001, -0.1078125, 0.98525, 192.0, 0.0, 0.0, 0.0, 0.0, 0.0, 0.0, 0.0, 0.0, 0.0, 1.64592237364811E9, 0.0, 2022-02-27 11:39:33.648
52.0, -1335.4720277156864, -3900.222945239895, -1713.7305991328478, -9462.096925031772, -326.9389661477764, 326.3131173030278, -5106.412483026085, -1377.582714269485, -3594.8087090025797, -4976.258275062833, -3491.49894613015, -2711.221898939836, -2799.0419029047375, -1771.3533963386294, -8632.243708639588, -15467.474218305853, 0.013062500000000001, -0.1078125, 0.98525, 192.0, 0.0, 0.0, 0.0, 0.0, 0.0, 0.0, 0.0, 0.0, 0.0, 1.64592237365466E9, 0.0, 2022-02-27 11:39:33.654
54.0, -1066.6699488961635, -3679.208896065819, -1453.8915698399032, -9194.323026457194, -55.007643104510684, 566.2143905418385, -4835.799912905683, -1026.6826780656193, -1065.530009928943, -4114.442064099559, -3459.8265242369803, -2514.3700855219467, -2820.343115370645, -1685.6344563525267, -8225.017276408349, -14414.103557360597, 0.013062500000000001, -0.1078125, 0.98525, 192.0, 0.0, 0.0, 0.0, 0.0, 0.0, 0.0, 0.0, 0.0, 0.0, 1.645922373662621E9, 0.0, 2022-02-27 11:39:33.662
56.0, -922.7023628595308, -3595.076929936043, -1415.6030315879623, -9110.61574347207, 47.92214011217834, 571.422346999925, -4947.245710759844, -1158.8932465187606, -3104.1208629752236, -4554.369098468912, -3276.8327923813813, -2582.721720066276, -2604.2911534656473, -1584.761033625726, -8460.425849011643, -15069.657870490299, 0.01253125, -0.10890625000000001, 0.985625, 192.0, 0.0, 48.0, 126.0, 72.0, 15.0, 104.0, 0.0, 0.0, 0.0, 1.645922373670738E9, 0.0, 2022-02-27 11:39:33.670
58.0, -1359.611911727418, -3915.712704147423, -1689.434252909929, -9459.6829366306, -338.45011454225954, 371.12836493591846, -5018.078388938712, -1230.9329188982153, -2191.0521019759303, -4688.770137878673, -3617.5851366025377, -2646.9606336308284, -2955.2582449028787, -1852.9596153449554, -8480.810639954881, -15026.742521136108, 0.01253125, -0.10890625000000001, 0.985625, 192.0, 0.0, 0.0, 0.0, 0.0, 0.0, 0.0, 0.0, 0.0, 0.0, 1.645922373677283E9, 0.0, 2022-02-27 11:39:33.677
60.0, -804.8863178356073, -3486.4251001387956, -1289.2486201821114, -8987.34587280105, 187.0170458575542, 679.4259762079688, -4818.767883630739, -969.2386948154801, -1660.7122612848596, -4072.733708945955, -3282.9124668732247, -2491.6830648998102, -2638.3105085266243, -1545.2207976842878, -8245.178549907036, -14479.884741292566, 0.01253125, -0.10890625000000001, 0.985625, 192.0, 0.0, 0.0, 0.0, 0.0, 0.0, 0.0, 0.0, 0.0, 0.0, 1.645922373692235E9, 0.0, 2022-02-27 11:39:33.692
62.0, -1323.8267688544713, -3905.0285702977862, -1702.8900030720238, -9450.742238848477, -318.1100270879301, 329.7999894380557, -5104.244363813921, -1384.578810283996, -3596.6862555368252, -4975.721833195906, -3474.601027321938, -2698.8166807671405, -2795.6220860030758, -1769.721718993392, -8634.523586574029, -15473.755058497794, 0.01253125, -0.10890625000000001, 0.985625, 192.0, 0.0, 0.0, 0.0, 0.0, 0.0, 0.0, 0.0, 0.0, 0.0, 1.645922373700297E9, 0.0, 2022-02-27 11:39:33.700
64.0, -1070.4920971980212, -3681.332311789073, -1462.2734740106434, -9194.658302624024, -68.91042815571167, 560.5817509391011, -4858.106953872079, -1019.3736576287339, -1074.1801350331468, -4096.7171307465, -3462.128753915877, -2497.3827597359136, -2829.9767172308825, -1681.0747004836442, -8233.712105001463, -14421.747853964313, 0.01253125, -0.10890625000000001, 0.985625, 192.0, 0.0, 0.0, 0.0, 0.0, 0.0, 0.0, 0.0, 0.0, 0.0, 1.645922373706913E9, 0.0, 2022-02-27 11:39:33.706
66.0, -902.9434207610394, -3581.75529024068, -1401.7225982812165, -9107.352388781594, 47.743326156535886, 566.6614254309446, -4956.3652224976095, -1180.1274037513024, -3065.251179367445, -4521.489682375155, -3267.0874317988673, -2563.36510936798, -2596.4009876729237, -1572.8028503421367, -8454.301471030889, -15056.068009861472, 0.011265625000000001, -0.10945312500000001, 0.9858125, 192.0, 0.0, 40.0, 126.0, 72.0, 15.0, 104.0, 0.0, 0.0, 0.0, 1.645922373714959E9, 0.0, 2022-02-27 11:39:33.714
68.0, -1355.7450599366498, -3913.142253535063, -1684.8074418076806, -9457.470113929525, -338.5842250089914, 380.9854842407089, -5006.835461477693, -1226.7084391961623, -2188.7722240414887, -4682.578704664553, -3601.2013079167973, -2634.488360224767, -2955.794686769806, -1844.4436007074835, -8482.330558577843, -15032.285753761025, 0.011265625000000001, -0.10945312500000001, 0.9858125, 192.0, 0.0, 0.0, 0.0, 0.0, 0.0, 0.0, 0.0, 0.0, 0.0, 1.645922373722935E9, 0.0, 2022-02-27 11:39:33.722
70.0, -801.0865212782052, -3489.0179024956115, -1286.3428934029214, -8989.625750735493, 190.68273194822456, 680.096528541628, -4803.769863101228, -971.5856279832874, -1654.6772902819266, -4068.7103949439997, -3287.5616297199285, -2477.400300192869, -2641.5291597281885, -1536.5930243245393, -8242.988078950415, -14474.185046456463, 0.011265625000000001, -0.10945312500000001, 0.9858125, 192.0, 0.0, 0.0, 0.0, 0.0, 0.0, 0.0, 0.0, 0.0, 0.0, 1.645922373731239E9, 0.0, 2022-02-27 11:39:33.731
72.0, -1301.9220592882705, -3882.3415496756497, -1689.590715121116, -9449.311727203338, -294.3501227319387, 326.9613178922317, -5117.25307908691, -1403.4213308598198, -3600.866031749968, -4954.331213752176, -3467.314358629508, -2692.133509175004, -2788.0224928882712, -1758.0317566432664, -8636.80346450847, -15479.767677756272, 0.011265625000000001, -0.10945312500000001, 0.9858125, 192.0, 0.0, 0.0, 0.0, 0.0, 0.0, 0.0, 0.0, 0.0, 0.0, 1.645922373737458E9, 0.0, 2022-02-27 11:39:33.737
74.0, -1068.882771597239, -3674.403271007928, -1462.3628809884647, -9205.230677751384, -63.81423041990166, 558.8383148715872, -4898.027169469258, -998.34066609629, -1077.4211379791664, -4103.333247105271, -3466.777916762581, -2503.7753586501312, -2831.831912020673, -1698.8443373256132, -8242.049305683293, -14433.661333758992, 0.011265625000000001, -0.10945312500000001, 0.9858125, 192.0, 0.0, 0.0, 0.0, 0.0, 0.0, 0.0, 0.0, 0.0, 0.0, 1.645922373744479E9, 0.0, 2022-02-27 11:39:33.744
76.0, -901.5799643492657, -3573.9992349146887, -1403.4213308598198, -9102.65852244598, 76.48766952606077, 586.2639053182489, -4942.797713613238, -1184.0836625198917, -3049.2026268485342, -4495.941638462739, -3272.965940590613, -2556.8383999870302, -2599.5078801522113, -1563.437469415363, -8458.034212354924, -15043.081646332937, 0.012, -0.108, 0.99, 192.0, 0.0, 48.0, 126.0, 80.0, 15.0, 120.0, 0.0, 0.0, 0.0, 1.645922373752474E9, 0.0, 2022-02-27 11:39:33.752
78.0, -1366.160972852823, -3920.384218738582, -1693.2564012117866, -9462.20868375405, -337.8913209308769, 368.78143176811125, -5044.833427051714, -1222.6627734497517, -2212.800349330944, -4676.521381917165, -3612.4442353778168, -2647.6535377089426, -2959.6838903050293, -1850.0315368213103, -8491.338311593332, -15041.852300387896, 0.012, -0.108, 0.99, 192.0, 0.0, 0.0, 0.0, 0.0, 0.0, 0.0, 0.0, 0.0, 0.0, 1.645922373759652E9, 0.0, 2022-02-27 11:39:33.759
80.0, -803.0981782791828, -3487.7662048061143, -1289.0251027375582, -8988.329349557085, 180.46798473214923, 675.9167523284856, -4825.831034878616, -977.1735640971142, -1636.37121157303, -4065.223522808972, -3291.584943721884, -2473.0864135129946, -2652.257997066736, -1539.2528819147208, -8259.43896286952, -14469.357069654116, 0.012, -0.108, 0.99, 192.0, 0.0, 0.0, 0.0, 0.0, 0.0, 0.0, 0.0, 0.0, 0.0, 1.645922373767128E9, 0.0, 2022-02-27 11:39:33.767
82.0, -1306.3477046904213, -3882.632122353569, -1697.9949710363117, -9448.7305818475, -320.21109106672895, 334.65031798485734, -5107.530070248851, -1377.4262520582977, -3601.1119009389763, -4958.667452176506, -3466.2414748956535, -2696.96148597735, -2795.4209203029777, -1770.6157887716042, -8643.911319245259, -15475.2526253763, 0.012, -0.108, 0.99, 192.0, 0.0, 0.0, 0.0, 0.0, 0.0, 0.0, 0.0, 0.0, 0.0, 1.645922373775099E9, 0.0, 2022-02-27 11:39:33.775
84.0, -1068.368681474767, -3678.761861176713, -1466.1626775458667, -9200.290942226762, -74.72188171409151, 561.878152117509, -4870.042785411213, -1017.4290558611222, -1069.3521582308006, -4102.774453493887, -3467.0684894405, -2487.5032886866675, -2841.823141792195, -1675.7996887921918, -8246.2961371298, -14423.580697009647, 0.012, -0.108, 0.99, 192.0, 0.0, 0.0, 0.0, 0.0, 0.0, 0.0, 0.0, 0.0, 0.0, 1.645922373783234E9, 0.0, 2022-02-27 11:39:33.783
86.0, -903.2116416945031, -3558.5541794960714, -1407.1317204394009, -9105.273676547251, 59.433288506661476, 571.5788092111122, -4962.958987111925, -1169.2868076904783, -3045.469885524498, -4505.754054278619, -3275.1564115472333, -2559.6994232773095, -2610.9296215688732, -1559.3918036689524, -8464.449163013598, -15041.271155032058, 0.012, -0.108, 0.992, 192.0, 0.0, 48.0, 126.0, 80.0, 15.5, 0.0, 0.0, 0.0, 0.0, 1.64592237378971E9, 0.0, 2022-02-27 11:39:33.789
88.0, -1366.2727315750994, -3904.9391633199652, -1701.2359739823312, -9470.30001524687, -362.85821948745485, 351.369422837427, -5048.476761397929, -1262.292416369011, -2246.260910780539, -4694.112204803491, -3615.0593894790877, -2660.394032048468, -2976.335939924233, -1858.7934206477905, -8511.92426823667, -15053.609317971388, 0.012, -0.108, 0.992, 192.0, 0.0, 0.0, 0.0, 0.0, 0.0, 0.0, 0.0, 0.0, 0.0, 1.645922373797701E9, 0.0, 2022-02-27 11:39:33.797
90.0, -798.7842915993085, -3491.543649619061, -1289.0251027375582, -8999.371111318005, 158.4962199325824, 665.8137638346868, -4841.477255997331, -999.949991697072, -1634.8065894611586, -4062.9436448745305, -3289.685045443183, -2474.3828146914025, -2658.136505858482, -1551.188713453855, -8260.891826259116, -14480.823514559688, 0.012, -0.108, 0.992, 192.0, 0.0, 0.0, 0.0, 0.0, 0.0, 0.0, 0.0, 0.0, 0.0, 1.645922373805868E9, 0.0, 2022-02-27 11:39:33.805
92.0, -1295.0600737404911, -3881.4027764085267, -1699.6042966370937, -9454.385573194691, -329.17414059330713, 334.73972496267857, -5163.208265687021, -1389.8761737199038, -3603.212964917775, -4963.987167356869, -3462.575788804983, -2686.7243870168195, -2795.1526993695143, -1771.1298788940762, -8651.130932704322, -15481.086430679135, 0.012, -0.108, 0.992, 192.0, 0.0, 0.0, 0.0, 0.0, 0.0, 0.0, 0.0, 0.0, 0.0, 1.645922373819393E9, 0.0, 2022-02-27 11:39:33.819
94.0, -1073.4872309550324, -3680.1253175884867, -1476.8244596510483, -9213.366712733115, -92.4244633226947, 552.6245299130118, -4882.068023928168, -1051.0237277774488, -1067.9887018190268, -4115.827872255787, -3469.9071609863236, -2497.136890546905, -2852.887255297572, -1686.305008686186, -8258.544893091308, -14436.365894838083, 0.012, -0.108, 0.992, 192.0, 0.0, 0.0, 0.0, 0.0, 0.0, 0.0, 0.0, 0.0, 0.0, 1.645922373827385E9, 0.0, 2022-02-27 11:39:33.827
96.0, -892.505156100411, -3565.080888877021, -1408.5398803400851, -9102.077377090141, 52.41484074769506, 576.4291377579138, -4995.32431308321, -1155.8981127617494, -3041.044240122347, -4520.215632941203, -3287.2487052975544, -2563.141591923427, -2630.0850665670714, -1561.9399025368575, -8470.86411367227, -15035.705570662687, 0.016, -0.10400000000000001, 0.988, 192.0, 0.0, 64.0, 126.0, 96.0, 15.0, 112.0, 0.0, 0.0, 0.0, 1.645922373835352E9, 0.0, 2022-02-27 11:39:33.835
98.0, -1351.9229116347924, -3897.853660327633, -1703.0017617943004, -9473.138686792694, -373.4305946148151, 345.37915532340475, -5085.535953704829, -1278.0503962100026, -2276.8380971953984, -4704.796338653128, -3612.243069677719, -2642.624395206499, -2975.3524631682, -1854.1442578010867, -8517.534556094952, -15071.334251324446, 0.016, -0.10400000000000001, 0.988, 192.0, 0.0, 0.0, 0.0, 0.0, 0.0, 0.0, 0.0, 0.0, 0.0, 1.645922373842062E9, 0.0, 2022-02-27 11:39:33.842
100.0, -800.9971143003839, -3482.5358966035724, -1299.2174982091783, -9004.377902075996, 144.928711048211, 665.0761562676616, -4849.367421790054, -978.7158344645303, -1596.2721820202091, -4056.7298599159553, -3296.0552926129453, -2485.49163168569, -2665.4678780398226, -1544.4384866283522, -8253.605157566686, -14469.267662676295, 0.016, -0.10400000000000001, 0.988, 192.0, 0.0, 0.0, 0.0, 0.0, 0.0, 0.0, 0.0, 0.0, 0.0, 1.645922373850012E9, 0.0, 2022-02-27 11:39:33.850
102.0, -1279.3691491328657, -3864.1919331779404, -1691.6694273554597, -9443.29910794486, -332.1022191169523, 328.6600504708351, -5179.457983906029, -1400.2026796582556, -3620.803787804102, -4949.972623583391, -3465.101535928433, -2686.4114625944453, -2797.4996325373213, -1785.524402323294, -8650.1921594372, -15484.305081880699, 0.016, -0.10400000000000001, 0.988, 192.0, 0.0, 0.0, 0.0, 0.0, 0.0, 0.0, 0.0, 0.0, 0.0, 1.645922373858188E9, 0.0, 2022-02-27 11:39:33.858
104.0, -1083.0314258374485, -3689.557753748626, -1486.5251167446515, -9228.387085007082, -101.72278901610244, 541.5380646631795, -4886.8065937526935, -1053.3483092008007, -1096.5095277439987, -4140.794770812366, -3484.7487193046477, -2513.7889401661087, -2857.2905489552677, -1708.8355670971355, -8259.461314613976, -14458.739991037846, 0.016, -0.10400000000000001, 0.988, 192.0, 0.0, 0.0, 0.0, 0.0, 0.0, 0.0, 0.0, 0.0, 0.0, 1.645922373865314E9, 0.0, 2022-02-27 11:39:33.865
106.0, -884.9502664745172, -3565.5949789994934, -1403.063702948535, -9107.262981803773, 52.25837853650791, 568.6730824319222, -4982.203839087944, -1190.4092062007435, -3007.0919402947357, -4505.217612411691, -3282.5995424508505, -2576.6196938299768, -2611.8236913470855, -1563.8845043044691, -8458.950633877592, -15034.252707273092, 0.012, -0.106, 0.99, 192.0, 0.0, 48.0, 126.0, 88.0, 15.0, 120.0, 0.0, 0.0, 0.0, 1.645922373871646E9, 0.0, 2022-02-27 11:39:33.871
108.0, -1359.4330977717755, -3920.58538443868, -1707.7403316188256, -9477.698442661576, -376.6045423274687, 336.952547663754, -5058.289177213809, -1264.1699629032569, -2286.181126377717, -4726.008144141215, -3617.3169156690738, -2667.3677763185237, -2965.2047711854902, -1865.7001096844806, -8510.672570547173, -15078.620920016876, 0.012, -0.106, 0.99, 192.0, 0.0, 0.0, 0.0, 0.0, 0.0, 0.0, 0.0, 0.0, 0.0, 1.645922373879802E9, 0.0, 2022-02-27 11:39:33.879
110.0, -787.7872333272974, -3475.6962628002484, -1294.6577423402957, -9001.15925087443, 147.29799596047354, 663.2209614778711, -4845.321756043644, -1010.2988493798792, -1596.0263128312008, -4071.3926042786366, -3293.84246991187, -2478.9649223047404, -2662.2492268382584, -1557.894236790447, -8250.744134276407, -14464.171464940486, 0.012, -0.106, 0.99, 192.0, 0.0, 0.0, 0.0, 0.0, 0.0, 0.0, 0.0, 0.0, 0.0, 1.645922373887812E9, 0.0, 2022-02-27 11:39:33.887
112.0, -1284.7559195465947, -3868.237598924351, -1699.984276292834, -9451.792770837876, -338.7183354757232, 326.76015219213394, -5162.493009864451, -1381.4942695491636, -3624.1341977279426, -4973.754879683838, -3454.2385881231535, -2701.096558701582, -2783.127460852559, -1761.1386491225542, -8648.560482091962, -15479.499456822808, 0.012, -0.106, 0.99, 192.0, 0.0, 0.0, 0.0, 0.0, 0.0, 0.0, 0.0, 0.0, 0.0, 1.645922373894931E9, 0.0, 2022-02-27 11:39:33.894
114.0, -1077.4881932125322, -3693.2234398392966, -1485.2957707996097, -9226.241317539372, -111.69166704316939, 529.8033988241433, -4888.840602498127, -1041.4571811505773, -1096.8448039108282, -4136.43618064358, -3485.7545478051366, -2524.942460649307, -2851.7473163303516, -1699.9395728039233, -8252.956956977481, -14440.500967562315, 0.012, -0.106, 0.99, 192.0, 0.0, 0.0, 0.0, 0.0, 0.0, 0.0, 0.0, 0.0, 0.0, 1.645922373902314E9, 0.0, 2022-02-27 11:39:33.902
116.0, -881.5751530617658, -3562.80101094258, -1402.996647715169, -9099.998664855799, 42.91534935418956, 557.2289892708051, -4988.328217068698, -1180.5744386404085, -3013.9762775869704, -4513.398350882334, -3285.8852488857806, -2573.4680978617785, -2610.683752379865, -1569.9641787963128, -8458.838875155316, -15032.509271205578, 0.012, -0.106, 0.994, 192.0, 0.0, 48.0, 126.0, 88.0, 15.5, 8.0, 0.0, 0.0, 0.0, 1.645922373910353E9, 0.0, 2022-02-27 11:39:33.910
118.0, -1373.1347171228788, -3924.0499048292527, -1711.71894213187, -9481.475887474524, -395.916449536854, 342.1828558662958, -5080.819735624759, -1273.8035647634943, -2356.723231878666, -4734.457103545321, -3627.57636637406, -2672.1063461430485, -2970.1668584545682, -1861.4309264935168, -8525.804701543415, -15097.999882459628, 0.012, -0.106, 0.994, 192.0, 0.0, 0.0, 0.0, 0.0, 0.0, 0.0, 0.0, 0.0, 0.0, 1.645922373917595E9, 0.0, 2022-02-27 11:39:33.917
120.0, -813.8493673621855, -3499.277353200597, -1303.7325505891504, -9006.344855588062, 128.2543096845519, 664.2044382339046, -4828.066209324147, -978.3358548087901, -1589.6560656614383, -4067.1010693432177, -3312.684990487694, -2493.49355620069, -2667.9265699299062, -1554.8096960556145, -8250.878244743139, -14451.833302001156, 0.012, -0.106, 0.994, 192.0, 0.0, 0.0, 0.0, 0.0, 0.0, 0.0, 0.0, 0.0, 0.0, 1.645922373924932E9, 0.0, 2022-02-27 11:39:33.924
122.0, -1282.9677799901701, -3866.1588866900074, -1689.9930465213117, -9439.76753232092, -315.8525008979441, 339.81357095403325, -5149.819570758292, -1382.0754149050017, -3656.8347998660565, -4970.715042437916, -3464.833314994969, -2708.4055791384676, -2783.6191992305758, -1758.076460132177, -8645.028906468024, -15473.39743058651, 0.012, -0.106, 0.994, 192.0, 0.0, 0.0, 0.0, 0.0, 0.0, 0.0, 0.0, 0.0, 0.0, 1.645922373940077E9, 0.0, 2022-02-27 11:39:33.940
124.0, -1119.3530105773225, -3725.3205448771173, -1505.2335268537436, -9249.844759684178, -132.09880973086473, 518.0687329851071, -4897.3119136466885, -1048.5426841429096, -1147.851484757839, -4170.455535704557, -3508.866251571924, -2542.64504225791, -2866.7676886043178, -1715.0717038001662, -8268.960806007482, -14466.63015683057, 0.012, -0.106, 0.994, 192.0, 0.0, 0.0, 0.0, 0.0, 0.0, 0.0, 0.0, 0.0, 0.0, 1.64592237394721E9, 0.0, 2022-02-27 11:39:33.947
126.0, -897.9366300030506, -3567.2266563447306, -1402.3037436370546, -9095.684778175924, 48.61504419029286, 566.4602597308469, -4972.570237227707, -1175.1876682266795, -2983.242628960923, -4497.930943719261, -3294.3342082898866, -2586.297999179125, -2610.5943454020435, -1570.9029520634356, -8447.573595949842, -14999.540448134, 0.01, -0.10400000000000001, 0.992, 192.0, 0.0, 40.0, 126.0, 96.0, 15.5, 0.0, 0.0, 0.0, 0.0, 1.645922373954607E9, 0.0, 2022-02-27 11:39:33.954
128.0, -1392.804252243549, -3936.4998264908586, -1717.888023601535, -9490.953027123574, -380.8960772628877, 335.4773325297037, -5050.019031765346, -1275.7481665311059, -2400.465595777702, -4756.652385789441, -3630.8173693200793, -2691.194735907881, -2965.7188613079625, -1867.2423800518968, -8520.082654962856, -15104.839516262951, 0.01, -0.10400000000000001, 0.992, 192.0, 0.0, 0.0, 0.0, 0.0, 0.0, 0.0, 0.0, 0.0, 0.0, 1.645922373962786E9, 0.0, 2022-02-27 11:39:33.962
130.0, -827.4615797354675, -3506.608725381938, -1303.9560680337033, -9012.201012635353, 149.4214116837277, 682.6893308984436, -4827.596822690585, -987.9024014356615, -1568.7124811068156, -4066.7434414319328, -3315.5236620335177, -2509.3185912750473, -2662.9197791719175, -1550.7863820536593, -8238.853006226183, -14441.596203040624, 0.01, -0.10400000000000001, 0.992, 192.0, 0.0, 0.0, 0.0, 0.0, 0.0, 0.0, 0.0, 0.0, 0.0, 1.645922373970697E9, 0.0, 2022-02-27 11:39:33.970
132.0, -1303.1290534888572, -3888.0188927672975, -1700.4536629263955, -9442.673259100111, -323.67561145730156, 335.9020156743545, -5161.174256941588, -1394.2347638886886, -3655.180770776364, -4975.632426218084, -3461.9722917046897, -2717.9721257653387, -2770.9904636133274, -1763.1279543790763, -8641.296165143987, -15472.570416041663, 0.01, -0.10400000000000001, 0.992, 192.0, 0.0, 0.0, 0.0, 0.0, 0.0, 0.0, 0.0, 0.0, 0.0, 1.645922373977294E9, 0.0, 2022-02-27 11:39:33.977
134.0, -1111.9769349070712, -3715.217556383319, -1495.510518015685, -9231.359867019639, -117.12314094580901, 528.9987360237523, -4917.204966211912, -1048.3862219317225, -1129.590109537853, -4154.474038419013, -3501.8254520685023, -2526.4400275278126, -2859.4586681674327, -1703.33703796113, -8262.344689648711, -14445.843034487134, 0.01, -0.10400000000000001, 0.992, 192.0, 0.0, 0.0, 0.0, 0.0, 0.0, 0.0, 0.0, 0.0, 0.0, 1.645922373985204E9, 0.0, 2022-02-27 11:39:33.985
136.0, -885.8443362527295, -3562.2869208201078, -1389.451490575253, -9092.242609529807, 60.46146875160561, 578.2172773143384, -4997.023045661813, -1171.1867059691795, -2989.5905243862303, -4502.691865288242, -3283.3371500178755, -2583.3699206554797, -2603.3523801985243, -1560.2411699582542, -8451.976889607537, -15004.100204002883, 0.01, -0.108, 0.992, 192.0, 0.0, 40.0, 126.0, 80.0, 15.5, 0.0, 0.0, 0.0, 0.0, 1.645922373992334E9, 0.0, 2022-02-27 11:39:33.992
138.0, -1395.2405923891774, -3938.3103177917387, -1721.0843230586438, -9495.445727759092, -397.97281002674225, 339.2771290871059, -5064.234741238921, -1288.7345300596394, -2446.487837611179, -4765.011938215725, -3625.43059890635, -2689.8536312405627, -2966.4341171305323, -1860.9838916044107, -8532.778445813472, -15121.715083326708, 0.01, -0.108, 0.992, 192.0, 0.0, 0.0, 0.0, 0.0, 0.0, 0.0, 0.0, 0.0, 0.0, 1.645922374000458E9, 0.0, 2022-02-27 11:39:34.000
140.0, -821.7171814104536, -3500.5290508900944, -1299.3963121648208, -9006.322503843607, 134.64690859876976, 670.1500022590163, -4848.383945034021, -993.1103578937481, -1537.218873169288, -4038.51318818488, -3320.485749302596, -2495.773434135131, -2678.2307241238027, -1548.0594692301117, -8244.955032462482, -14428.207508111896, 0.01, -0.108, 0.992, 192.0, 0.0, 0.0, 0.0, 0.0, 0.0, 0.0, 0.0, 0.0, 0.0, 1.645922374006852E9, 0.0, 2022-02-27 11:39:34.006
142.0, -1281.9619514896813, -3865.018947722787, -1677.6325318375268, -9427.362314148226, -314.08671308597485, 346.1391146348852, -5155.899245250135, -1417.1676536998336, -3654.1749422758753, -4952.386611984564, -3449.120038642888, -2701.7894627796964, -2767.1012600781037, -1725.1970440384202, -8648.13579894731, -15464.076753148647, 0.01, -0.108, 0.992, 192.0, 0.0, 0.0, 0.0, 0.0, 0.0, 0.0, 0.0, 0.0, 0.0, 1.645922374014987E9, 0.0, 2022-02-27 11:39:34.014
144.0, -1139.849560242839, -3728.4050856119497, -1504.1159396309781, -9253.532797519303, -141.4865424020937, 514.7159713168111, -4910.9911812533355, -1071.1850012761356, -1156.3227959064002, -4184.715948667043, -3509.0003620386556, -2549.752896994698, -2872.4226799515104, -1706.1533577624987, -8273.319396176266, -14469.178255698474, 0.01, -0.108, 0.992, 192.0, 0.0, 0.0, 0.0, 0.0, 0.0, 0.0, 0.0, 0.0, 0.0, 1.645922374022947E9, 0.0, 2022-02-27 11:39:34.022
146.0, -895.1426619461372, -3565.70673772177, -1387.3727783409095, -9091.728519407336, 58.047480350432444, 588.1191001080394, -4972.480830249886, -1171.2314094580902, -2946.8986924765936, -4492.03008318306, -3286.7569669195377, -2593.875240549474, -2612.9859820587617, -1570.2100479853211, -8444.220834281545, -14980.34029964689, 0.01, -0.114, 0.994, 192.0, 0.0, 40.0, 126.0, 56.0, 15.5, 8.0, 0.0, 0.0, 0.0, 1.645922374029535E9, 0.0, 2022-02-27 11:39:34.029
148.0, -1407.444644861775, -3955.4764575334143, -1725.3088027606968, -9497.300922548882, -391.2896384346054, 316.4783497426927, -5067.0957645292, -1300.9162307877816, -2470.046576267073, -4783.273313435711, -3627.330497185051, -2706.3045151596684, -2970.0327479878365, -1849.8750746101232, -8536.667649348694, -15125.17960371728, 0.01, -0.114, 0.994, 192.0, 0.0, 0.0, 0.0, 0.0, 0.0, 0.0, 0.0, 0.0, 0.0, 1.645922374038963E9, 0.0, 2022-02-27 11:39:34.038
150.0, -841.2973095533025, -3515.705885375248, -1311.6227163818737, -9008.155346888941, 130.44478064117203, 660.158772487494, -4844.025354865236, -984.3708258117231, -1529.3287073765646, -4053.891188370131, -3327.392438339286, -2488.7996898650754, -2683.4386805818895, -1552.216893698799, -8246.117323174158, -14421.122005119563, 0.01, -0.114, 0.994, 192.0, 0.0, 0.0, 0.0, 0.0, 0.0, 0.0, 0.0, 0.0, 0.0, 1.645922374045602E9, 0.0, 2022-02-27 11:39:34.045
152.0, -1290.5673731049744, -3869.1093169581077, -1689.5013081432949, -9439.186386965082, -318.7805794215893, 332.41514353932666, -5170.78550705737, -1434.0655725080458, -3662.15451504642, -4951.514893950808, -3453.6350910228603, -2698.4590528558556, -2776.354882282601, -1741.692631446437, -8648.42637162523, -15459.338183324122, 0.01, -0.114, 0.994, 192.0, 0.0, 0.0, 0.0, 0.0, 0.0, 0.0, 0.0, 0.0, 0.0, 1.645922374052873E9, 0.0, 2022-02-27 11:39:34.052
154.0, -1123.6668972571968, -3718.2797453736957, -1502.4172070523748, -9247.855454427654, -134.8033708099569, 517.9793260072859, -4910.141814964034, -1071.6767396541525, -1126.5502722919314, -4154.295224463371, -3496.863364799424, -2537.0571061440833, -2869.1369735165804, -1695.4245204239512, -8270.793649052817, -14466.518398108292, 0.012, -0.113, 0.993, 192.0, 0.0, 56.0, 126.0, 64.0, 15.5, 0.0, 0.0, 0.0, 0.0, 1.645922374067864E9, 0.0, 2022-02-27 11:39:34.067
156.0, -879.9211239720731, -3552.1392288373986, -1385.964618440225, -9083.570132681149, 51.788991902946464, 567.264922531238, -4990.496336280863, -1182.7649095970285, -2947.2563203878785, -4487.492679058633, -3281.5043069725407, -2594.8363655610524, -2622.8207496190967, -1567.661949117416, -8451.887482629714, -14988.141058461793, 0.012, -0.113, 0.993, 192.0, 0.0, 0.0, 0.0, 0.0, 0.0, 0.0, 0.0, 0.0, 0.0, 1.645922374074561E9, 0.0, 2022-02-27 11:39:34.074
158.0, -1375.2581328461329, -3918.484320459881, -1717.7986166237138, -9483.398137497681, -407.49465316470304, 333.1974545952624, -5107.44066327103, -1308.6946378582286, -2439.8717212524084, -4744.783609483673, -3611.6172208329704, -2672.262808354236, -2977.967617269471, -1858.2793305253185, -8546.234195975567, -15134.85790906643, 0.012, -0.113, 0.993, 192.0, 0.0, 0.0, 0.0, 0.0, 0.0, 0.0, 0.0, 0.0, 0.0, 1.645922374082506E9, 0.0, 2022-02-27 11:39:34.082
160.0, -809.1331492821157, -3478.5572860905277, -1308.739341347139, -8999.39346306246, 122.86753927082292, 666.3502057016142, -4857.4587532828755, -1001.0452271753821, -1517.0799514150563, -4028.9466415580087, -3297.9551908916465, -2477.176782748316, -2677.9177997014285, -1541.5104081047068, -8252.308756388278, -14432.38728432504, 0.012, -0.113, 0.993, 192.0, 0.0, 0.0, 0.0, 0.0, 0.0, 0.0, 0.0, 0.0, 0.0, 1.645922374090568E9, 0.0, 2022-02-27 11:39:34.090
162.0, -1256.9503494441926, -3832.9888979183315, -1680.8958865280017, -9416.76758727641, -317.93121313228767, 346.67555650181254, -5176.552257126839, -1410.7303512967053, -3653.8396661090455, -4931.599489641129, -3431.9762506456677, -2677.0237299232163, -2775.751385182308, -1729.5556342072052, -8655.310708917465, -15462.310965336677, 0.012, -0.113, 0.993, 192.0, 0.0, 0.0, 0.0, 0.0, 0.0, 0.0, 0.0, 0.0, 0.0, 1.64592237409728E9, 0.0, 2022-02-27 11:39:34.097
164.0, -1109.3170773168895, -3706.858003957034, -1498.3938930504196, -9246.626108482613, -130.42242889671672, 530.943337791364, -4931.4206756854865, -1088.3958445067221, -1131.042972927448, -4140.906529534642, -3487.0062454946337, -2524.361315293469, -2879.2399620103793, -1704.074645528155, -8281.96952128047, -14475.682613334968, 0.01, -0.1105, 0.9935, 192.0, 0.0, 32.0, 126.0, 80.0, 15.5, 8.0, 0.0, 0.0, 0.0, 1.645922374105136E9, 0.0, 2022-02-27 11:39:34.105
166.0, -864.9454551870174, -3528.0440483145776, -1377.158031124834, -9076.976368066833, 58.5392187284492, 558.4806869603023, -4990.429281047497, -1194.0301888025033, -2914.466311271943, -4466.1691148482705, -3264.36051897532, -2574.295112406625, -2622.194900774348, -1548.6629663304052, -8449.67465992864, -14980.317947902437, 0.01, -0.1105, 0.9935, 192.0, 0.0, 0.0, 0.0, 0.0, 0.0, 0.0, 0.0, 0.0, 0.0, 1.645922374113059E9, 0.0, 2022-02-27 11:39:34.113
168.0, -1386.9480951962585, -3919.9148321050207, -1721.1290265475545, -9492.83057365782, -412.14381601140695, 310.8457101399553, -5089.425157240053, -1319.8258065969715, -2457.5743028610113, -4759.580464313086, -3609.5161568541716, -2670.944055431373, -2980.918047537571, -1855.3065485127627, -8544.222538974589, -15142.345743458956, 0.01, -0.1105, 0.9935, 192.0, 0.0, 0.0, 0.0, 0.0, 0.0, 0.0, 0.0, 0.0, 0.0, 1.645922374120187E9, 0.0, 2022-02-27 11:39:34.120
170.0, -822.5665476997552, -3496.2151642102203, -1302.7937773220274, -9013.005675435743, 129.19308295167482, 649.8993217825082, -4862.8008202076935, -1004.4203405881335, -1518.8904427159362, -4039.8542928521983, -3307.812310196437, -2483.4799746847125, -2687.3502358615683, -1549.02059424169, -8247.324317374745, -14434.577755281658, 0.01, -0.1105, 0.9935, 192.0, 0.0, 0.0, 0.0, 0.0, 0.0, 0.0, 0.0, 0.0, 0.0, 1.645922374126759E9, 0.0, 2022-02-27 11:39:34.126
172.0, -1269.7355472726283, -3848.009270192298, -1677.6548835819822, -9429.709247316034, -312.47738748519276, 326.84955916995517, -5180.30735019533, -1423.2696799361324, -3670.022329094688, -4948.095077049145, -3438.145332115332, -2690.121852174026, -2774.6337979595423, -1732.5060644753057, -8649.745124548093, -15474.336203853632, 0.01, -0.1105, 0.9935, 192.0, 0.0, 0.0, 0.0, 0.0, 0.0, 0.0, 0.0, 0.0, 0.0, 1.645922374134715E9, 0.0, 2022-02-27 11:39:34.134
174.0, -1120.9623361781046, -3714.4575970718383, -1497.1645471053778, -9251.744657962878, -139.5866441233926, 514.0230672386965, -4925.296297704733, -1084.752510160507, -1138.7766765089843, -4165.5828554133, -3495.83518455448, -2531.3574113079803, -2880.4469562109657, -1713.8647095995796, -8275.643977599619, -14482.611654116114, 0.01, -0.11225, 0.99275, 192.0, 0.0, 40.0, 126.0, 56.0, 15.5, 0.0, 0.0, 0.0, 0.0, 1.645922374142786E9, 0.0, 2022-02-27 11:39:34.142
176.0, -868.40997557759, -3538.8399408864907, -1369.7819554545827, -9073.578902909625, 69.08924211135412, 576.5632482246457, -4986.495374023363, -1179.6580171177409, -2908.0737123577255, -4461.1846758347365, -3268.5626469329177, -2570.7858885271417, -2615.779950115675, -1555.7261175782821, -8441.069238313346, -14976.048764711471, 0.01, -0.11225, 0.99275, 192.0, 0.0, 0.0, 0.0, 0.0, 0.0, 0.0, 0.0, 0.0, 0.0, 1.645922374149934E9, 0.0, 2022-02-27 11:39:34.149
178.0, -1396.4475865897641, -3931.649497944057, -1715.1611107779875, -9492.227076557527, -398.7327693382227, 325.39669578036023, -5117.096616875722, -1331.8510451139266, -2505.7423121621982, -4773.170324941912, -3609.9184882543673, -2678.029558423705, -2970.9044660215936, -1849.2492257653746, -8548.894053565748, -15155.041534309572, 0.01, -0.11225, 0.99275, 192.0, 0.0, 0.0, 0.0, 0.0, 0.0, 0.0, 0.0, 0.0, 0.0, 1.645922374157531E9, 0.0, 2022-02-27 11:39:34.157
180.0, -846.3041003112913, -3515.7729406086137, -1302.1902802217342, -9011.01637017922, 132.3446789198731, 664.740880100832, -4867.092355143113, -1002.4310353316112, -1478.7914131631153, -4038.7143538849778, -3304.0795688724006, -2484.4858031852013, -2680.7564712472526, -1550.0711262310895, -8244.44094234001, -14426.061740644187, 0.01, -0.11225, 0.99275, 192.0, 0.0, 0.0, 0.0, 0.0, 0.0, 0.0, 0.0, 0.0, 0.0, 1.645922374165393E9, 0.0, 2022-02-27 11:39:34.165
182.0, -1308.2699547135776, -3887.9518375339317, -1680.6500173389934, -9417.192270421061, -302.1955850357515, 349.82715247001084, -5149.618405058194, -1398.7945197575714, -3687.4119862809166, -4949.413829972009, -3446.616643263894, -2695.4862708432997, -2772.935065380939, -1739.0327738562553, -8643.240766911598, -15459.852273446593, 0.01, -0.11225, 0.99275, 192.0, 0.0, 0.0, 0.0, 0.0, 0.0, 0.0, 0.0, 0.0, 0.0, 1.645922374173446E9, 0.0, 2022-02-27 11:39:34.173
184.0, -1202.0097615730479, -3783.8374118611114, -1521.4385415838412, -9260.350079578171, -149.7119843616467, 513.4642736273138, -4914.031018499258, -1090.1839840631467, -1184.910677064738, -4192.2261348040265, -3523.5960511679714, -2547.6518330158992, -2894.863831384639, -1725.3088027606968, -8282.237742213934, -14489.875971064088, 0.008, -0.113125, 0.991375, 192.0, 0.0, 24.0, 126.0, 56.0, 15.0, 120.0, 0.0, 0.0, 0.0, 1.64592237418706E9, 0.0, 2022-02-27 11:39:34.187
186.0, -958.599264454754, -3624.022439005666, -1384.1764788838004, -9078.920969834444, 81.673274239692, 588.3873210415031, -4969.038661603769, -1168.3703861678107, -2907.8501949131723, -4475.98153066415, -3299.095129858867, -2595.5963248725325, -2625.61471767601, -1563.437469415363, -8436.800055122383, -14953.652316767255, 0.008, -0.113125, 0.991375, 192.0, 0.0, 0.0, 0.0, 0.0, 0.0, 0.0, 0.0, 0.0, 0.0, 1.645922374195012E9, 0.0, 2022-02-27 11:39:34.195
188.0, -1514.4871490582407, -4059.3673657616814, -1735.948233121423, -9506.6439517312, -394.6424001029015, 328.14596034836296, -5085.781822893837, -1315.6236786393738, -2546.2436731152147, -4822.2994592546775, -3647.7376398727465, -2721.0790182446267, -2981.0968614932135, -1875.3113598002626, -8547.441190176152, -15157.14259828837, 0.008, -0.113125, 0.991375, 192.0, 0.0, 0.0, 0.0, 0.0, 0.0, 0.0, 0.0, 0.0, 0.0, 1.645922374202128E9, 0.0, 2022-02-27 11:39:34.202
190.0, -982.627389744209, -3658.15355278892, -1328.3865247233541, -9023.287477885184, 124.52156836051564, 660.1811242319494, -4847.556930489174, -1002.9674771985385, -1543.7232308057824, -4078.9474939045303, -3355.37682239733, -2515.0853413445166, -2701.5659453351436, -1569.3383299515642, -8242.138712661113, -14423.267772587273, 0.008, -0.113125, 0.991375, 192.0, 0.0, 0.0, 0.0, 0.0, 0.0, 0.0, 0.0, 0.0, 0.0, 1.645922374209783E9, 0.0, 2022-02-27 11:39:34.209
192.0, -1445.4202586913418, -4023.93985080002, -1697.726750102848, -9428.636363582178, -301.32386700199453, 348.57545478051367, -5169.176181456588, -1405.7459122831717, -3741.8384840295894, -4993.647932249061, -3492.2589054416308, -2731.740800349808, -2786.212001587391, -1740.9550238794118, -8651.28739491551, -15462.020392658758, 0.008, -0.113125, 0.991375, 192.0, 0.0, 0.0, 0.0, 0.0, 0.0, 0.0, 0.0, 0.0, 0.0, 1.645922374217731E9, 0.0, 2022-02-27 11:39:34.217
194.0, -1341.9763853521808, -3924.9886780963757, -1534.0672772010896, -9266.228588369917, -143.3640889363395, 526.0930092445624, -4955.8958358640475, -1086.6747601836635, -1224.0038781170701, -4230.134693400228, -3571.7193569802475, -2582.65466483291, -2902.5304797328095, -1724.6382504270377, -8287.445698672022, -14486.232636717874, 0.009000000000000001, -0.11356250000000001, 0.9896875, 192.0, 0.0, 40.0, 126.0, 56.0, 15.0, 112.0, 0.0, 0.0, 0.0, 1.645922374225699E9, 0.0, 2022-02-27 11:39:34.225
196.0, -1077.3317310013451, -3747.5828823546035, -1389.6526562753506, -9075.121173277043, 87.17180337569755, 601.9548299258745, -4995.838403205682, -1180.5073834070424, -2944.4847040754207, -4508.503318846621, -3340.1999879121768, -2623.04426706365, -2630.3085840116246, -1564.1527252379328, -8445.874863371237, -14954.904014456752, 0.009000000000000001, -0.11356250000000001, 0.9896875, 192.0, 0.0, 0.0, 0.0, 0.0, 0.0, 0.0, 0.0, 0.0, 0.0, 1.645922374232304E9, 0.0, 2022-02-27 11:39:34.232
198.0, -1618.9592026423459, -4138.425485900103, -1750.007480383811, -9510.108472121772, -402.6219728734461, 342.1158006329299, -5074.225971010444, -1311.488605915142, -2604.8275953325747, -4851.9378724024145, -3672.3469105180397, -2741.866140588062, -2979.5545911257973, -1864.6942811839917, -8560.136981026768, -15162.931700102294, 0.009000000000000001, -0.11356250000000001, 0.9896875, 192.0, 0.0, 0.0, 0.0, 0.0, 0.0, 0.0, 0.0, 0.0, 0.0, 1.645922374239299E9, 0.0, 2022-02-27 11:39:34.239
200.0, -1048.0956492538035, -3699.593687009059, -1337.260167272111, -9031.490568100282, 125.0133067385324, 661.5892841326338, -4817.203261518867, -980.6380844876868, -1552.7086320768158, -4092.962037678008, -3387.943314068713, -2547.6071295269885, -2712.58535535161, -1553.7815158106705, -8238.718895759452, -14408.917952646965, 0.009000000000000001, -0.11356250000000001, 0.9896875, 192.0, 0.0, 0.0, 0.0, 0.0, 0.0, 0.0, 0.0, 0.0, 0.0, 1.645922374247413E9, 0.0, 2022-02-27 11:39:34.247
202.0, -1454.7185843847496, -4037.485007939936, -1694.016360523267, -9423.361351890726, -289.07511104048626, 350.0059664256533, -5148.634928302161, -1389.9879324421804, -3752.8355423016005, -4988.194106601966, -3495.8575362989354, -2735.361782951568, -2785.7873184427403, -1749.2922245612413, -8644.067781456444, -15454.040819888214, 0.009000000000000001, -0.11356250000000001, 0.9896875, 192.0, 0.0, 0.0, 0.0, 0.0, 0.0, 0.0, 0.0, 0.0, 0.0, 1.645922374255377E9, 0.0, 2022-02-27 11:39:34.255
204.0, -1316.7859693510497, -3898.9935992948535, -1537.665908058394, -9272.800001239777, -150.11431576184222, 513.8442532830541, -4914.098073732624, -1084.3054752714008, -1237.7278492126286, -4250.743001788021, -3572.255798847175, -2579.5924758425326, -2911.515881003843, -1736.529378477261, -8283.712957347985, -14492.066442020709, 0.0105, -0.11178125, 0.98784375, 192.0, 0.0, 48.0, 126.0, 72.0, 15.0, 104.0, 0.0, 0.0, 0.0, 1.645922374261876E9, 0.0, 2022-02-27 11:39:34.261
206.0, -1008.823634245829, -3673.218628551797, -1386.8139847295267, -9068.88503657401, 87.57413477589307, 602.4912717928019, -4964.210684801422, -1164.235313443579, -2896.026122096315, -4482.396481322823, -3324.0843801599003, -2609.7896826016527, -2631.1132468120154, -1568.8689433180027, -8428.820482351837, -14936.441473536668, 0.0105, -0.11178125, 0.98784375, 192.0, 0.0, 0.0, 0.0, 0.0, 0.0, 0.0, 0.0, 0.0, 0.0, 1.645922374269941E9, 0.0, 2022-02-27 11:39:34.269
208.0, -1515.3588670919976, -4051.633662180145, -1743.0337361137554, -9499.6925592056, -401.72790309523384, 335.07500112950817, -5109.698189461015, -1327.291289245044, -2604.6264296324766, -4829.004982591269, -3657.304186499618, -2711.4677681288445, -2986.3495214402105, -1868.359967274662, -8557.588882158861, -15171.3806595064, 0.0105, -0.11178125, 0.98784375, 192.0, 0.0, 0.0, 0.0, 0.0, 0.0, 0.0, 0.0, 0.0, 0.0, 1.645922374278096E9, 0.0, 2022-02-27 11:39:34.278
210.0, -938.8626741007179, -3601.4471771058056, -1324.5643764214965, -9019.822957494613, 116.51964384551572, 676.6096564066, -4875.004872680292, -1006.72257026703, -1489.3414365460203, -4051.4771999689583, -3345.095019947889, -2489.2467247541817, -2700.604820323565, -1558.5871408685614, -8244.597404551198, -14408.47091775786, 0.0105, -0.11178125, 0.98784375, 192.0, 0.0, 0.0, 0.0, 0.0, 0.0, 0.0, 0.0, 0.0, 0.0, 1.645922374285328E9, 0.0, 2022-02-27 11:39:34.285
212.0, -1342.3340132634657, -3918.8866518600767, -1681.6111423505715, -9408.832717994776, -279.5085644136148, 353.112858904941, -5169.757326812426, -1432.3668399294424, -3706.455672556838, -4945.83755085916, -3454.864436967902, -2700.96244823485, -2774.4996874928106, -1731.4778842303615, -8644.023077967535, -15454.666668732962, 0.0105, -0.11178125, 0.98784375, 192.0, 0.0, 0.0, 0.0, 0.0, 0.0, 0.0, 0.0, 0.0, 0.0, 1.645922374292567E9, 0.0, 2022-02-27 11:39:34.292
214.0, -1219.041790847992, -3797.1814033009296, -1528.702858531816, -9270.542475049791, -143.31938544742889, 494.91232572940896, -4909.5830213526515, -1118.0119059100039, -1196.3100667369447, -4196.87529765073, -3540.1586938093537, -2551.786905740131, -2902.9998663663705, -1744.0842681031547, -8281.164858480079, -14498.481392679381, 0.01125, -0.107890625, 0.9859218750000001, 192.0, 0.0, 48.0, 126.0, 96.0, 15.0, 96.0, 0.0, 0.0, 0.0, 1.645922374300633E9, 0.0, 2022-02-27 11:39:34.300
216.0, -918.5002349019331, -3594.7193020247582, -1374.4087665568313, -9061.8889405595, 92.62562902279247, 592.0083036432628, -4983.902571666547, -1175.2100199711347, -2856.0612030102257, -4451.305204785491, -3299.1174816033226, -2572.574028083566, -2632.476703223789, -1562.2304752147766, -8425.71358987255, -14935.815624691919, 0.01125, -0.107890625, 0.9859218750000001, 192.0, 0.0, 0.0, 0.0, 0.0, 0.0, 0.0, 0.0, 0.0, 0.0, 1.645922374314891E9, 0.0, 2022-02-27 11:39:34.314
218.0, -1444.8838168244145, -3982.6338270466126, -1737.6022622111157, -9499.580800483323, -400.16328098336237, 330.0011551381535, -5103.81968066927, -1358.3378622934656, -2580.397138642924, -4822.031238321214, -3625.5200058841715, -2683.841011982085, -2977.609989358186, -1867.4882492409051, -8559.622890904295, -15185.2834445576, 0.01125, -0.107890625, 0.9859218750000001, 192.0, 0.0, 0.0, 0.0, 0.0, 0.0, 0.0, 0.0, 0.0, 0.0, 1.645922374322296E9, 0.0, 2022-02-27 11:39:34.322
220.0, -893.2427636674362, -3541.8797781324124, -1332.1416177918456, -9024.382713363495, 110.99876296505488, 656.2695689522707, -4852.787238691716, -1006.1861284001027, -1457.7584216306714, -4044.0564208097962, -3336.8248744994253, -2478.473183926724, -2709.8137390391516, -1570.6123793855168, -8237.266032369856, -14405.989874123321, 0.01125, -0.107890625, 0.9859218750000001, 192.0, 0.0, 0.0, 0.0, 0.0, 0.0, 0.0, 0.0, 0.0, 0.0, 1.645922374330276E9, 0.0, 2022-02-27 11:39:34.330
222.0, -1299.195146464723, -3881.983921764365, -1685.5450493747055, -9409.592677306257, -298.61930592290236, 335.1867598517847, -5156.7039080505265, -1422.9791072582136, -3700.219535853808, -4943.69178339145, -3448.225968864676, -2706.8186052821407, -2785.809670187196, -1732.1707883084762, -8643.643098311793, -15453.43732278792, 0.01125, -0.107890625, 0.9859218750000001, 192.0, 0.0, 0.0, 0.0, 0.0, 0.0, 0.0, 0.0, 0.0, 0.0, 1.645922374339047E9, 0.0, 2022-02-27 11:39:34.339
224.0, -1183.815441586428, -3776.4166327019493, -1539.766972037193, -9268.106134904163, -168.19687702618566, 488.6761890263783, -4936.226300743378, -1116.6037460093196, -1190.6103719008413, -4219.607021761778, -3532.514397205639, -2537.5488445221004, -2913.9969246383816, -1741.5361692352499, -8287.423346927566, -14500.91773282501, 0.012, -0.108, 0.988, 192.0, 0.0, 48.0, 126.0, 80.0, 15.0, 112.0, 0.0, 0.0, 0.0, 1.645922374346294E9, 0.0, 2022-02-27 11:39:34.346
226.0, -877.5518390598106, -3552.407449770862, -1383.6176852724177, -9056.12219049003, 82.38853006226184, 582.7323296943105, -4976.392385529564, -1180.0827002623917, -2815.872766479584, -4435.010783077572, -3285.348807018853, -2551.9880714402284, -2633.795456146652, -1573.6298648869831, -8426.607659650763, -14925.71263619812, 0.012, -0.108, 0.988, 192.0, 0.0, 0.0, 0.0, 0.0, 0.0, 0.0, 0.0, 0.0, 0.0, 1.64592237435295E9, 0.0, 2022-02-27 11:39:34.352
228.0, -1418.1511304558671, -3951.363736553638, -1749.694555961437, -9502.128899351228, -413.7084381232784, 311.22568979569553, -5120.91876517758, -1350.5371034785633, -2613.1424442699486, -4822.500624954775, -3623.1730727163645, -2682.634017781498, -2989.4564139194986, -1879.2229150799412, -8566.641338663261, -15192.279540572114, 0.012, -0.108, 0.988, 192.0, 0.0, 0.0, 0.0, 0.0, 0.0, 0.0, 0.0, 0.0, 0.0, 1.645922374360914E9, 0.0, 2022-02-27 11:39:34.360
230.0, -860.0951266402158, -3518.3880947098846, -1330.062905557502, -9017.766597004724, 113.77037927751294, 650.03343224924, -4886.873648986059, -1045.815771319362, -1425.7283718262163, -4022.5093391548803, -3328.398266839775, -2470.3147972005368, -2712.3618379070567, -1566.0749752610893, -8239.478855070933, -14406.749833434802, 0.012, -0.108, 0.988, 192.0, 0.0, 0.0, 0.0, 0.0, 0.0, 0.0, 0.0, 0.0, 0.0, 1.645922374367236E9, 0.0, 2022-02-27 11:39:34.367
232.0, -1249.976605174137, -3832.9665461738764, -1673.6092178355716, -9391.040729408352, -288.98570406266504, 332.1022191169523, -5252.771705719436, -1463.279302511132, -3670.1117360725093, -4914.656867344006, -3421.6497447073157, -2666.071375140116, -2767.3024257782017, -1736.81995115518, -8653.969604250145, -15465.820189216161, 0.012, -0.108, 0.988, 192.0, 0.0, 0.0, 0.0, 0.0, 0.0, 0.0, 0.0, 0.0, 0.0, 1.645922374374485E9, 0.0, 2022-02-27 11:39:34.374
234.0, -1158.84854302985, -3744.274824175218, -1541.3539458935197, -9267.12265814813, -173.36012999536158, 491.47015708329167, -4969.5751034706955, -1120.8282257113726, -1178.808650828439, -4203.781986687421, -3519.438626699284, -2517.454626256779, -2912.1417298485912, -1750.4545152729172, -8308.12106229318, -14515.20049753195, 0.016, -0.112, 0.986, 192.0, 0.0, 64.0, 126.0, 64.0, 15.0, 104.0, 0.0, 0.0, 0.0, 1.645922374382574E9, 0.0, 2022-02-27 11:39:34.382
236.0, -868.5664377887772, -3542.5279787216164, -1382.2318771161888, -9058.357364935562, 84.86957369680091, 571.1764778109167, -4962.98133885638, -1194.2090027581457, -2794.996237158327, -4431.412152220268, -3281.101975572345, -2553.9326732078403, -2634.5330637136776, -1570.4335654298743, -8430.966249819547, -14926.226726320592, 0.016, -0.112, 0.986, 192.0, 0.0, 0.0, 0.0, 0.0, 0.0, 0.0, 0.0, 0.0, 0.0, 1.645922374390742E9, 0.0, 2022-02-27 11:39:34.390
238.0, -1426.287165437599, -3963.657196004057, -1760.043413644244, -9507.135690109217, -416.59181315801305, 291.8020238640337, -5126.104369891211, -1353.5098854911191, -2636.388258503468, -4838.057439095669, -3630.3926861754285, -2692.2005644083697, -2988.1600127410907, -1892.3880925641172, -8573.749193400048, -15207.344616334989, 0.016, -0.112, 0.986, 192.0, 0.0, 0.0, 0.0, 0.0, 0.0, 0.0, 0.0, 0.0, 0.0, 1.645922374397157E9, 0.0, 2022-02-27 11:39:34.397
240.0, -872.41093783509, -3534.146074550876, -1340.8587981294154, -9022.21459415133, 102.08041692738736, 629.6262895615447, -4863.940759174915, -1053.9965097900044, -1422.8897002803924, -4035.071019538763, -3334.2767756315206, -2470.426555922813, -2711.959506506861, -1585.8339173595807, -8246.810227252272, -14413.030673626743, 0.016, -0.112, 0.986, 192.0, 0.0, 0.0, 0.0, 0.0, 0.0, 0.0, 0.0, 0.0, 0.0, 1.64592237440521E9, 0.0, 2022-02-27 11:39:34.405
242.0, -1282.4536898676981, -3870.2492559253287, -1687.5120028867725, -9400.38375859067, -289.07511104048626, 325.9778411361982, -5129.30066934832, -1410.6632960633394, -3696.464442785316, -4945.055239803224, -3438.5923670044385, -2679.393014835479, -2773.9855973703384, -1742.206721568909, -8646.124141946333, -15458.265299590266, 0.016, -0.112, 0.986, 192.0, 0.0, 0.0, 0.0, 0.0, 0.0, 0.0, 0.0, 0.0, 0.0, 1.645922374413613E9, 0.0, 2022-02-27 11:39:34.413
244.0, -1220.8522821488718, -3797.606086445581, -1565.315015949609, -9283.797059511788, -185.58653421241453, 462.3458340580266, -4947.513931693307, -1123.4210280681882, -1226.7531426850728, -4244.238644151526, -3545.277243289619, -2544.142609136416, -2924.6140032546527, -1764.3796520685737, -8300.856745345205, -14535.294715797272, 0.014, -0.108, 0.99, 192.0, 0.0, 56.0, 126.0, 80.0, 15.0, 120.0, 0.0, 0.0, 0.0, 1.645922374420363E9, 0.0, 2022-02-27 11:39:34.420
246.0, -955.5370754643769, -3611.4831103662386, -1391.7537202541496, -9057.776219579724, 84.75781497452438, 569.5448004656793, -4963.897760379048, -1176.4393659161767, -2787.21783008788, -4446.83485589443, -3300.905621159747, -2567.522533836667, -2639.383392260479, -1581.3859202129747, -8426.831177095315, -14914.067377336905, 0.014, -0.108, 0.99, 192.0, 0.0, 0.0, 0.0, 0.0, 0.0, 0.0, 0.0, 0.0, 0.0, 1.645922374434636E9, 0.0, 2022-02-27 11:39:34.434
248.0, -1527.5852713090505, -4049.577301690257, -1773.2085911284198, -9517.104568136283, -424.52668243964706, 280.1344132583634, -5123.913898934591, -1386.903391707348, -2701.3424278905904, -4878.223523881856, -3652.6103201640035, -2715.826358297629, -2994.664370377585, -1891.5387262748154, -8583.18162956019, -15224.689570032308, 0.014, -0.108, 0.99, 192.0, 0.0, 0.0, 0.0, 0.0, 0.0, 0.0, 0.0, 0.0, 0.0, 1.645922374442894E9, 0.0, 2022-02-27 11:39:34.442
250.0, -1034.595195602798, -3685.7132537023135, -1370.161935110323, -9042.26410892774, 96.11250115782038, 623.7254290253436, -4866.578265020641, -1018.0772564503261, -1458.831305364526, -4090.1457178766395, -3381.9530465546904, -2516.180576822827, -2730.3996956824894, -1598.0603215766337, -8249.2465673979, -14410.728443947846, 0.014, -0.108, 0.99, 192.0, 0.0, 0.0, 0.0, 0.0, 0.0, 0.0, 0.0, 0.0, 0.0, 1.645922374449384E9, 0.0, 2022-02-27 11:39:34.449
252.0, -1477.606770706984, -4049.5102464568913, -1711.8977560875126, -9409.100938928239, -282.5707534039919, 342.00404191065337, -5169.5561611123285, -1419.6263455899175, -3762.335033695106, -4995.793699716771, -3493.1082717309323, -2732.6572218724755, -2781.249914318313, -1745.3136140481968, -8653.924900761236, -15448.452883774387, 0.014, -0.108, 0.99, 192.0, 0.0, 0.0, 0.0, 0.0, 0.0, 0.0, 0.0, 0.0, 0.0, 1.645922374457461E9, 0.0, 2022-02-27 11:39:34.457
254.0, -1432.0762672515234, -4002.9962662453972, -1587.9796848272902, -9299.376225397138, -175.48354571861574, 479.3108080996046, -4954.107696307623, -1135.982708452071, -1302.2126319661895, -4314.557232207922, -3612.0642557220767, -2609.2085372458146, -2928.525558534331, -1760.5351520222607, -8305.371797725176, -14529.30444828325, 0.012, -0.108, 0.992, 192.0, 0.0, 48.0, 126.0, 80.0, 15.5, 0.0, 0.0, 0.0, 0.0, 1.645922374465295E9, 0.0, 2022-02-27 11:39:34.465
0.0, -1132.3170223614004, -3791.235839275818, -1415.7147903102386, -9068.147429006985, 92.55857378942655, 587.5379547522015, -4968.4575162479305, -1157.6639005737186, -2858.9222263005054, -4511.31963864799, -3370.061918504467, -2634.2871945246693, -2648.167627831415, -1578.703710878338, -8425.62418289473, -14906.311322010913, 0.012, -0.108, 0.992, 192.0, 0.0, 0.0, 0.0, 0.0, 0.0, 0.0, 0.0, 0.0, 0.0, 1.64592237447267E9, 0.0, 2022-02-27 11:39:34.472
2.0, -1680.180630705432, -4205.525422754935, -1798.8236902742017, -9528.79453048641, -419.22931900373925, 301.2568117686286, -5119.130625621156, -1350.4700482451974, -2816.833891491162, -4948.899739849537, -3702.521765532704, -2768.4200130009667, -2992.049216276314, -1887.0460256392987, -8586.26617029502, -15237.452416116288, 0.012, -0.108, 0.992, 192.0, 0.0, 0.0, 0.0, 0.0, 0.0, 0.0, 0.0, 0.0, 0.0, 1.645922374480102E9, 0.0, 2022-02-27 11:39:34.480
4.0, -1131.5123595610094, -3766.7383273528017, -1383.930609694792, -9049.103742731064, 107.80246350794596, 639.9974989888071, -4851.9378724024145, -1006.9013842226725, -1473.8740293829478, -4128.680125317589, -3425.9859831316453, -2567.097850692016, -2735.4288381849337, -1596.6745134204048, -8239.568262048753, -14399.910199631477, 0.012, -0.108, 0.992, 192.0, 0.0, 0.0, 0.0, 0.0, 0.0, 0.0, 0.0, 0.0, 0.0, 1.645922374487074E9, 0.0, 2022-02-27 11:39:34.487
6.0, -1490.8613551689812, -4064.5082669864023, -1711.2272037538535, -9405.368197604204, -268.60091311942494, 346.65320475735723, -5148.076134690778, -1402.3037436370546, -3777.2883507357064, -5011.462272579941, -3504.2617922141308, -2752.863198860073, -2767.4588879893886, -1740.887968646046, -8637.406961608764, -15436.785273168716, 0.012, -0.108, 0.992, 192.0, 0.0, 0.0, 0.0, 0.0, 0.0, 0.0, 0.0, 0.0, 0.0, 1.645922374495099E9, 0.0, 2022-02-27 11:39:34.495
8.0, -1401.9908192146802, -3974.7883647428, -1592.4500337183517, -9305.701769077989, -168.15217353727502, 486.8656977254984, -4926.123312249579, -1100.398731279222, -1307.9570302912034, -4328.638831214766, -3608.5773835870486, -2609.007371545717, -2916.6567822285633, -1758.9705299103894, -8296.006416798404, -14528.8797651386, 0.012, -0.112, 0.988, 192.0, 0.0, 48.0, 126.0, 64.0, 15.0, 112.0, 0.0, 0.0, 0.0, 1.645922374502424E9, 0.0, 2022-02-27 11:39:34.502
10.0, -1054.7341173570296, -3715.575184294604, -1408.9422117402808, -9070.98610055281, 100.56049830442647, 592.7235594658326, -4949.011498571814, -1145.6386620567635, -2828.188577674458, -4493.728815761664, -3353.5886828409057, -2618.864490850507, -2627.916947354907, -1572.0428910306564, -8415.252973467466, -14892.028557303973, 0.012, -0.112, 0.988, 192.0, 0.0, 0.0, 0.0, 0.0, 0.0, 0.0, 0.0, 0.0, 0.0, 1.645922374509645E9, 0.0, 2022-02-27 11:39:34.509
12.0, -1596.9427343538684, -4119.761779279921, -1794.5545070832381, -9532.817844488365, -417.3517724694935, 297.3452564889499, -5107.82064292677, -1346.513789476608, -2773.0244723587602, -4933.052353030724, -3679.1865443213637, -2758.875818118551, -2975.687739335029, -1904.2568688698852, -8576.140830056767, -15234.21141317027, 0.012, -0.112, 0.988, 192.0, 0.0, 0.0, 0.0, 0.0, 0.0, 0.0, 0.0, 0.0, 0.0, 1.645922374517828E9, 0.0, 2022-02-27 11:39:34.517
14.0, -1034.7069543250745, -3685.2885705576628, -1385.092900406468, -9047.650879341469, 99.84524248185664, 642.3444321566144, -4850.8202851796495, -1007.3037156228681, -1459.0771745535344, -4107.535375062868, -3394.805299616492, -2539.6052050119883, -2718.2850501877133, -1601.346028011564, -8235.969631191449, -14399.75373742029, 0.012, -0.112, 0.988, 192.0, 0.0, 0.0, 0.0, 0.0, 0.0, 0.0, 0.0, 0.0, 0.0, 1.64592237452575E9, 0.0, 2022-02-27 11:39:34.525
16.0, -1381.1142898934233, -3961.198504113973, -1708.1873665079318, -9404.496479570447, -266.7233665851792, 341.1546756213517, -5145.930367223068, -1411.6914763082834, -3765.4866296633045, -4998.140632884578, -3478.3337686459745, -2735.4288381849337, -2759.6357774300313, -1746.274739059775, -8639.932708732213, -15444.541328494708, 0.012, -0.112, 0.988, 192.0, 0.0, 0.0, 0.0, 0.0, 0.0, 0.0, 0.0, 0.0, 0.0, 1.645922374532305E9, 0.0, 2022-02-27 11:39:34.532
18.0, -1302.614963366385, -3869.042261724742, -1592.6735511629047, -9300.806737042278, -183.82074640044527, 481.3895203339482, -4949.257367760822, -1115.5085105310095, -1300.3350854319438, -4296.0052843100175, -3587.9690751992557, -2594.2552202052143, -2921.1718346085354, -1771.3980998275401, -8305.081225047257, -14542.939012400988, 0.008, -0.11, 0.99, 192.0, 0.0, 32.0, 126.0, 72.0, 15.0, 120.0, 0.0, 0.0, 0.0, 1.64592237454031E9, 0.0, 2022-02-27 11:39:34.540
20.0, -949.2785870168909, -3624.737694828236, -1397.2746011346105, -9062.26892021524, 98.70530351463599, 607.0733794061398, -4942.663603146506, -1148.4326301136769, -2776.377234027056, -4455.0826495984375, -3311.9920864095793, -2599.6643423633986, -2624.810054875619, -1567.7513560952373, -8415.990581034492, -14892.967330571097, 0.008, -0.11, 0.99, 192.0, 0.0, 0.0, 0.0, 0.0, 0.0, 0.0, 0.0, 0.0, 0.0, 1.645922374548392E9, 0.0, 2022-02-27 11:39:34.548
22.0, -1509.703875744805, -4048.2809005118493, -1791.559373326227, -9524.748864739999, -426.2477667627057, 307.403541493838, -5112.156881351099, -1351.386469767865, -2769.872876390562, -4918.479015645864, -3647.1341427724533, -2732.8583875725735, -2973.2290474449455, -1888.3424268177066, -8580.678234181194, -15243.263869674669, 0.008, -0.11, 0.99, 192.0, 0.0, 0.0, 0.0, 0.0, 0.0, 0.0, 0.0, 0.0, 0.0, 1.645922374561959E9, 0.0, 2022-02-27 11:39:34.561
24.0, -952.1619620516256, -3604.0623312070766, -1380.9578276822363, -9043.448751383872, 81.00272190603279, 627.1899494159162, -4865.81830570916, -1021.9441082410942, -1408.249307662166, -4078.90279041562, -3371.9841685276233, -2516.649963456388, -2727.6280793700316, -1599.4237779884074, -8239.68002077103, -14399.954903120388, 0.008, -0.11, 0.99, 192.0, 0.0, 0.0, 0.0, 0.0, 0.0, 0.0, 0.0, 0.0, 0.0, 1.645922374569867E9, 0.0, 2022-02-27 11:39:34.569
26.0, -1301.4079691657985, -3897.4513289274373, -1697.235011724831, -9395.6675405106, -265.0916892399418, 340.88645468788803, -5152.188855670554, -1411.5797175860068, -3722.2583558867404, -4959.494466721352, -3442.973308917679, -2719.000306010283, -2759.099335563104, -1739.658622701004, -8642.346697133386, -15444.451921516888, 0.008, -0.11, 0.99, 192.0, 0.0, 0.0, 0.0, 0.0, 0.0, 0.0, 0.0, 0.0, 0.0, 1.645922374578023E9, 0.0, 2022-02-27 11:39:34.578
28.0, -1248.836666206916, -3831.848958951111, -1596.4286442313964, -9309.03217900183, -208.45236879019367, 464.4468980368255, -4949.324422994187, -1134.4404380846547, -1292.3108091724885, -4317.865290387308, -3565.438516788306, -2582.006464243706, -2925.6421834995967, -1777.2989603637411, -8312.859632117705, -14561.960346932454, 0.012, -0.10400000000000001, 0.99, 192.0, 0.0, 48.0, 126.0, 96.0, 15.0, 120.0, 0.0, 0.0, 0.0, 1.645922374584596E9, 0.0, 2022-02-27 11:39:34.584
30.0, -894.1815369345591, -3567.9195604228453, -1398.1686709128228, -9050.60130960957, 89.13875688776457, 591.5165652652461, -4949.458533460919, -1149.2149411696125, -2721.3695909225453, -4436.508349956078, -3291.0932053438673, -2577.647874074921, -2633.415476490912, -1578.3237312225976, -8411.833156565805, -14881.634996132256, 0.012, -0.10400000000000001, 0.99, 192.0, 0.0, 0.0, 0.0, 0.0, 0.0, 0.0, 0.0, 0.0, 0.0, 1.645922374592552E9, 0.0, 2022-02-27 11:39:34.592
32.0, -1453.511590184163, -3983.55024856928, -1789.6371233030707, -9518.624486759245, -439.54705471361336, 289.1421662738522, -5130.485311804451, -1375.1687258683116, -2810.7318652548634, -4918.188442967945, -3621.2731744376633, -2710.618401839543, -2974.2572276898895, -1884.140298860109, -8592.122327342311, -15265.325041452055, 0.012, -0.10400000000000001, 0.99, 192.0, 0.0, 0.0, 0.0, 0.0, 0.0, 0.0, 0.0, 0.0, 0.0, 1.645922374600662E9, 0.0, 2022-02-27 11:39:34.600
34.0, -914.0969412442377, -3564.8126679435577, -1377.2027346137447, -9045.12513221802, 66.11646009879829, 631.0791529511396, -4872.009738923281, -1026.0121257319602, -1360.707147205728, -4057.154543060606, -3357.1873136982103, -2494.521736445634, -2738.9827655533277, -1598.4850047212847, -8237.176625392036, -14394.344615262105, 0.012, -0.10400000000000001, 0.99, 192.0, 0.0, 0.0, 0.0, 0.0, 0.0, 0.0, 0.0, 0.0, 0.0, 1.645922374607806E9, 0.0, 2022-02-27 11:39:34.607
36.0, -1247.652023750785, -3832.6759734959574, -1682.4158051509626, -9382.994101404442, -281.74373885914554, 344.5744925230137, -5170.271416934898, -1430.2657759506437, -3694.5198410177045, -4939.199082755934, -3416.642953949327, -2696.737968532797, -2761.759193153285, -1720.2349567693423, -8639.217452909643, -15435.891203390504, 0.01, -0.10300000000000001, 0.99, 192.0, 0.0, 32.0, 126.0, 104.0, 15.0, 120.0, 0.0, 0.0, 0.0, 1.645922374614199E9, 0.0, 2022-02-27 11:39:34.614
38.0, -1200.132215038802, -3778.5847519141143, -1580.3353882235754, -9296.917533507054, -200.36103729737252, 473.61111326350135, -4961.349661511143, -1153.4170691272104, -1262.7841547470277, -4278.235647468048, -3534.838978628991, -2559.9676442107734, -2929.084352145714, -1772.11335565011, -8315.45243447452, -14566.028364423319, 0.01, -0.10300000000000001, 0.99, 192.0, 0.0, 0.0, 0.0, 0.0, 0.0, 0.0, 0.0, 0.0, 0.0, 1.645922374622189E9, 0.0, 2022-02-27 11:39:34.622
40.0, -847.9804811454394, -3522.187891267287, -1384.3999963283536, -9035.849158269068, 92.51387030051593, 611.4319695749247, -4975.9677023849135, -1170.3149879354226, -2684.7574335047525, -4405.260611207558, -3262.997062563546, -2533.2126060977707, -2628.6322031774766, -1562.699861848338, -8417.041113023892, -14881.970272299084, 0.01, -0.10300000000000001, 0.99, 192.0, 0.0, 0.0, 0.0, 0.0, 0.0, 0.0, 0.0, 0.0, 0.0, 1.645922374630378E9, 0.0, 2022-02-27 11:39:34.630
42.0, -1424.6331363479062, -3958.292777334783, -1777.9918644418556, -9515.74111172451, -432.2156825322727, 301.10034955744146, -5150.467771347496, -1411.1773861858114, -2774.3208735371677, -4885.912523974482, -3603.503537595694, -2683.997474193272, -2975.5312771238423, -1876.8983336565893, -8599.69956871266, -15263.849826318006, 0.01, -0.10300000000000001, 0.99, 192.0, 0.0, 0.0, 0.0, 0.0, 0.0, 0.0, 0.0, 0.0, 0.0, 1.645922374637513E9, 0.0, 2022-02-27 11:39:34.637
44.0, -888.9065252431066, -3541.8574263879573, -1372.2182956002111, -9040.923004260421, 69.3127595559072, 613.2201091313493, -4882.671521028462, -1031.5553583568762, -1357.287330304066, -4044.1458277876172, -3332.488636075096, -2467.4984773991678, -2724.4988351462885, -1593.7911383856701, -8240.998773693893, -14404.916990389465, 0.01, -0.10300000000000001, 0.99, 192.0, 0.0, 0.0, 0.0, 0.0, 0.0, 0.0, 0.0, 0.0, 0.0, 1.645922374644821E9, 0.0, 2022-02-27 11:39:34.644
46.0, -1235.3809160448213, -3825.657525736991, -1679.1300987160325, -9374.500438511424, -279.5085644136148, 341.8252279550109, -5172.931274525079, -1418.3075926670545, -3693.82693693959, -4932.270041974788, -3414.5642417149834, -2674.6991484998644, -2773.0468241032154, -1734.5847767096493, -8648.158150691766, -15440.540366237208, 0.01, -0.1015, 0.988, 192.0, 0.0, 40.0, 126.0, 112.0, 15.0, 104.0, 0.0, 0.0, 0.0, 1.645922374652955E9, 0.0, 2022-02-27 11:39:34.652
48.0, -1216.0913605798914, -3789.4476997193933, -1594.5734494416058, -9310.865022047165, -223.7856654865343, 444.687955938334, -4975.341853540165, -1160.9496070086489, -1293.942486517726, -4305.6165344258, -3546.9759758682226, -2560.7052517777984, -2948.150390166091, -1782.752786010836, -8331.121007337691, -14583.46272509846, 0.01, -0.1015, 0.988, 192.0, 0.0, 0.0, 0.0, 0.0, 0.0, 0.0, 0.0, 0.0, 0.0, 1.645922374660993E9, 0.0, 2022-02-27 11:39:34.660
50.0, -846.6393764781209, -3521.7855598670913, -1376.5992375134513, -9032.965783234333, 96.49248081356059, 591.7847861987098, -4970.156248826534, -1180.2391624735787, -2650.1792848323926, -4395.001160502572, -3270.3731382337974, -2542.287414346625, -2640.7692004167084, -1574.0768997760892, -8415.610601378752, -14859.819693543875, 0.01, -0.1015, 0.988, 192.0, 0.0, 0.0, 0.0, 0.0, 0.0, 0.0, 0.0, 0.0, 0.0, 1.645922374667457E9, 0.0, 2022-02-27 11:39:34.667
52.0, -1427.5388631270962, -3957.0410796452857, -1784.9656087119115, -9517.037512902918, -444.2409210492279, 273.58535213295846, -5155.1169341941995, -1412.6526013198616, -2832.793037032251, -4896.3060851462, -3603.7494067847024, -2689.2724858847246, -2982.3038556938, -1883.8720779266453, -8609.333170572898, -15285.3075009951, 0.01, -0.1015, 0.988, 192.0, 0.0, 0.0, 0.0, 0.0, 0.0, 0.0, 0.0, 0.0, 0.0, 1.645922374682601E9, 0.0, 2022-02-27 11:39:34.682
54.0, -897.4448916250338, -3540.9857083542, -1379.0355776590798, -9049.774295064724, 62.3613670303067, 606.8051584726761, -4890.718149032373, -1076.9517513456049, -1331.001678824625, -4048.549121445313, -3352.7616682960593, -2482.2059252507597, -2754.7183936498636, -1604.5870309575835, -8249.738305775918, -14399.060833342175, 0.01, -0.1015, 0.988, 192.0, 0.0, 0.0, 0.0, 0.0, 0.0, 0.0, 0.0, 0.0, 0.0, 1.645922374690617E9, 0.0, 2022-02-27 11:39:34.690
56.0, -1235.7161922116509, -3824.986973403332, -1678.213677193365, -9381.340072314748, -276.2899132120506, 325.06141961353063, -5182.1178414962105, -1477.3609015179757, -3687.0096548807214, -4923.195233725934, -3410.7867969020367, -2684.0198259377275, -2770.0069868572937, -1732.6848784309482, -8649.789828037005, -15442.86494766056, 0.009000000000000001, -0.10375000000000001, 0.99, 192.0, 0.0, 32.0, 126.0, 88.0, 15.5, 0.0, 0.0, 0.0, 0.0, 1.645922374697132E9, 0.0, 2022-02-27 11:39:34.697
58.0, -1224.2050438171677, -3795.03563583322, -1598.7755773992035, -9313.636638359623, -227.8760347218555, 424.9290138398426, -4982.98615014388, -1208.2458982760786, -1299.5304226315527, -4317.731179920576, -3559.917635907845, -2576.3738246409685, -2954.6994512914957, -1789.726530280892, -8331.970373626993, -14592.649292069591, 0.009000000000000001, -0.10375000000000001, 0.99, 192.0, 0.0, 0.0, 0.0, 0.0, 0.0, 0.0, 0.0, 0.0, 0.0, 1.645922374705409E9, 0.0, 2022-02-27 11:39:34.705
60.0, -862.375004574657, -3524.825397113013, -1390.6361330313841, -9035.871510013523, 91.15041388874221, 577.099690091573, -4969.552751726241, -1190.4986131785647, -2671.0111106647387, -4406.199384474681, -3294.1777460787, -2561.3311006225467, -2656.8624564245292, -1578.1896207558657, -8420.058598525358, -14869.006260515007, 0.009000000000000001, -0.10375000000000001, 0.99, 192.0, 0.0, 0.0, 0.0, 0.0, 0.0, 0.0, 0.0, 0.0, 0.0, 1.64592237471323E9, 0.0, 2022-02-27 11:39:34.713
62.0, -1432.9032817963698, -3962.740774481389, -1788.4971843358499, -9519.227983859539, -434.6073191889905, 276.71459635670146, -5176.999292015946, -1449.421220948842, -2837.285737667768, -4915.461530144397, -3620.6249738484594, -2709.8584425280624, -2993.278562221356, -1887.5377640173156, -8611.858917696347, -15283.228788760756, 0.009000000000000001, -0.10375000000000001, 0.99, 192.0, 0.0, 0.0, 0.0, 0.0, 0.0, 0.0, 0.0, 0.0, 0.0, 1.645922374719777E9, 0.0, 2022-02-27 11:39:34.719
64.0, -891.991065977939, -3536.9176908633344, -1381.516621293619, -9045.572167107126, 57.511038483505075, 613.8236062316425, -4894.272076400766, -1075.8788676117501, -1333.996812581636, -4051.23133077995, -3340.736429779104, -2481.2895037280923, -2743.900149333495, -1600.1390338109773, -8256.53323609033, -14400.603103709593, 0.009000000000000001, -0.10375000000000001, 0.99, 192.0, 0.0, 0.0, 0.0, 0.0, 0.0, 0.0, 0.0, 0.0, 0.0, 1.645922374727803E9, 0.0, 2022-02-27 11:39:34.727
66.0, -1230.0612008644582, -3811.531223241237, -1679.3536161605855, -9370.90180765412, -271.2384189651512, 336.7066784747456, -5161.554236597328, -1457.2666832526545, -3680.01355886621, -4920.44596915793, -3404.260087521087, -2686.567924805632, -2768.7776409122516, -1726.0240585832667, -8652.829665282925, -15433.72308417834, 0.0105, -0.10387500000000001, 0.989, 192.0, 0.0, 48.0, 126.0, 96.0, 15.0, 112.0, 0.0, 0.0, 0.0, 1.645922374734869E9, 0.0, 2022-02-27 11:39:34.734
68.0, -1233.3692590438436, -3792.755757898779, -1604.050589090656, -9316.676475605545, -221.08110440744215, 440.7987524031106, -4972.346719783154, -1219.9358606262042, -1309.5216524030748, -4312.299706017936, -3556.3860602839068, -2565.0191384576724, -2963.1707624400574, -1782.7974894997467, -8340.017001630904, -14591.062318213264, 0.0105, -0.10387500000000001, 0.989, 192.0, 0.0, 0.0, 0.0, 0.0, 0.0, 0.0, 0.0, 0.0, 0.0, 1.645922374742946E9, 0.0, 2022-02-27 11:39:34.742
70.0, -868.2982168553135, -3531.665030916337, -1384.6235137729066, -9038.039629225686, 104.71792277311359, 575.4680127463356, -4947.402172971031, -1196.9582673261484, -2628.0957613105493, -4395.716416325142, -3278.8220976379034, -2554.670280774865, -2655.9907383907725, -1570.1876962408658, -8416.370560690231, -14859.171492954672, 0.0105, -0.10387500000000001, 0.989, 192.0, 0.0, 0.0, 0.0, 0.0, 0.0, 0.0, 0.0, 0.0, 0.0, 1.645922374749373E9, 0.0, 2022-02-27 11:39:34.749
72.0, -1463.703985655783, -3985.0925189366963, -1800.0530362192437, -9529.733303753532, -437.15541805689554, 259.8837327818552, -5124.048009401323, -1418.4193513893308, -2897.7472064193735, -4943.132989780068, -3626.1235029844647, -2719.4696926438446, -3000.1628995135907, -1902.2899153578182, -8616.172804376221, -15297.444498234332, 0.0105, -0.10387500000000001, 0.989, 192.0, 0.0, 0.0, 0.0, 0.0, 0.0, 0.0, 0.0, 0.0, 0.0, 1.645922374757424E9, 0.0, 2022-02-27 11:39:34.757
74.0, -928.5138164179107, -3565.9973103996886, -1383.5506300390518, -9063.788838838202, 65.95999788761114, 598.7361787243103, -4845.791142677205, -1091.368626519278, -1326.2631090000998, -4063.0777553412627, -3368.6984620926933, -2500.690817915299, -2771.862181647084, -1625.5753190011167, -8248.933642975528, -14393.696414672902, 0.0105, -0.10387500000000001, 0.989, 192.0, 0.0, 0.0, 0.0, 0.0, 0.0, 0.0, 0.0, 0.0, 0.0, 1.645922374765679E9, 0.0, 2022-02-27 11:39:34.765
76.0, -1237.6384422348074, -3819.399037289505, -1669.921180000446, -9367.52669424137, -250.987738488643, 338.9865564091869, -5158.000309228934, -1473.8740293829478, -3680.102965844031, -4916.199137711423, -3403.4777764651512, -2681.5611340476435, -2779.8194026731735, -1739.5468639787275, -8648.158150691766, -15430.303267276679, 0.01225, -0.10393750000000002, 0.9904999999999999, 192.0, 0.0, 56.0, 126.0, 96.0, 15.5, 0.0, 0.0, 0.0, 0.0, 1.645922374772603E9, 0.0, 2022-02-27 11:39:34.772
78.0, -1248.5684452734524, -3805.5633074716698, -1608.0291996037006, -9329.104045522696, -220.5670142849701, 421.37508647144875, -4943.200045013434, -1209.2517267765675, -1323.6703066432842, -4328.974107381596, -3556.60957772846, -2582.31938866608, -2970.435079388032, -1798.4884141073721, -8345.761399955916, -14607.51320213237, 0.01225, -0.10393750000000002, 0.9904999999999999, 192.0, 0.0, 0.0, 0.0, 0.0, 0.0, 0.0, 0.0, 0.0, 0.0, 1.645922374780182E9, 0.0, 2022-02-27 11:39:34.780
80.0, -885.1290804301597, -3546.1042578344654, -1389.7867667420826, -9048.969632264332, 104.00266695054377, 564.0462713296737, -4907.30314341821, -1174.070081003914, -2615.1093977820155, -4395.716416325142, -3287.1369465752778, -2567.164905925382, -2671.2793315982026, -1595.1322430529885, -8411.587287376797, -14849.56024283889, 0.01225, -0.10393750000000002, 0.9904999999999999, 192.0, 0.0, 0.0, 0.0, 0.0, 0.0, 0.0, 0.0, 0.0, 0.0, 1.645922374788148E9, 0.0, 2022-02-27 11:39:34.788
82.0, -1469.2472182806991, -3984.0866904362074, -1802.1764519424978, -9533.756617755487, -443.7491826712111, 274.56882888899196, -5145.483332333963, -1425.0578194925572, -2897.121357574625, -4943.870597347092, -3629.7221338417694, -2729.3044602041796, -3013.886870609149, -1904.2121653809745, -8619.883193955802, -15300.461983735799, 0.01225, -0.10393750000000002, 0.9904999999999999, 192.0, 0.0, 0.0, 0.0, 0.0, 0.0, 0.0, 0.0, 0.0, 0.0, 1.645922374795235E9, 0.0, 2022-02-27 11:39:34.795
84.0, -939.1085432897262, -3566.80197320008, -1394.2794673775993, -9063.855894071567, 59.96973037358885, 607.6098212730672, -4874.133154646534, -1104.6008592368198, -1329.258242757111, -4056.5286942158577, -3362.7976015564923, -2495.728730646221, -2776.3325305381454, -1612.9018798949576, -8257.96374773547, -14393.56230420617, 0.01225, -0.10393750000000002, 0.9904999999999999, 192.0, 0.0, 0.0, 0.0, 0.0, 0.0, 0.0, 0.0, 0.0, 0.0, 1.645922374809764E9, 0.0, 2022-02-27 11:39:34.809
86.0, -1250.8930266968046, -3827.2221478488623, -1680.7841278057251, -9374.768659444888, -249.31135765449497, 340.2606058431394, -5104.892564403125, -1467.3249682575427, -3691.502355516238, -4925.8997948050255, -3410.093892823922, -2695.3968638654787, -2778.7241671948636, -1730.0250208407667, -8647.018211724546, -15433.72308417834, 0.010125, -0.10496875, 0.99125, 192.0, 0.0, 32.0, 126.0, 88.0, 15.5, 0.0, 0.0, 0.0, 0.0, 1.645922374817713E9, 0.0, 2022-02-27 11:39:34.817
88.0, -1269.7802507615388, -3815.196909331907, -1621.8649294215359, -9338.089446793729, -233.35221211340573, 431.7015924098006, -4924.02224827078, -1185.8941538207714, -1355.5215424920968, -4351.772886726008, -3580.9282756958337, -2602.0559790201164, -2992.6750651210627, -1808.88197527909, -8342.36393479871, -14605.12156547565, 0.010125, -0.10496875, 0.99125, 192.0, 0.0, 0.0, 0.0, 0.0, 0.0, 0.0, 0.0, 0.0, 0.0, 1.64592237482488E9, 0.0, 2022-02-27 11:39:34.824
90.0, -880.9493042170172, -3533.542577450583, -1389.160917897334, -9037.92787050341, 107.2883733854739, 589.8625361755534, -4922.524681392274, -1195.5277556810088, -2610.102607024027, -4387.490974365589, -3291.4508332551522, -2569.8694670044742, -2677.4931165567777, -1579.508373678729, -8415.52119440093, -14837.333838621837, 0.010125, -0.10496875, 0.99125, 192.0, 0.0, 0.0, 0.0, 0.0, 0.0, 0.0, 0.0, 0.0, 0.0, 1.645922374832381E9, 0.0, 2022-02-27 11:39:34.832
92.0, -1473.2258287937439, -3993.9214579965424, -1803.1152252096208, -9535.187129400627, -422.5820806720353, 256.7321368136569, -5090.229820040443, -1446.1355145139116, -2915.5615467502535, -4936.74039086585, -3621.1614157153867, -2722.8224543121405, -3005.6167251606853, -1896.7913862218127, -8622.364237590342, -15307.614541961497, 0.010125, -0.10496875, 0.99125, 192.0, 0.0, 0.0, 0.0, 0.0, 0.0, 0.0, 0.0, 0.0, 0.0, 1.645922374840343E9, 0.0, 2022-02-27 11:39:34.840
94.0, -940.114371790215, -3571.1158598799543, -1393.1842318992892, -9063.65472837147, 75.41478579220603, 605.6205160165449, -4852.787238691716, -1094.207298065102, -1317.1435972623347, -4059.5685314617795, -3364.7869068130144, -2499.30500975907, -2776.667806704975, -1622.691943966382, -8242.473988827944, -14387.482629714326, 0.010125, -0.10496875, 0.99125, 192.0, 0.0, 0.0, 0.0, 0.0, 0.0, 0.0, 0.0, 0.0, 0.0, 1.645922374848302E9, 0.0, 2022-02-27 11:39:34.848
96.0, -1227.2672328075448, -3805.2280313048404, -1660.75696477377, -9354.361516757193, -218.13067413934164, 360.13130666390737, -5103.015017868879, -1463.2345990222216, -3677.6889774428582, -4907.593716096129, -3394.9841135721344, -2683.550439304166, -2766.2295420443465, -1722.2019102814093, -8641.85495875537, -15420.155575293968, 0.0110625, -0.10648437499999999, 0.988625, 192.0, 0.0, 48.0, 126.0, 80.0, 15.0, 104.0, 0.0, 0.0, 0.0, 1.645922374855125E9, 0.0, 2022-02-27 11:39:34.855
98.0, -1274.0941374414133, -3819.980182645343, -1628.4363422913962, -9343.587975929735, -227.76427599957896, 422.8279498610437, -4923.172881981478, -1207.0612558199473, -1388.4456620747642, -4357.047898417461, -3575.7873744711133, -2595.2834004501583, -2990.3281319532553, -1811.5194811248161, -8348.89064417966, -14625.573411652258, 0.0110625, -0.10648437499999999, 0.988625, 192.0, 0.0, 0.0, 0.0, 0.0, 0.0, 0.0, 0.0, 0.0, 0.0, 1.645922374862002E9, 0.0, 2022-02-27 11:39:34.862
100.0, -867.4488505660117, -3521.763208122636, -1382.2765806050993, -9035.715047802336, 123.51573986002683, 578.4854982478021, -4908.621896341074, -1211.4421977331874, -2555.02790868615, -4359.595997285366, -3281.7054726726383, -2563.5662750680776, -2674.833258966596, -1571.6182078860054, -8402.80305180586, -14816.703178489588, 0.0110625, -0.10648437499999999, 0.988625, 192.0, 0.0, 0.0, 0.0, 0.0, 0.0, 0.0, 0.0, 0.0, 0.0, 1.645922374869968E9, 0.0, 2022-02-27 11:39:34.869
102.0, -1461.6476251658949, -3973.8942949645875, -1805.9315450109893, -9537.690524779622, -424.75019988420013, 238.78368601604535, -5132.20639612751, -1446.448438936286, -2931.2524713578787, -4937.902681577526, -3611.214889432775, -2723.4706549013445, -3005.572021671775, -1893.32686583124, -8628.04158068199, -15317.65047522193, 0.0110625, -0.10648437499999999, 0.988625, 192.0, 0.0, 0.0, 0.0, 0.0, 0.0, 0.0, 0.0, 0.0, 0.0, 1.645922374878095E9, 0.0, 2022-02-27 11:39:34.878
104.0, -943.4447817140558, -3565.9749586552334, -1406.70703729475, -9075.232931999319, 70.2515328230301, 581.8606116605534, -4833.989421604803, -1063.9206843281609, -1304.5372133895414, -4056.1487145601172, -3363.3787469123304, -2500.8025766375754, -2785.6979114649193, -1593.500565707751, -8255.81798026776, -14387.013243080764, 0.0110625, -0.10648437499999999, 0.988625, 192.0, 0.0, 0.0, 0.0, 0.0, 0.0, 0.0, 0.0, 0.0, 0.0, 1.645922374884725E9, 0.0, 2022-02-27 11:39:34.884
106.0, -1212.068046577936, -3790.6099904310695, -1663.6850432974152, -9346.918385853576, -223.00335443059856, 367.8426585009883, -5145.148056167132, -1468.9119421138696, -3681.086442600065, -4902.3634078935875, -3398.7839101295367, -2684.355102104557, -2783.21686783038, -1725.0182300827778, -8646.548825090984, -15413.181831023912, 0.01, -0.108, 0.992, 192.0, 0.0, 40.0, 126.0, 80.0, 15.5, 0.0, 0.0, 0.0, 0.0, 1.645922374892801E9, 0.0, 2022-02-27 11:39:34.892
108.0, -1256.6597767662736, -3802.9258016259437, -1628.5257492692174, -9338.201205516007, -223.74096199762369, 435.948423856309, -4937.768571110794, -1206.9942005865814, -1369.4019757988426, -4330.963412638118, -3564.3656330544513, -2584.040472989139, -2994.977294799959, -1808.814920045724, -8357.451362306043, -14623.785272095833, 0.01, -0.108, 0.992, 192.0, 0.0, 0.0, 0.0, 0.0, 0.0, 0.0, 0.0, 0.0, 0.0, 1.645922374900654E9, 0.0, 2022-02-27 11:39:34.900
110.0, -854.3283765707465, -3506.1393387483763, -1383.5953335279626, -9031.088236700087, 122.77813229300169, 592.3435798100925, -4894.54029733423, -1186.810575343439, -2544.0979056475053, -4351.079982647894, -3277.5703999484062, -2552.7703824961645, -2685.875020727518, -1593.9028971079467, -8409.218002464533, -14812.009312153974, 0.01, -0.108, 0.992, 192.0, 0.0, 0.0, 0.0, 0.0, 0.0, 0.0, 0.0, 0.0, 0.0, 1.64592237490788E9, 0.0, 2022-02-27 11:39:34.907
112.0, -1455.8138198630595, -3972.799059486277, -1805.6186205886152, -9534.203652644594, -427.8794441079431, 257.8944275253329, -5079.545686190807, -1458.250160008688, -2950.117343678158, -4930.92893730747, -3605.895174252412, -2708.070302971638, -3013.7751118868723, -1906.2238223819522, -8631.640211539294, -15323.014893891204, 0.01, -0.108, 0.992, 192.0, 0.0, 0.0, 0.0, 0.0, 0.0, 0.0, 0.0, 0.0, 0.0, 1.645922374915288E9, 0.0, 2022-02-27 11:39:34.915
114.0, -937.3651072222123, -3561.9963481421887, -1408.1375489398897, -9077.468106444849, 80.1086521278205, 590.0413501311958, -4799.970066543826, -1078.0022833350042, -1283.9512567462036, -4037.999098062408, -3369.5254766375397, -2502.0989778159833, -2797.477280792866, -1633.6666504939378, -8242.652802783585, -14384.196923279396, 0.01, -0.108, 0.992, 192.0, 0.0, 0.0, 0.0, 0.0, 0.0, 0.0, 0.0, 0.0, 0.0, 1.645922374930276E9, 0.0, 2022-02-27 11:39:34.930
116.0, -1208.782340143006, -3795.7955951447007, -1668.0659852106555, -9356.596691202723, -220.47760730714887, 352.531713549103, -5083.747814148404, -1449.5329796711183, -3669.642349438948, -4894.987332223336, -3401.6002299309052, -2684.645674782476, -2787.3966440435224, -1734.8082941542023, -8638.524548831529, -15406.297493731678, 0.012, -0.112, 0.99, 192.0, 0.0, 48.0, 126.0, 64.0, 15.0, 120.0, 0.0, 0.0, 0.0, 1.645922374936959E9, 0.0, 2022-02-27 11:39:34.936
118.0, -1240.7229829696398, -3794.4097869884718, -1625.5082637677508, -9344.28088000785, -223.31627885297286, 411.8979468223985, -4970.268007548811, -1250.5577505299748, -1368.5973129984513, -4352.666956504221, -3568.411298800862, -2588.577877113566, -2999.78291985785, -1827.7244958549138, -8360.871179207705, -14636.905746091099, 0.012, -0.112, 0.99, 192.0, 0.0, 0.0, 0.0, 0.0, 0.0, 0.0, 0.0, 0.0, 0.0, 1.64592237494501E9, 0.0, 2022-02-27 11:39:34.945
120.0, -843.7560014433863, -3492.6165333529157, -1381.158993382334, -9033.524576845715, 133.61872835382562, 601.7536642257768, -4910.052407986213, -1170.4267466576991, -2509.363294763958, -4334.942023151162, -3264.9640160756135, -2535.783056710131, -2675.4814595558, -1578.3237312225976, -8418.00223803547, -14814.468004044058, 0.012, -0.112, 0.99, 192.0, 0.0, 0.0, 0.0, 0.0, 0.0, 0.0, 0.0, 0.0, 0.0, 1.645922374952964E9, 0.0, 2022-02-27 11:39:34.952
122.0, -1441.1957789892888, -3945.462876017437, -1804.724550810403, -9537.534062568435, -416.30124048009407, 254.27344492357315, -5115.643753486127, -1476.6232939509505, -2967.5517043532973, -4941.300146734732, -3610.276116165652, -2730.1761782379363, -3009.1035972957134, -1890.5328977743266, -8631.439045839197, -15331.977943417782, 0.012, -0.112, 0.99, 192.0, 0.0, 0.0, 0.0, 0.0, 0.0, 0.0, 0.0, 0.0, 0.0, 1.645922374960088E9, 0.0, 2022-02-27 11:39:34.960
124.0, -928.3350024622682, -3564.119763865443, -1404.9412494827807, -9075.344690721595, 68.79866943343514, 592.7906146991986, -4843.667726953951, -1061.5513994158982, -1259.073765167447, -4039.7425341299218, -3364.228113201632, -2485.603390407967, -2788.0224928882712, -1633.1972638603766, -8251.615852310164, -14381.268844755752, 0.012, -0.112, 0.99, 192.0, 0.0, 0.0, 0.0, 0.0, 0.0, 0.0, 0.0, 0.0, 0.0, 1.645922374967613E9, 0.0, 2022-02-27 11:39:34.967
126.0, -1191.7056073791514, -3778.137717025008, -1664.8026305201806, -9350.51701671088, -219.44942706220473, 345.982652423698, -5112.246288328921, -1435.451380664275, -3648.34113697304, -4890.829907754649, -3394.3135612384754, -2677.157840389948, -2775.2819985487463, -1724.593546938127, -8637.85399649787, -15397.133278505002, 0.012, -0.106, 0.992, 192.0, 0.0, 48.0, 126.0, 88.0, 15.5, 0.0, 0.0, 0.0, 0.0, 1.645922374975486E9, 0.0, 2022-02-27 11:39:34.975
128.0, -1241.7288114701284, -3796.7343684118237, -1636.505322039762, -9346.516054453381, -233.77689525805656, 405.4382926748148, -4940.137856023056, -1237.5266835125308, -1369.8266589434934, -4365.899189221763, -3567.606636000471, -2581.8052985436084, -3008.4106932175987, -1823.4553126639503, -8364.313347853822, -14642.694847905022, 0.012, -0.106, 0.992, 192.0, 0.0, 0.0, 0.0, 0.0, 0.0, 0.0, 0.0, 0.0, 0.0, 1.645922374982662E9, 0.0, 2022-02-27 11:39:34.982
130.0, -836.7375536844199, -3490.2919519295638, -1388.4009585858535, -9027.9813442208, 126.95790850614412, 592.8800216770198, -4872.523829045753, -1161.106069219836, -2500.0202655816397, -4355.14800013876, -3280.9678651056133, -2540.320460834558, -2684.220991637825, -1581.2294580017876, -8402.065444238835, -14798.777079436431, 0.012, -0.106, 0.992, 192.0, 0.0, 0.0, 0.0, 0.0, 0.0, 0.0, 0.0, 0.0, 0.0, 1.645922374989823E9, 0.0, 2022-02-27 11:39:34.989
132.0, -1439.4970464106855, -3949.1956173414733, -1822.1142079966316, -9538.02580094645, -433.40032498840395, 259.72727057066805, -5111.352218550708, -1437.8430173209927, -3001.4816524364537, -4954.577082941185, -3611.147834199409, -2715.1111024750594, -3014.490367709442, -1896.9478484329998, -8636.825816252926, -15338.191728376358, 0.012, -0.106, 0.992, 192.0, 0.0, 0.0, 0.0, 0.0, 0.0, 0.0, 0.0, 0.0, 0.0, 1.645922374997237E9, 0.0, 2022-02-27 11:39:34.997
134.0, -937.7227351334972, -3565.214999343753, -1426.6894968377944, -9090.096842062097, 59.8132681624017, 582.7546814387657, -4803.367531701032, -1067.2287425075463, -1257.5314948000307, -4044.0564208097962, -3378.1756017417433, -2499.4614719702568, -2806.999123930827, -1634.6277755055162, -8253.269881399856, -14378.117248787554, 0.012, -0.106, 0.992, 192.0, 0.0, 0.0, 0.0, 0.0, 0.0, 0.0, 0.0, 0.0, 0.0, 1.64592237500515E9, 0.0, 2022-02-27 11:39:35.005
136.0, -1194.1419475247799, -3782.5410106827035, -1667.6413020660045, -9344.414990474581, -202.5291565095373, 350.85533271495495, -5072.303720987287, -1432.1209707404341, -3656.3877649769506, -4902.788091038238, -3402.360189242386, -2687.417291094934, -2778.9476846394164, -1729.756799907303, -8634.61299355185, -15395.009862781748, 0.01, -0.108, 0.99, 192.0, 0.0, 40.0, 126.0, 80.0, 15.0, 120.0, 0.0, 0.0, 0.0, 1.645922375013205E9, 0.0, 2022-02-27 11:39:35.013
138.0, -1275.9269804867483, -3822.975316402354, -1658.7006042838818, -9362.452848250014, -243.32109014047268, 411.02622878864156, -4912.913431276493, -1205.0495988189696, -1437.6194998764397, -4398.06334949295, -3591.701816523292, -2612.0472087916387, -3009.796501373828, -1835.0335162917993, -8370.102449667746, -14662.006755114407, 0.01, -0.108, 0.99, 192.0, 0.0, 0.0, 0.0, 0.0, 0.0, 0.0, 0.0, 0.0, 0.0, 1.645922375021258E9, 0.0, 2022-02-27 11:39:35.021
140.0, -848.3381090567243, -3509.089769016477, -1393.1842318992892, -9028.271916898719, 139.251367956563, 595.9422106673969, -4874.311968602177, -1158.781487796484, -2482.5188496731344, -4341.245215087559, -3293.3060280449427, -2557.3077866205917, -2686.567924805632, -1580.8047748571366, -8394.219981935023, -14781.700346672576, 0.01, -0.108, 0.99, 192.0, 0.0, 0.0, 0.0, 0.0, 0.0, 0.0, 0.0, 0.0, 0.0, 1.645922375027731E9, 0.0, 2022-02-27 11:39:35.027
142.0, -1454.5844739180177, -3974.2072193869617, -1826.0928185096764, -9536.103550923295, -417.4858829362253, 270.9701980316875, -5090.140413062622, -1431.1374939844006, -3016.1891002880457, -4953.034812573768, -3617.3839709024396, -2721.1460734779926, -3000.475823935965, -1892.2763338418406, -8634.590641807396, -15333.69902774084, 0.01, -0.108, 0.99, 192.0, 0.0, 0.0, 0.0, 0.0, 0.0, 0.0, 0.0, 0.0, 0.0, 1.64592237503589E9, 0.0, 2022-02-27 11:39:35.035
144.0, -949.3232905058015, -3580.3918338289063, -1432.1209707404341, -9082.005510569275, 59.58975071784863, 605.2852398497153, -4844.181817076423, -1039.4455241495996, -1269.6014368058964, -4065.6258542091678, -3393.486546693629, -2511.4643587427568, -2798.7289784823633, -1622.8484061775694, -8244.753866762385, -14363.275690469229, 0.01, -0.108, 0.99, 192.0, 0.0, 0.0, 0.0, 0.0, 0.0, 0.0, 0.0, 0.0, 0.0, 1.645922375042414E9, 0.0, 2022-02-27 11:39:35.042
146.0, -1182.8096130859392, -3780.618760659547, -1662.2992351411863, -9328.500548422402, -189.02870285853183, 384.31589416454966, -5100.310456789787, -1432.0092120181575, -3658.0641458110986, -4888.259457142289, -3397.442805462218, -2682.544610803677, -2768.911751378984, -1708.276773485753, -8640.51385408805, -15387.924359789415, 0.012, -0.11, 0.994, 192.0, 0.0, 48.0, 126.0, 72.0, 15.5, 8.0, 0.0, 0.0, 0.0, 1.645922375057391E9, 0.0, 2022-02-27 11:39:35.057
148.0, -1298.7034080867063, -3842.1531131450074, -1679.5771336051387, -9376.802668190321, -248.30552915400617, 419.29637423710517, -4907.191384695934, -1193.0690637909252, -1490.9507621468024, -4417.5093671690665, -3607.3256858975515, -2625.704124653831, -3011.852861863716, -1831.1219610121204, -8371.84588573526, -14678.368232055693, 0.012, -0.11, 0.994, 192.0, 0.0, 0.0, 0.0, 0.0, 0.0, 0.0, 0.0, 0.0, 0.0, 1.645922375065521E9, 0.0, 2022-02-27 11:39:35.065
150.0, -857.3682138166683, -3520.444455199773, -1401.7673017701272, -9029.456559354849, 139.9442720346775, 613.6894957649107, -4860.543294017708, -1139.6036910538305, -2450.444096379769, -4334.405581284235, -3302.0455601269678, -2561.4428593448233, -2692.871116742029, -1593.6793796633935, -8383.200571918556, -14766.322346487326, 0.012, -0.11, 0.994, 192.0, 0.0, 0.0, 0.0, 0.0, 0.0, 0.0, 0.0, 0.0, 0.0, 1.645922375072113E9, 0.0, 2022-02-27 11:39:35.072
152.0, -1455.2773779961321, -3977.35881535516, -1833.1336180130982, -9541.065638192373, -428.30412725259396, 282.39193944834943, -5111.285163317342, -1418.0840752225013, -3080.4056621081427, -4981.734452454383, -3617.5180813691713, -2740.5250359207434, -2999.4252919465653, -1885.3919965496061, -8639.70919128766, -15357.011897207725, 0.012, -0.11, 0.994, 192.0, 0.0, 0.0, 0.0, 0.0, 0.0, 0.0, 0.0, 0.0, 0.0, 1.645922375080015E9, 0.0, 2022-02-27 11:39:35.080
154.0, -958.0851743322819, -3584.5492582975935, -1441.3298894560207, -9096.198868298396, 46.558683700404615, 608.7944637291985, -4808.597839903574, -1051.6048731332867, -1249.5295702850308, -4067.034014109852, -3403.544831698517, -2525.88123391643, -2812.4529495779216, -1634.5830720166055, -8247.704297030485, -14375.882074342022, 0.012, -0.11, 0.994, 192.0, 0.0, 0.0, 0.0, 0.0, 0.0, 0.0, 0.0, 0.0, 0.0, 1.645922375088036E9, 0.0, 2022-02-27 11:39:35.088
156.0, -1176.2829037049894, -3768.4370599314047, -1663.595636319594, -9327.785292599832, -175.55060095198166, 387.95922851076466, -5086.38531999413, -1425.4601508927526, -3644.563692160093, -4883.453832084398, -3397.2416397621205, -2693.29579988668, -2765.4248792439557, -1717.9550788349009, -8625.314667858442, -15381.308243430645, 0.012, -0.106, 0.996, 192.0, 0.0, 48.0, 126.0, 88.0, 15.5, 16.0, 0.0, 0.0, 0.0, 1.645922375096455E9, 0.0, 2022-02-27 11:39:35.096
158.0, -1302.7267220886615, -3845.2153021353847, -1682.6169708510604, -9378.456697280013, -258.8332007924558, 413.3731619564488, -4949.458533460919, -1190.5656684119308, -1506.3287623320537, -4422.739675371608, -3603.0788544510433, -2623.3124879971133, -3012.9928008309366, -1834.6758883805144, -8384.966359730526, -14695.377909586181, 0.012, -0.106, 0.996, 192.0, 0.0, 0.0, 0.0, 0.0, 0.0, 0.0, 0.0, 0.0, 0.0, 1.645922375102669E9, 0.0, 2022-02-27 11:39:35.102
160.0, -852.7414027144198, -3510.8779085729016, -1395.1511854113562, -9027.534309331693, 145.17458023721937, 616.6175742885559, -4872.456773812387, -1144.5210748339982, -2419.464578564713, -4330.181101582182, -3299.2068885811436, -2556.905455220396, -2688.512526573244, -1576.088556777067, -8377.32206312681, -14749.267965467927, 0.012, -0.106, 0.996, 192.0, 0.0, 0.0, 0.0, 0.0, 0.0, 0.0, 0.0, 0.0, 0.0, 1.645922375109767E9, 0.0, 2022-02-27 11:39:35.109
162.0, -1451.8799128389255, -3965.0206524158307, -1825.712838853936, -9540.328030625347, -416.5024061801918, 278.1898114907517, -5102.679741702049, -1430.6234038619286, -3089.636932568185, -4969.418641259509, -3607.9515347423003, -2739.8544835870844, -2992.5856581432413, -1888.2753715843407, -8642.771380278038, -15365.438504867376, 0.012, -0.106, 0.996, 192.0, 0.0, 0.0, 0.0, 0.0, 0.0, 0.0, 0.0, 0.0, 0.0, 1.64592237511776E9, 0.0, 2022-02-27 11:39:35.117
164.0, -962.7343371789858, -3584.1916303863086, -1437.0830580095123, -9092.309664763174, 51.02903259146603, 613.3318678536258, -4807.368493958533, -1022.1229221967367, -1240.812389947461, -4063.770659419377, -3396.414625217274, -2522.126140847938, -2815.872766479584, -1655.146676915488, -8242.876320228139, -14367.276652726729, 0.012, -0.106, 0.996, 192.0, 0.0, 0.0, 0.0, 0.0, 0.0, 0.0, 0.0, 0.0, 0.0, 1.645922375124844E9, 0.0, 2022-02-27 11:39:35.124
166.0, -1180.8203078294168, -3776.46133619086, -1663.014490963756, -9327.494719921913, -182.0326068440207, 397.8386995600104, -5085.357139749186, -1404.4942145936745, -3646.2847764831517, -4865.751250475794, -3394.4029682162964, -2686.7914422501854, -2768.956454867894, -1720.8608056140909, -8620.620801522828, -15366.28787115668, 0.008, -0.108, 0.992, 192.0, 0.0, 32.0, 126.0, 80.0, 15.5, 0.0, 0.0, 0.0, 0.0, 1.645922375132335E9, 0.0, 2022-02-27 11:39:35.132
168.0, -1272.842439751916, -3820.8966041680105, -1662.209828163365, -9365.47033375148, -241.1976744172185, 440.35171751400446, -4957.192237042455, -1182.720206108118, -1459.412450720364, -4397.236334948103, -3586.2032873872863, -2615.131749526471, -3007.561326928297, -1823.7682370863245, -8378.3278916273, -14669.7628104404, 0.008, -0.108, 0.992, 192.0, 0.0, 0.0, 0.0, 0.0, 0.0, 0.0, 0.0, 0.0, 0.0, 1.645922375140302E9, 0.0, 2022-02-27 11:39:35.140
170.0, -840.5373502418221, -3505.2005654812538, -1388.0433306745686, -9020.560565061638, 138.8937400452781, 620.5067778237793, -4865.594788264607, -1130.327717104878, -2434.462599094224, -4292.049025541428, -3283.448908740152, -2564.5274000796558, -2688.5572300621548, -1590.147804039455, -8386.508630097942, -14762.231977252004, 0.008, -0.108, 0.992, 192.0, 0.0, 0.0, 0.0, 0.0, 0.0, 0.0, 0.0, 0.0, 0.0, 1.645922375148432E9, 0.0, 2022-02-27 11:39:35.148
172.0, -1450.1588285158668, -3969.3121873512496, -1829.1550075000534, -9535.634164289733, -430.96398484277546, 280.1344132583634, -5083.837221126226, -1436.0772295090235, -3083.400795865154, -4990.406929303042, -3599.7707962716577, -2720.5202246332437, -3003.6497716486183, -1896.0314269103321, -8640.80442676597, -15364.32091764461, 0.008, -0.108, 0.992, 192.0, 0.0, 0.0, 0.0, 0.0, 0.0, 0.0, 0.0, 0.0, 0.0, 1.645922375154881E9, 0.0, 2022-02-27 11:39:35.154
174.0, -948.988014338972, -3570.042976146099, -1435.8090085755598, -9090.879153118034, 41.84246562033482, 603.7653212267544, -4817.851462108071, -1039.8925590387057, -1225.9261281402264, -4062.2060373075055, -3384.009407044579, -2504.848242383986, -2818.4655688363996, -1642.8085139761586, -8240.887014971617, -14375.502094686282, 0.008, -0.108, 0.992, 192.0, 0.0, 0.0, 0.0, 0.0, 0.0, 0.0, 0.0, 0.0, 0.0, 1.645922375164357E9, 0.0, 2022-02-27 11:39:35.164
176.0, -1149.5949208253528, -3742.7772572967124, -1649.2234646348315, -9312.809623814777, -184.98303711212125, 397.07874024853, -5088.799308395303, -1408.2046041732556, -3624.2236047057636, -4858.933968416925, -3373.1017557503887, -2663.679738483398, -2765.73780366633, -1710.981334564845, -8622.878327712813, -15374.46860962732, 0.006, -0.114, 0.988, 192.0, 0.0, 24.0, 126.0, 56.0, 15.0, 112.0, 0.0, 0.0, 0.0, 1.645922375177223E9, 0.0, 2022-02-27 11:39:35.177
178.0, -1256.9279976997373, -3799.9306678689327, -1661.6063310630718, -9361.08939183824, -252.1947326892296, 417.1506067693957, -4956.119353308601, -1225.3673345288437, -1470.4989159701963, -4386.2839801650025, -3573.0604616475657, -2589.807223058608, -3009.7741496293725, -1831.7701616013244, -8378.998443960958, -14696.741365997956, 0.006, -0.114, 0.988, 192.0, 0.0, 0.0, 0.0, 0.0, 0.0, 0.0, 0.0, 0.0, 0.0, 1.645922375184588E9, 0.0, 2022-02-27 11:39:35.184
180.0, -820.0408005763055, -3478.222009923698, -1383.2377056166777, -9010.435224823383, 131.49531263057145, 627.7710947717542, -4879.765794249272, -1112.1110453738029, -2375.8339733879534, -4303.157842535716, -3262.3488619743425, -2535.4701322877568, -2683.0139974372387, -1578.5919521560613, -8379.04314744987, -14751.234918979993, 0.006, -0.114, 0.988, 192.0, 0.0, 0.0, 0.0, 0.0, 0.0, 0.0, 0.0, 0.0, 0.0, 1.645922375192598E9, 0.0, 2022-02-27 11:39:35.192
182.0, -1431.3610114289536, -3946.1781318400067, -1824.9975830313663, -9530.247393876005, -429.3770109864487, 280.9614278032098, -5111.486329017441, -1421.3921334018867, -3120.683505616606, -4967.585798214173, -3582.403490829884, -2716.4298553979224, -2999.045312290825, -1880.295798813796, -8651.935595504714, -15375.206217194345, 0.006, -0.114, 0.988, 192.0, 0.0, 0.0, 0.0, 0.0, 0.0, 0.0, 0.0, 0.0, 0.0, 1.645922375200676E9, 0.0, 2022-02-27 11:39:35.200
184.0, -957.9957673544607, -3582.1576216408757, -1440.5699301445402, -9093.248438030296, 32.79000911593546, 601.0831118921176, -4826.658049423462, -1047.2239312200466, -1205.0495988189696, -4049.6890604125338, -3384.970532056157, -2498.8356231255084, -2825.3946096175446, -1643.0990866540774, -8249.268919142356, -14373.51278942976, 0.008, -0.111, 0.989, 192.0, 0.0, 40.0, 126.0, 80.0, 15.0, 120.0, 0.0, 0.0, 0.0, 1.645922375207204E9, 0.0, 2022-02-27 11:39:35.207
186.0, -1162.0895459758694, -3758.5128853932483, -1655.593711804594, -9315.111853493674, -187.3523220243838, 389.6356093449127, -5089.447508984507, -1404.5389180825853, -3616.601659846504, -4852.541369502708, -3375.940427296213, -2665.713747228831, -2769.4034897570004, -1712.7471223768143, -8624.04061842449, -15361.482246098787, 0.008, -0.111, 0.989, 192.0, 0.0, 0.0, 0.0, 0.0, 0.0, 0.0, 0.0, 0.0, 0.0, 1.645922375215224E9, 0.0, 2022-02-27 11:39:35.215
188.0, -1281.3137509004773, -3825.8363396926334, -1672.5363341017169, -9366.09618259623, -246.33857564193914, 422.8950050944096, -4949.011498571814, -1202.7250173956177, -1487.218020822766, -4414.089550267405, -3584.213982130764, -2601.541888897644, -3021.0617805793026, -1832.8206935907237, -8390.353130144254, -14696.964883442508, 0.008, -0.111, 0.989, 192.0, 0.0, 0.0, 0.0, 0.0, 0.0, 0.0, 0.0, 0.0, 0.0, 1.645922375223313E9, 0.0, 2022-02-27 11:39:35.223
190.0, -850.7297457134421, -3501.8031003240467, -1389.2950283640657, -9015.419663836916, 141.62065286882554, 621.7584755132766, -4877.821192481661, -1127.623156025786, -2396.3528747979253, -4305.2812582589695, -3280.3196645164094, -2542.8015044690974, -2692.4017301084677, -1583.9340190808796, -8388.18501093209, -14753.067762025328, 0.008, -0.111, 0.989, 192.0, 0.0, 0.0, 0.0, 0.0, 0.0, 0.0, 0.0, 0.0, 0.0, 1.645922375230565E9, 0.0, 2022-02-27 11:39:35.230
192.0, -1481.9206573868582, -3990.2334201614167, -1834.7876471027907, -9537.802283501898, -431.0310400761414, 284.180079004774, -5118.884756432147, -1430.221072461733, -3134.1839592676115, -4974.872466906603, -3600.508403838683, -2730.6455648714978, -2993.9044110661043, -1892.0528163972876, -8650.818008281947, -15378.447220140366, 0.008, -0.111, 0.989, 192.0, 0.0, 0.0, 0.0, 0.0, 0.0, 0.0, 0.0, 0.0, 0.0, 1.645922375236908E9, 0.0, 2022-02-27 11:39:35.236
194.0, -1011.7070092805636, -3626.637593106937, -1446.00140404718, -9091.840278129612, 44.703488910614126, 598.4009025574807, -4851.088506113113, -1054.0635650233705, -1235.1797503447235, -4060.9766913624635, -3398.4933374516177, -2524.2272048267373, -2817.504443824821, -1643.4567145653623, -8253.269881399856, -14374.093934785598, 0.009000000000000001, -0.1125, 0.9904999999999999, 192.0, 0.0, 40.0, 126.0, 56.0, 15.5, 0.0, 0.0, 0.0, 0.0, 1.645922375245152E9, 0.0, 2022-02-27 11:39:35.245
196.0, -1230.0835526089136, -3824.070551880664, -1644.663708765949, -9301.142013209106, -157.51274317654887, 419.0728567925521, -5084.083090315234, -1387.41748182982, -3639.020459535177, -4858.553988761186, -3389.19501175821, -2672.553381032155, -2759.188742540925, -1701.9288780604456, -8630.500272572073, -15365.125580445003, 0.009000000000000001, -0.1125, 0.9904999999999999, 192.0, 0.0, 0.0, 0.0, 0.0, 0.0, 0.0, 0.0, 0.0, 0.0, 1.645922375252943E9, 0.0, 2022-02-27 11:39:35.252
198.0, -1404.4271593603087, -3936.7680474243225, -1687.6461133535045, -9384.603427005224, -267.59508461893614, 430.33813599802687, -4944.228225258377, -1191.8844213347938, -1578.055510289134, -4458.323652544457, -3616.512252868683, -2621.2561275072253, -3017.373742744177, -1830.1161325116316, -8392.342435400777, -14717.752005785944, 0.009000000000000001, -0.1125, 0.9904999999999999, 192.0, 0.0, 0.0, 0.0, 0.0, 0.0, 0.0, 0.0, 0.0, 0.0, 1.64592237526015E9, 0.0, 2022-02-27 11:39:35.260
200.0, -969.663377960131, -3620.893194781923, -1392.4689760767194, -9016.961934204333, 145.37574593731713, 637.7399727988211, -4846.14877058849, -1099.683475456652, -2371.2518657746155, -4310.176290294682, -3308.6393247412834, -2564.3485861240133, -2690.77005276323, -1580.5589056681283, -8371.3764991017, -14720.43421512058, 0.009000000000000001, -0.1125, 0.9904999999999999, 192.0, 0.0, 0.0, 0.0, 0.0, 0.0, 0.0, 0.0, 0.0, 0.0, 1.645922375267494E9, 0.0, 2022-02-27 11:39:35.267
202.0, -1603.9388303683795, -4111.268116386905, -1841.850798350668, -9543.010239959984, -427.18654002982856, 284.44829993823765, -5114.839090685737, -1425.0578194925572, -3221.847501021326, -5018.771293016826, -3626.7717035736687, -2762.2509315313023, -2996.944248312026, -1891.494022785905, -8659.132857219322, -15386.04681325517, 0.009000000000000001, -0.1125, 0.9904999999999999, 192.0, 0.0, 0.0, 0.0, 0.0, 0.0, 0.0, 0.0, 0.0, 0.0, 1.645922375275503E9, 0.0, 2022-02-27 11:39:35.275
204.0, -1126.1255891472804, -3730.550853079659, -1456.640834407906, -9107.911182392978, 45.59755868882641, 615.45528357688, -4837.945680373393, -1050.174361488147, -1261.711271013173, -4101.321590104293, -3445.96844267469, -2552.2562923736923, -2841.9125487700167, -1651.6151012915495, -8257.315547146267, -14373.222216751841, 0.0105, -0.10825000000000001, 0.99025, 192.0, 0.0, 48.0, 126.0, 96.0, 15.0, 120.0, 0.0, 0.0, 0.0, 1.645922375282678E9, 0.0, 2022-02-27 11:39:35.282
206.0, -1297.2058412082006, -3885.3813869215714, -1652.1068396695662, -9309.814490057766, -167.30280724797336, 419.139912025918, -5054.131752745122, -1378.5885427699736, -3645.211892749297, -4868.522866788253, -3407.7916631450253, -2693.5863725645986, -2758.875818118551, -1698.4867094143283, -8622.744217246081, -15345.456045324332, 0.0105, -0.10825000000000001, 0.99025, 192.0, 0.0, 0.0, 0.0, 0.0, 0.0, 0.0, 0.0, 0.0, 0.0, 1.645922375290158E9, 0.0, 2022-02-27 11:39:35.290
208.0, -1424.0519909920683, -3959.16449536854, -1686.4167674084626, -9376.623854234678, -248.730212298657, 437.9600808572866, -4930.057219273713, -1191.3479794678665, -1570.8806003189804, -4462.838704924429, -3628.559843130093, -2635.650650936443, -3025.4874259814533, -1843.1248477846204, -8392.85652552325, -14702.597523045246, 0.0105, -0.10825000000000001, 0.99025, 192.0, 0.0, 0.0, 0.0, 0.0, 0.0, 0.0, 0.0, 0.0, 0.0, 1.645922375305174E9, 0.0, 2022-02-27 11:39:35.305
210.0, -960.7450319224635, -3621.3178779265736, -1394.9276679668033, -9013.16213764693, 149.0414320279875, 638.3211181546591, -4850.015622379258, -1075.1859635336357, -2389.5132409946013, -4325.777807924486, -3313.4673015436297, -2563.8568477459967, -2690.3453696185793, -1586.9515045823462, -8377.746746271461, -14721.216526176517, 0.0105, -0.10825000000000001, 0.99025, 192.0, 0.0, 0.0, 0.0, 0.0, 0.0, 0.0, 0.0, 0.0, 0.0, 1.645922375313949E9, 0.0, 2022-02-27 11:39:35.313
212.0, -1554.4297163998745, -4069.6715199555783, -1840.2191210054305, -9539.299850380403, -401.2808682061277, 297.6805326557795, -5131.49114030494, -1421.5038921241633, -3223.099198710823, -5020.313563384243, -3625.654116350903, -2756.4618297173774, -2998.2853529793447, -1899.8982787011003, -8658.104676974377, -15385.510371388242, 0.0105, -0.10825000000000001, 0.99025, 192.0, 0.0, 0.0, 0.0, 0.0, 0.0, 0.0, 0.0, 0.0, 0.0, 1.645922375319986E9, 0.0, 2022-02-27 11:39:35.319
214.0, -1066.5805419183423, -3681.5111257447156, -1452.7739826171378, -9108.805252171189, 29.705468381103085, 604.6817427494219, -4833.341221015599, -1039.8702072942506, -1228.362468285855, -4077.8746101706756, -3414.1172068258775, -2523.646059470899, -2821.4159991045, -1644.7531157437702, -8247.570186563753, -14373.937472574411, 0.01125, -0.107125, 0.9901249999999999, 192.0, 0.0, 48.0, 126.0, 88.0, 15.0, 120.0, 0.0, 0.0, 0.0, 1.645922375327728E9, 0.0, 2022-02-27 11:39:35.327
216.0, -1232.4751892656313, -3821.701266968402, -1644.2390256212982, -9304.561830110768, -163.6594729017583, 408.1205020094517, -5045.325165429731, -1356.7508884371387, -3633.544282143627, -4862.666709740962, -3394.224154260654, -2696.223878410325, -2760.5521989526987, -1703.9852385503339, -8608.975542661612, -15337.69998999834, 0.01125, -0.107125, 0.9901249999999999, 192.0, 0.0, 0.0, 0.0, 0.0, 0.0, 0.0, 0.0, 0.0, 0.0, 1.645922375335827E9, 0.0, 2022-02-27 11:39:35.335
218.0, -1349.285405789066, -3884.777889821278, -1678.7501190602923, -9372.578188488269, -259.8613810373999, 444.10681058249605, -4963.830705145682, -1213.006819845059, -1563.21395197081, -4452.3780885193455, -3606.833947519535, -2623.714819397309, -3016.3902659881433, -1840.9343768280003, -8390.062557466335, -14716.254438907437, 0.01125, -0.107125, 0.9901249999999999, 192.0, 0.0, 0.0, 0.0, 0.0, 0.0, 0.0, 0.0, 0.0, 0.0, 1.645922375342484E9, 0.0, 2022-02-27 11:39:35.342
220.0, -877.8424117377295, -3530.7486093936695, -1380.0190544151133, -9004.266143353718, 152.12597276281986, 643.1714467014607, -4860.051555639691, -1082.9643706040824, -2338.886539803331, -4284.292970215437, -3284.9911791075683, -2538.0852863890277, -2678.476593312811, -1562.6104548705168, -8372.717603769017, -14714.332188884282, 0.01125, -0.107125, 0.9901249999999999, 192.0, 0.0, 0.0, 0.0, 0.0, 0.0, 0.0, 0.0, 0.0, 0.0, 1.645922375350416E9, 0.0, 2022-02-27 11:39:35.350
222.0, -1487.0839103560343, -4002.7280453119333, -1829.5796906447042, -9533.354286355292, -423.00676381668615, 294.7301023876789, -5095.571886965262, -1411.0879792079902, -3202.714407767583, -4981.13095535409, -3593.467604335261, -2725.482311902322, -2983.957884783493, -1883.648560482092, -8653.23199668312, -15389.62309236802, 0.01125, -0.107125, 0.9901249999999999, 192.0, 0.0, 0.0, 0.0, 0.0, 0.0, 0.0, 0.0, 0.0, 0.0, 1.645922375357408E9, 0.0, 2022-02-27 11:39:35.357
224.0, -1012.1316924252144, -3621.921375026867, -1449.9129593268585, -9105.720711436357, 23.67049737817018, 603.4747485488354, -4822.85825286606, -1043.2453207070018, -1206.8377383753943, -4053.4218017365697, -3395.7217211391594, -2533.0337921421283, -2825.506368339821, -1649.7152030128484, -8244.664459784562, -14362.962766046854, 0.011625, -0.1075625, 0.9920625, 192.0, 0.0, 48.0, 126.0, 80.0, 15.5, 8.0, 0.0, 0.0, 0.0, 1.645922375365562E9, 0.0, 2022-02-27 11:39:35.365
226.0, -1180.6414938737744, -3780.8869815930107, -1636.8405982065915, -9294.45884161697, -163.9500455796773, 413.39551370090413, -5060.278482470332, -1386.4563568182418, -3611.796034788613, -4836.626927450529, -3368.162020225766, -2656.594235491066, -2758.0041000847937, -1699.559593148183, -8616.396321820775, -15338.057617909626, 0.011625, -0.1075625, 0.9920625, 192.0, 0.0, 0.0, 0.0, 0.0, 0.0, 0.0, 0.0, 0.0, 0.0, 1.645922375372107E9, 0.0, 2022-02-27 11:39:35.372
228.0, -1339.3165277619992, -3883.6603025985128, -1682.5722673621497, -9388.29146484035, -281.16259350330756, 408.99222004320865, -4945.368164225598, -1209.743465154584, -1579.6871876343714, -4454.948539131706, -3601.894211994912, -2609.0520750346277, -3029.533091727864, -1852.5125804558493, -8405.507612884952, -14725.552764600847, 0.011625, -0.1075625, 0.9920625, 192.0, 0.0, 0.0, 0.0, 0.0, 0.0, 0.0, 0.0, 0.0, 0.0, 1.645922375379988E9, 0.0, 2022-02-27 11:39:35.379
230.0, -861.9726731744615, -3525.965336080234, -1377.1133276359235, -9009.652913767448, 141.64300461328085, 629.6262895615447, -4889.265285642778, -1126.885548458761, -2336.3607926798813, -4302.129662290771, -3292.1213855888113, -2539.7616672231757, -2694.3686836205347, -1592.3606267405305, -8380.764231772928, -14722.065892465818, 0.011625, -0.1075625, 0.9920625, 192.0, 0.0, 0.0, 0.0, 0.0, 0.0, 0.0, 0.0, 0.0, 0.0, 1.645922375388214E9, 0.0, 2022-02-27 11:39:35.388
232.0, -1462.7875641331154, -3987.461803848959, -1823.589423130682, -9529.465082820068, -424.88431035093197, 280.179116747274, -5126.596108269227, -1446.7166598697497, -3242.008774520013, -4998.699426495961, -3586.4938600652054, -2716.4969106312888, -2980.1357364816354, -1877.1218511011425, -8678.489467917618, -15410.454918200365, 0.011625, -0.1075625, 0.9920625, 192.0, 0.0, 0.0, 0.0, 0.0, 0.0, 0.0, 0.0, 0.0, 0.0, 1.64592237539469E9, 0.0, 2022-02-27 11:39:35.394
234.0, -1007.3260673673234, -3612.734808055736, -1448.929482570825, -9118.885888920533, -1.8775465342457933, 584.6769314619221, -4838.124494329035, -1059.137411014725, -1186.6317613877966, -4065.000005364419, -3407.545793956017, -2498.008608580662, -2844.058316237726, -1642.2497203647758, -8260.824771025751, -14375.971481319844, 0.0108125, -0.10778125, 0.9940312499999999, 192.0, 0.0, 40.0, 126.0, 80.0, 15.5, 16.0, 0.0, 0.0, 0.0, 1.645922375402809E9, 0.0, 2022-02-27 11:39:35.402
236.0, -1147.6279673132858, -3749.527484122215, -1620.5238247542175, -9287.149821180084, -168.86742935984486, 419.7657608706666, -5083.926628104046, -1386.8586882184372, -3571.7417087247027, -4808.709598625851, -3353.6333863298164, -2655.454296523845, -2750.583320925632, -1701.951229804901, -8617.245688110077, -15326.211193348312, 0.0108125, -0.10778125, 0.9940312499999999, 192.0, 0.0, 0.0, 0.0, 0.0, 0.0, 0.0, 0.0, 0.0, 0.0, 1.645922375410707E9, 0.0, 2022-02-27 11:39:35.410
238.0, -1314.126111760868, -3865.108354700608, -1674.9279707584346, -9381.496534525935, -287.0634540395086, 409.8639380769656, -4989.378749058098, -1222.4169042607432, -1584.2916469921647, -4455.753201932097, -3591.120671167454, -2598.300885951625, -3028.214338805001, -1848.7574873873577, -8416.19174673459, -14735.76751181692, 0.0108125, -0.10778125, 0.9940312499999999, 192.0, 0.0, 0.0, 0.0, 0.0, 0.0, 0.0, 0.0, 0.0, 0.0, 1.645922375424272E9, 0.0, 2022-02-27 11:39:35.424
240.0, -850.9756149024505, -3506.40755968184, -1366.2503798306443, -9002.410948563927, 143.49819940307134, 640.9139205114748, -4896.216678168378, -1113.2956878299342, -2286.270533355538, -4275.844010811331, -3277.235123781577, -2525.3447920495028, -2688.780747506708, -1577.7872893556703, -8378.84198174977, -14700.876438722187, 0.0108125, -0.10778125, 0.9940312499999999, 192.0, 0.0, 0.0, 0.0, 0.0, 0.0, 0.0, 0.0, 0.0, 0.0, 1.645922375432401E9, 0.0, 2022-02-27 11:39:35.432
242.0, -1468.8225351360484, -3990.9263242395314, -1817.6438591055703, -9529.465082820068, -434.6296709334458, 277.04987252353106, -5124.1821198680545, -1426.287165437599, -3253.9669578036023, -4990.183411858489, -3586.2256391317414, -2722.9565647788722, -2984.851954561705, -1892.4998512863938, -8678.33300570643, -15408.309150732655, 0.0108125, -0.10778125, 0.9940312499999999, 192.0, 0.0, 0.0, 0.0, 0.0, 0.0, 0.0, 0.0, 0.0, 0.0, 1.645922375440433E9, 0.0, 2022-02-27 11:39:35.440
244.0, -1021.787646029907, -3629.0962849970206, -1445.8449418359926, -9110.973371383354, 9.991229771522256, 594.6905129778997, -4827.596822690585, -1043.7370590850187, -1189.9174678227268, -4056.863970382687, -3412.373770758363, -2497.3827597359136, -2836.615185334109, -1653.179723403421, -8256.06384945677, -14372.46225744036, 0.01140625, -0.10789062499999999, 0.991015625, 192.0, 0.0, 48.0, 126.0, 80.0, 15.0, 112.0, 0.0, 0.0, 0.0, 1.645922375447584E9, 0.0, 2022-02-27 11:39:35.447
246.0, -1180.7979560849615, -3774.0696995341423, -1615.628792718505, -9277.583274553213, -149.26494947254056, 426.09130455151853, -5085.044215326812, -1380.220220115211, -3573.1945721142974, -4805.490947424287, -3362.4176219007522, -2647.6311859644875, -2745.710640634375, -1677.9901597488117, -8616.396321820775, -15320.422091534389, 0.01140625, -0.10789062499999999, 0.991015625, 192.0, 0.0, 0.0, 0.0, 0.0, 0.0, 0.0, 0.0, 0.0, 0.0, 1.645922375454947E9, 0.0, 2022-02-27 11:39:35.454
248.0, -1420.453360134764, -3950.939053408987, -1689.0319215097336, -9387.307988084316, -287.1081575284192, 411.5179671666583, -4973.978397128391, -1217.231299547112, -1621.6861154658934, -4477.568504520476, -3610.8349097770347, -2616.6293164049766, -3029.6224987056853, -1851.3502897441733, -8424.148967760679, -14748.418599178625, 0.01140625, -0.10789062499999999, 0.991015625, 192.0, 0.0, 0.0, 0.0, 0.0, 0.0, 0.0, 0.0, 0.0, 0.0, 1.645922375463096E9, 0.0, 2022-02-27 11:39:35.463
250.0, -999.8605847192508, -3649.3022619846183, -1386.8139847295267, -9009.138823644975, 148.3708796943283, 645.8983595250082, -4897.088396202135, -1108.691228472141, -2334.0138595120743, -4308.611668182811, -3320.9774876806127, -2561.398155855913, -2704.806948281163, -1589.633713916983, -8389.190839432578, -14703.022206189897, 0.01140625, -0.10789062499999999, 0.991015625, 192.0, 0.0, 0.0, 0.0, 0.0, 0.0, 0.0, 0.0, 0.0, 0.0, 1.645922375471035E9, 0.0, 2022-02-27 11:39:35.471
