%OpenBCI Raw EEG Data
%Number of channels = 16
%Sample Rate = 125 Hz
%Board = OpenBCI_GUI$BoardCytonSerialDaisy
Sample Index, EXG Channel 0, EXG Channel 1, EXG Channel 2, EXG Channel 3, EXG Channel 4, EXG Channel 5, EXG Channel 6, EXG Channel 7, EXG Channel 8, EXG Channel 9, EXG Channel 10, EXG Channel 11, EXG Channel 12, EXG Channel 13, EXG Channel 14, EXG Channel 15, Accel Channel 0, Accel Channel 1, Accel Channel 2, Other, Other, Other, Other, Other, Other, Other, Analog Channel 0, Analog Channel 1, Analog Channel 2, Timestamp, Other, Timestamp (Formatted)
0.0, -1743.0560878582107, -4938.416771699997, -2062.4401643800934, -10576.75606927348, -765.3460818941692, 201.50097626459316, -5719.029095057142, -1738.921015133979, 0.0, 0.0, 0.0, 0.0, 0.0, 0.0, 0.0, 0.0, 0.0, 0.0, 0.0, 192.0, 0.0, 0.0, 0.0, 0.0, 0.0, 0.0, 0.0, 0.0, 0.0, 1.645921330677413E9, 0.0, 2022-02-27 11:22:10.677
54.0, -1904.5027380588936, -5103.417349269074, -2232.022849562508, -10757.000536561078, -939.8461508567514, 10.482968149539012, -5924.642792301512, -1942.612462355192, -3179.267427833966, -6867.752297848738, -4378.013834716539, -3259.197266006144, -4195.601248216778, -2967.7528700533953, -10066.733964292283, -14935.994438647562, 0.0, 0.0, 0.0, 192.0, 0.0, 0.0, 0.0, 0.0, 0.0, 0.0, 0.0, 0.0, 0.0, 1.645921330677416E9, 0.0, 2022-02-27 11:22:10.677
56.0, -1896.2996478437958, -5088.7322531619375, -2198.696398579645, -10712.095881950365, -911.8841185431622, 56.37109951628441, -5869.009300352252, -1878.7088249574692, -3411.837328891436, -7142.254071504363, -4613.869442208939, -3535.3083652625523, -4445.560806460477, -3203.630829290251, -10316.715874280439, -15109.667493065297, 0.0, 0.0, 0.0, 192.0, 0.0, 0.0, 0.0, 0.0, 0.0, 0.0, 0.0, 0.0, 0.0, 1.645921330677418E9, 0.0, 2022-02-27 11:22:10.677
0.0, -829.540291969811, -2462.871666296919, -1036.9644805150606, -5246.289699827397, -336.55021626355847, 115.73733278957997, -2908.1631193355465, -876.5907140482324, -1533.0390969561456, -3415.0112766040897, -2166.867514475288, -1612.4771967503068, -2076.633522109213, -1458.9430640868027, -5007.528365555807, -7401.154327530186, 0.004, -0.055, 0.494, 192.0, 0.0, 32.0, 126.0, 72.0, 15.0, 112.0, 0.0, 0.0, 0.0, 1.645921330771303E9, 0.0, 2022-02-27 11:22:10.771
2.0, -2277.821573951432, -5380.511925281516, -2499.7743963926314, -10985.971806761243, -1248.6131487623632, -194.79545292800105, -6105.222535755937, -2111.5245952039477, -4502.289533888046, -7551.335698525393, -4641.160922188869, -3683.075747856587, -4349.917691936218, -3172.450145775097, -10503.442347460074, -15644.768255325349, 0.004, -0.055, 0.494, 192.0, 0.0, 0.0, 0.0, 0.0, 0.0, 0.0, 0.0, 0.0, 0.0, 1.645921330778858E9, 0.0, 2022-02-27 11:22:10.778
4.0, -2005.0632363633201, -5173.4900681364625, -2267.696233713178, -10719.40490238725, -986.8518694462621, 25.70450612360312, -5844.221215751317, -1766.4807160473724, -2100.393426465205, -6744.549482411085, -4632.354334873478, -3482.6476553258485, -4433.490864454611, -3089.882801757193, -10091.18677272639, -14600.897085773599, 0.004, -0.055, 0.494, 192.0, 0.0, 0.0, 0.0, 0.0, 0.0, 0.0, 0.0, 0.0, 0.0, 1.645921330785527E9, 0.0, 2022-02-27 11:22:10.785
6.0, -1873.8584964106676, -5084.865401371169, -2237.5884339318795, -10688.268922361009, -896.8190427802853, 61.17672457417543, -5937.472693618857, -1941.0925437322312, -4098.393511580648, -7175.334653298218, -4464.135106102837, -3577.530810538627, -4184.380672500214, -3011.3834752301545, -10353.52919739833, -15286.425088217866, 0.004, -0.055, 0.494, 192.0, 0.0, 0.0, 0.0, 0.0, 0.0, 0.0, 0.0, 0.0, 0.0, 1.645921330793446E9, 0.0, 2022-02-27 11:22:10.793
8.0, -2285.8011467219767, -5379.997835159044, -2475.3439397029806, -10960.535521571102, -1248.1437621288017, -173.98597884011016, -5999.454080993424, -1986.8689163767, -3111.3851799231984, -7257.924349060578, -4761.882693991983, -3606.990409730722, -4513.800682282529, -3246.4791234110744, -10312.960781211947, -15189.731441704207, 0.01, -0.10200000000000001, 0.986, 192.0, 0.0, 40.0, 126.0, 104.0, 15.0, 104.0, 0.0, 0.0, 0.0, 1.645921330801518E9, 0.0, 2022-02-27 11:22:10.801
10.0, -1731.8131603971913, -4973.061975605724, -2115.7937783949114, -10545.061295635855, -753.834933499686, 185.58653421241453, -5802.758729786722, -1727.499273717317, -2703.845823269585, -6712.698246562272, -4470.818277694974, -3471.4047278648295, -4254.788667534432, -2975.01718700137, -10130.637601690007, -14701.636398033668, 0.01, -0.10200000000000001, 0.986, 192.0, 0.0, 0.0, 0.0, 0.0, 0.0, 0.0, 0.0, 0.0, 0.0, 1.64592133080859E9, 0.0, 2022-02-27 11:22:10.808
12.0, -2241.9023206117536, -5354.6956604356365, -2486.1845357638044, -10981.657920081369, -1232.6316514768187, -186.30179003498438, -6087.877582058619, -2120.957031364087, -4489.616094781887, -7549.055820590952, -4619.636192278408, -3671.7657651622017, -4329.2870318039695, -3179.848573189804, -10492.110013021233, -15647.13754023761, 0.01, -0.10200000000000001, 0.986, 192.0, 0.0, 0.0, 0.0, 0.0, 0.0, 0.0, 0.0, 0.0, 0.0, 1.645921330816148E9, 0.0, 2022-02-27 11:22:10.816
14.0, -1985.5278117093817, -5158.0673644623, -2267.1597918462508, -10727.675047835713, -981.6215612437203, 25.19041600113106, -5847.193997763872, -1764.49141079085, -2076.253542453473, -6743.610709143962, -4620.284392867612, -3476.255056411631, -4428.819349863452, -3088.9663802345253, -10089.197467469869, -14611.290646945316, 0.01, -0.10200000000000001, 0.986, 192.0, 0.0, 0.0, 0.0, 0.0, 0.0, 0.0, 0.0, 0.0, 0.0, 1.645921330824203E9, 0.0, 2022-02-27 11:22:10.824
16.0, -1839.235644249397, -5055.696374856994, -2224.8702913368097, -10678.232989100576, -883.5197548293776, 64.48478275356088, -5953.923577537964, -1930.743686049424, -4047.2527202669053, -7152.871150120634, -4444.890254126818, -3568.120726122943, -4178.435108475102, -2995.826661089261, -10351.785761330815, -15271.561178155087, 0.011, -0.10600000000000001, 0.988, 192.0, 0.0, 48.0, 126.0, 72.0, 15.0, 120.0, 0.0, 0.0, 0.0, 1.645921330837617E9, 0.0, 2022-02-27 11:22:10.837
18.0, -2265.5504662454687, -5360.752983183024, -2466.269131454126, -10963.329489628017, -1246.9591196726703, -176.48937421910458, -6005.354941529625, -1986.354826254228, -3128.2383952425, -7264.026375296877, -4742.906062949427, -3604.084682951532, -4505.664647300798, -3240.5112076415076, -10325.365999384643, -15203.902447688872, 0.011, -0.10600000000000001, 0.988, 192.0, 0.0, 0.0, 0.0, 0.0, 0.0, 0.0, 0.0, 0.0, 0.0, 1.645921330845654E9, 0.0, 2022-02-27 11:22:10.845
20.0, -1719.3632387355851, -4955.672318419494, -2108.484757958026, -10543.831949690813, -758.1711719240155, 188.08992959140895, -5804.882145509976, -1719.273831757764, -2660.9304739153954, -6713.972295996225, -4458.904797900295, -3455.1326579013657, -4247.323184886359, -2972.6479020891074, -10128.268316777745, -14700.00472068843, 0.011, -0.10600000000000001, 0.988, 192.0, 0.0, 0.0, 0.0, 0.0, 0.0, 0.0, 0.0, 0.0, 0.0, 1.645921330853731E9, 0.0, 2022-02-27 11:22:10.853
22.0, -2222.501006424547, -5334.020296814478, -2479.233143238204, -10976.226446178729, -1230.0164973755477, -182.2114207996632, -6093.465518172446, -2113.379789993738, -4496.031045440561, -7534.951869839653, -4614.316477098046, -3662.7803638911682, -4322.290935789459, -3173.8359539313265, -10500.31310323633, -15654.357153696676, 0.011, -0.10600000000000001, 0.988, 192.0, 0.0, 0.0, 0.0, 0.0, 0.0, 0.0, 0.0, 0.0, 0.0, 1.645921330861204E9, 0.0, 2022-02-27 11:22:10.861
24.0, -1978.7999366283343, -5141.839997987748, -2266.8692191683317, -10727.853861791356, -991.0092939149492, 21.97176479956684, -5864.807172394654, -1787.4690040909059, -2075.024196508431, -6734.826473573026, -4623.123064413437, -3464.8780184838797, -4434.317878999457, -3097.6165053387294, -10096.640598373486, -14632.725969877956, 0.011, -0.10600000000000001, 0.988, 192.0, 0.0, 0.0, 0.0, 0.0, 0.0, 0.0, 0.0, 0.0, 0.0, 1.645921330868321E9, 0.0, 2022-02-27 11:22:10.868
26.0, -1819.7672748288246, -5042.240624694899, -2218.6565063782346, -10666.945358150644, -875.3166646142798, 74.27484682498537, -5959.913845051986, -1918.0478951988096, -4010.7299698269335, -7129.5582806537495, -4440.844588380407, -3557.4589440177615, -4179.798564886876, -2995.7372541114396, -10352.836293320215, -15265.056820518592, 0.0115, -0.10900000000000001, 0.99, 192.0, 0.0, 48.0, 126.0, 64.0, 15.5, 0.0, 0.0, 0.0, 0.0, 1.645921330876351E9, 0.0, 2022-02-27 11:22:10.876
28.0, -2261.214227821139, -5357.132000581265, -2468.5490093885674, -10968.068059452542, -1245.550959771986, -182.39023475530564, -5997.800051903731, -1998.2236025599962, -3158.301491534888, -7284.053538328832, -4741.922586193394, -3603.4588341067833, -4510.805548525518, -3250.5694926463957, -10332.652668077073, -15223.750796765185, 0.0115, -0.10900000000000001, 0.99, 192.0, 0.0, 0.0, 0.0, 0.0, 0.0, 0.0, 0.0, 0.0, 0.0, 1.645921330884446E9, 0.0, 2022-02-27 11:22:10.884
30.0, -1711.6518868985042, -4952.833646873671, -2109.870566114255, -10550.112789882754, -751.8456282431637, 179.32804576492856, -5798.154270428929, -1743.9054541475123, -2623.04426706365, -6699.734234778194, -4461.028213623549, -3453.8586084674134, -4253.4475628671125, -2963.4613351179764, -10123.596802186585, -14691.064022906306, 0.0115, -0.10900000000000001, 0.99, 192.0, 0.0, 0.0, 0.0, 0.0, 0.0, 0.0, 0.0, 0.0, 0.0, 1.645921330890715E9, 0.0, 2022-02-27 11:22:10.890
32.0, -2204.932535282676, -5322.15152050871, -2476.3274164590143, -10969.096239697486, -1224.4062095172656, -168.80037412647894, -6095.007788539861, -2098.4935281865037, -4502.468347843689, -7529.028657558997, -4608.661485750853, -3655.538398687649, -4324.213185812615, -3153.4064594991755, -10503.88938234918, -15651.250261217388, 0.0115, -0.10900000000000001, 0.99, 192.0, 0.0, 0.0, 0.0, 0.0, 0.0, 0.0, 0.0, 0.0, 0.0, 1.645921330898002E9, 0.0, 2022-02-27 11:22:10.898
34.0, -1975.0224918153874, -5143.650489288627, -2261.191876076684, -10728.926745525212, -988.1929741135806, 23.29051772242996, -5853.005451322252, -1777.008387685822, -2071.716138329046, -6755.3006714940875, -4620.306744612068, -3459.267730625598, -4429.825178363941, -3093.0791012143018, -10100.574505397619, -14629.932001821042, 0.0115, -0.10900000000000001, 0.99, 192.0, 0.0, 0.0, 0.0, 0.0, 0.0, 0.0, 0.0, 0.0, 0.0, 1.645921330906069E9, 0.0, 2022-02-27 11:22:10.906
36.0, -1809.3290101681962, -5024.269822152833, -2204.932535282676, -10665.939529650155, -866.5100772988889, 83.28259984047412, -5938.679687819444, -1921.9147469895777, -3983.7290625249225, -7123.232736972897, -4433.043829565505, -3546.1042578344654, -4171.39430897168, -2993.2562104769004, -10344.38733391611, -15253.389209912923, 0.00975, -0.10950000000000001, 0.991, 192.0, 0.0, 32.0, 126.0, 72.0, 15.5, 0.0, 0.0, 0.0, 0.0, 1.645921330914009E9, 0.0, 2022-02-27 11:22:10.914
38.0, -2257.794410919477, -5351.141733067243, -2467.342015187981, -10971.666690309847, -1251.809448219472, -180.06565333195368, -5978.912827838997, -2002.9621723845212, -3187.4705180490637, -7279.739651648957, -4738.279251847178, -3598.362636370973, -4505.217612411691, -3245.227425721577, -10340.654592592073, -15234.524337592644, 0.00975, -0.10950000000000001, 0.991, 192.0, 0.0, 0.0, 0.0, 0.0, 0.0, 0.0, 0.0, 0.0, 0.0, 1.645921330920711E9, 0.0, 2022-02-27 11:22:10.920
40.0, -1714.9375933334343, -4944.898777592037, -2107.0318945684307, -10547.743504970493, -751.6668142875212, 173.4048334842722, -5787.7160057683, -1731.947270863923, -2599.619638874488, -6694.034539942091, -4461.497600257111, -3452.2492828666313, -4256.979138491051, -2973.787841056328, -10122.680380663918, -14677.965900655498, 0.00975, -0.10950000000000001, 0.991, 192.0, 0.0, 0.0, 0.0, 0.0, 0.0, 0.0, 0.0, 0.0, 0.0, 1.645921330928737E9, 0.0, 2022-02-27 11:22:10.928
42.0, -2209.6264016182904, -5322.442093186628, -2470.359500689447, -10966.615196062947, -1217.9018518807711, -179.05982483146488, -6094.6501606285765, -2101.086330543319, -4518.449845129233, -7525.698247635156, -4606.426311305322, -3654.689032398347, -4315.943040364152, -3159.709651435572, -10504.828155616302, -15647.919851293547, 0.00975, -0.10950000000000001, 0.991, 192.0, 0.0, 0.0, 0.0, 0.0, 0.0, 0.0, 0.0, 0.0, 0.0, 1.64592133093686E9, 0.0, 2022-02-27 11:22:10.936
44.0, -1996.994256614954, -5160.011966229912, -2271.8760099263204, -10743.343620698884, -996.9772096845162, 11.533500138938445, -5854.3912594784815, -1788.206611657931, -2090.268086226951, -6752.841979604003, -4637.070552953548, -3468.096669685444, -4440.017573835561, -3103.986752508492, -10102.452051931865, -14636.682228646545, 0.00975, -0.10950000000000001, 0.991, 192.0, 0.0, 0.0, 0.0, 0.0, 0.0, 0.0, 0.0, 0.0, 0.0, 1.645921330943741E9, 0.0, 2022-02-27 11:22:10.943
46.0, -1810.267783435319, -5027.533176843307, -2205.178404471684, -10659.569282480394, -854.0825073817382, 87.19415512015286, -5935.416333128969, -1908.9283834610444, -3955.9905476558865, -7103.6749605745035, -4444.800847148997, -3551.3569177814625, -4178.569218941834, -2993.993818043926, -10340.274612936331, -15232.937363736317, 0.010875, -0.10775000000000001, 0.9904999999999999, 192.0, 0.0, 48.0, 126.0, 88.0, 15.0, 120.0, 0.0, 0.0, 0.0, 1.645921330958285E9, 0.0, 2022-02-27 11:22:10.958
48.0, -2276.145193117284, -5370.297178065441, -2472.8405443239863, -10979.534504358115, -1252.100020897391, -182.99373185559892, -6012.798072433242, -1998.4694717490045, -3249.943643801647, -7318.586983512281, -4754.774839255195, -3622.346058171518, -4510.984362481161, -3251.3965071912417, -10351.294022952798, -15252.048105245603, 0.010875, -0.10775000000000001, 0.9904999999999999, 192.0, 0.0, 0.0, 0.0, 0.0, 0.0, 0.0, 0.0, 0.0, 0.0, 1.645921330966367E9, 0.0, 2022-02-27 11:22:10.966
50.0, -1728.9074336180013, -4952.587777684663, -2107.0318945684307, -10554.314917840353, -762.8203347707195, 181.18324055471905, -5800.635314063467, -1720.525529447261, -2588.935505024851, -6696.448528343264, -4478.194353365226, -3461.927588215779, -4263.170571705171, -2968.9375125095266, -10123.90972660896, -14668.488761006447, 0.010875, -0.10775000000000001, 0.9904999999999999, 192.0, 0.0, 0.0, 0.0, 0.0, 0.0, 0.0, 0.0, 0.0, 0.0, 1.645921330972846E9, 0.0, 2022-02-27 11:22:10.972
52.0, -2215.1472824987513, -5326.398351955218, -2466.3138349430365, -10970.280882153616, -1212.358619255855, -166.7887171255013, -6077.372262164625, -2098.4935281865037, -4539.728705850685, -7520.5573464104355, -4613.288296853101, -3673.0621663406096, -4317.373552009291, -3161.8330671588265, -10506.571591683816, -15646.444636159496, 0.010875, -0.10775000000000001, 0.9904999999999999, 192.0, 0.0, 0.0, 0.0, 0.0, 0.0, 0.0, 0.0, 0.0, 0.0, 1.645921330980904E9, 0.0, 2022-02-27 11:22:10.980
54.0, -2010.651172477147, -5168.505629122928, -2272.054823881963, -10754.228920248619, -995.2784771059129, 21.502378166005393, -5842.947166317364, -1799.2483734188527, -2114.743246405512, -6782.703910196294, -4650.079268226536, -3485.2628094271195, -4441.82806513644, -3111.496938645475, -10106.005979300258, -14644.706504906, 0.010875, -0.10775000000000001, 0.9904999999999999, 192.0, 0.0, 0.0, 0.0, 0.0, 0.0, 0.0, 0.0, 0.0, 0.0, 1.645921330989429E9, 0.0, 2022-02-27 11:22:10.989
56.0, -1818.0908939946764, -5037.23383393691, -2200.305724180427, -10659.546930735938, -859.5810365177437, 98.01239943652146, -5933.31526915017, -1902.558136291282, -3946.3345940511936, -7119.634106115593, -4443.1021145703935, -3553.4579817602616, -4178.859791619753, -2997.234820989945, -10339.13467396911, -15225.538936321609, 0.0124375, -0.10587500000000001, 0.98925, 192.0, 0.0, 56.0, 126.0, 96.0, 15.0, 112.0, 0.0, 0.0, 0.0, 1.645921330996099E9, 0.0, 2022-02-27 11:22:10.996
58.0, -2292.6854840142114, -5389.16205038572, -2478.6519978823662, -10986.262379439162, -1267.0086344490808, -188.11228133586425, -6018.140139358061, -2017.647268491658, -3317.937650434691, -7340.223472145019, -4758.820505001606, -3615.148796456909, -4506.715179290197, -3247.708469356116, -10364.995642303902, -15276.635024146442, 0.0124375, -0.10587500000000001, 0.98925, 192.0, 0.0, 0.0, 0.0, 0.0, 0.0, 0.0, 0.0, 0.0, 0.0, 1.645921331003489E9, 0.0, 2022-02-27 11:22:11.003
60.0, -1755.2824920752637, -4993.782042715793, -2114.5644324498694, -10558.360583586764, -771.0681284747277, 185.60888595686984, -5769.298168337127, -1705.4381019399289, -2557.240731387226, -6710.552479094563, -4489.861963970896, -3460.54178005955, -4272.7594700764985, -2982.3038556938, -10118.545307939687, -14655.94943236702, 0.0124375, -0.10587500000000001, 0.98925, 192.0, 0.0, 0.0, 0.0, 0.0, 0.0, 0.0, 0.0, 0.0, 0.0, 1.645921331010521E9, 0.0, 2022-02-27 11:22:11.010
62.0, -2231.9110908402313, -5353.734535424058, -2464.0339570085953, -10960.736687271201, -1209.7658168990395, -156.9539495651662, -6072.3431196621805, -2100.7957578654, -4559.353537482445, -7528.469863947615, -4610.807253218562, -3663.8755993694786, -4313.618458940799, -3141.135351793212, -10508.091510306778, -15639.515595378352, 0.0124375, -0.10587500000000001, 0.98925, 192.0, 0.0, 0.0, 0.0, 0.0, 0.0, 0.0, 0.0, 0.0, 0.0, 1.645921331018591E9, 0.0, 2022-02-27 11:22:11.018
64.0, -2071.447917395582, -5255.342156331797, -2278.3803675628146, -10762.476713952627, -1006.2531836334687, 15.556814140893716, -5849.20565476485, -1803.2493356763525, -2123.0357435984306, -6804.854488951503, -4653.677899083841, -3496.5727921215052, -4446.521931472055, -3103.629124597207, -10112.085653792103, -14650.13797880864, 0.0124375, -0.10587500000000001, 0.98925, 192.0, 0.0, 0.0, 0.0, 0.0, 0.0, 0.0, 0.0, 0.0, 0.0, 1.645921331025749E9, 0.0, 2022-02-27 11:22:11.025
66.0, -1919.8583864996895, -5126.931384436058, -2194.248401433039, -10656.417686512195, -830.7919896593082, 113.41275136622804, -5897.641884999501, -1894.913839687567, -3925.167492052018, -7124.596193384671, -4462.011690379583, -3580.3247785955405, -4168.0415473033845, -2981.6109516156857, -10326.394179629586, -15199.812078453551, 0.01421875, -0.1059375, 0.987625, 192.0, 0.0, 64.0, 126.0, 88.0, 15.0, 104.0, 0.0, 0.0, 0.0, 1.645921331033233E9, 0.0, 2022-02-27 11:22:11.033
68.0, -2463.475163397213, -5549.200540685719, -2491.3030852440697, -10994.17489697634, -1253.4634773091648, -165.64877815828063, -6001.242220549849, -1992.4792042349823, -3382.087157021422, -7383.675263366135, -4790.314112939133, -3664.568503447593, -4502.691865288242, -3235.2138442055993, -10363.453371936486, -15278.758439869696, 0.01421875, -0.1059375, 0.987625, 192.0, 0.0, 0.0, 0.0, 0.0, 0.0, 0.0, 0.0, 0.0, 0.0, 1.645921331041114E9, 0.0, 2022-02-27 11:22:11.041
70.0, -1994.4014542581385, -5233.482150254506, -2128.377810523249, -10567.010708690967, -753.8572852441413, 200.09281636390884, -5789.660607535912, -1721.9560410924007, -2609.4320546903677, -6754.540712182607, -4539.393429683856, -3514.990629552678, -4273.0500427544175, -2963.7966112848057, -10113.38205497051, -14641.487853704437, 0.01421875, -0.1059375, 0.987625, 192.0, 0.0, 0.0, 0.0, 0.0, 0.0, 0.0, 0.0, 0.0, 0.0, 1.645921331049187E9, 0.0, 2022-02-27 11:22:11.049
72.0, -2487.7715096201314, -5607.002151847142, -2473.8016693355644, -10963.083620439009, -1176.394662427266, -129.34954516286197, -6039.24018612387, -2087.988208292509, -4649.811047293073, -7596.441518836203, -4666.865428312472, -3732.3166408916286, -4301.481461701567, -3136.4191337131424, -10494.792222355869, -15640.409665156563, 0.01421875, -0.1059375, 0.987625, 192.0, 0.0, 0.0, 0.0, 0.0, 0.0, 0.0, 0.0, 0.0, 0.0, 1.645921331055822E9, 0.0, 2022-02-27 11:22:11.055
74.0, -2360.791249369532, -5507.291019832018, -2319.1946529382053, -10779.12876357183, -1014.8586052487618, 30.308965481396378, -5836.398105191959, -1777.1201464080987, -2246.305614269449, -6891.26633301572, -4740.089743148058, -3570.4900110352055, -4459.284777556036, -3105.394912409176, -10107.682360134408, -14655.770618411378, 0.01421875, -0.1059375, 0.987625, 192.0, 0.0, 0.0, 0.0, 0.0, 0.0, 0.0, 0.0, 0.0, 0.0, 1.64592133106399E9, 0.0, 2022-02-27 11:22:11.063
76.0, -2116.7549034064896, -5330.779293868458, -2212.398017930748, -10651.008564354011, -826.3216407682468, 138.82668481191217, -5890.914009918453, -1865.7001096844806, -3978.588161300202, -7153.251129776375, -4532.173816224792, -3628.917471041378, -4188.851021391275, -2974.436041645532, -10315.665342291039, -15166.127999559403, 0.014109375, -0.10396875, 0.9868125, 192.0, 0.0, 56.0, 126.0, 104.0, 15.0, 104.0, 0.0, 0.0, 0.0, 1.645921331071817E9, 0.0, 2022-02-27 11:22:11.071
78.0, -2595.4622144058008, -5680.2935219160945, -2501.853108626975, -10995.113670243463, -1252.5247040420418, -149.17554249471934, -6011.076988110183, -1997.2177740595073, -3482.40178613684, -7424.623659208258, -4835.889319883504, -3701.8735649435002, -4508.03393221306, -3234.565643616396, -10366.224988248943, -15288.056765563104, 0.014109375, -0.10396875, 0.9868125, 192.0, 0.0, 0.0, 0.0, 0.0, 0.0, 0.0, 0.0, 0.0, 0.0, 1.645921331085552E9, 0.0, 2022-02-27 11:22:11.085
80.0, -2034.9922221889763, -5257.532627288417, -2129.4953977460145, -10565.714307512559, -757.2771021458033, 216.65545900529136, -5768.202932858817, -1710.3778374645517, -2595.8198423170857, -6741.084962020513, -4555.196113013758, -3523.3278302345075, -4274.033519510451, -2952.3972216125994, -10102.452051931865, -14628.412083198082, 0.014109375, -0.10396875, 0.9868125, 192.0, 0.0, 0.0, 0.0, 0.0, 0.0, 0.0, 0.0, 0.0, 0.0, 1.645921331093592E9, 0.0, 2022-02-27 11:22:11.093
82.0, -2447.560721345034, -5550.76516279759, -2458.53542787259, -10949.672573765823, -1171.1867059691795, -115.93849848967774, -6043.330555359192, -2085.641275124702, -4656.15894271838, -7551.7827334144995, -4659.869332297961, -3728.4497891008605, -4295.46884244309, -3134.720401134539, -10490.321873464809, -15630.530194107318, 0.014109375, -0.10396875, 0.9868125, 192.0, 0.0, 0.0, 0.0, 0.0, 0.0, 0.0, 0.0, 0.0, 0.0, 1.645921331101387E9, 0.0, 2022-02-27 11:22:11.101
84.0, -2294.2501061260828, -5449.26589122604, -2305.0907021869066, -10778.70408042718, -1019.9548029845719, 37.28270975145218, -5845.271747740716, -1783.3562831111294, -2231.3299454843936, -6871.775611850693, -4725.583460996564, -3550.172275325331, -4459.21772232267, -3116.816653825838, -10110.453976446865, -14661.738534180944, 0.014109375, -0.10396875, 0.9868125, 192.0, 0.0, 0.0, 0.0, 0.0, 0.0, 0.0, 0.0, 0.0, 0.0, 1.645921331108013E9, 0.0, 2022-02-27 11:22:11.108
86.0, -2017.6919719805685, -5244.70272597107, -2185.57592458438, -10647.052305585421, -819.3031930092803, 150.15901925075283, -5901.151108878984, -1868.2929120412962, -3908.2248697548953, -7122.673943361515, -4502.4459960992335, -3613.7182848117695, -4180.804393387365, -2973.094936978214, -10313.1842986565, -15154.974479076205, 0.0140546875, -0.099984375, 0.98540625, 192.0, 0.0, 56.0, 126.5, 0.0, 15.0, 96.0, 0.0, 0.0, 0.0, 1.6459213311161E9, 0.0, 2022-02-27 11:22:11.116
88.0, -2502.7918818940975, -5588.67372139379, -2489.917277087841, -10993.370234175949, -1261.3759948463435, -154.04822278597626, -6002.382159517069, -2006.1361200971749, -3500.5066991456392, -7412.061978824375, -4806.183851502401, -3676.861962898012, -4498.914420475295, -3237.9184052846917, -10372.1482005296, -15308.732129184262, 0.0140546875, -0.099984375, 0.98540625, 192.0, 0.0, 0.0, 0.0, 0.0, 0.0, 0.0, 0.0, 0.0, 0.0, 1.645921331124066E9, 0.0, 2022-02-27 11:22:11.124
90.0, -1923.6581830570917, -5159.296710407342, -2112.7539411489893, -10557.555920786372, -762.9991487263619, 210.57578451344784, -5776.517781796191, -1702.3535612050964, -2528.7422572067094, -6725.528147879619, -4535.303060448535, -3483.005283237134, -4278.861496312797, -2967.0376142308255, -10099.747490852773, -14614.196373724506, 0.0140546875, -0.099984375, 0.98540625, 192.0, 0.0, 0.0, 0.0, 0.0, 0.0, 0.0, 0.0, 0.0, 0.0, 1.645921331131251E9, 0.0, 2022-02-27 11:22:11.131
92.0, -2321.8098070394763, -5451.724583116124, -2432.3615351154253, -10932.662896235335, -1168.3480344233556, -118.66541131322519, -6061.346061390169, -2102.6286009107353, -4604.571116515532, -7539.645736175268, -4612.975372430727, -3680.8629251555117, -4279.487345157546, -3124.170377751634, -10490.45598393154, -15621.880069003115, 0.0140546875, -0.099984375, 0.98540625, 192.0, 0.0, 0.0, 0.0, 0.0, 0.0, 0.0, 0.0, 0.0, 0.0, 1.645921331137755E9, 0.0, 2022-02-27 11:22:11.137
94.0, -2175.271770390483, -5329.192320012131, -2291.6126002803567, -10772.825571635434, -1032.7176490685522, 13.098122250809938, -5870.976253864319, -1819.7672748288246, -2185.799442028933, -6842.874806269981, -4683.226905253757, -3512.308420218041, -4450.411135007279, -3109.217060711034, -10117.67358990593, -14677.161237855105, 0.0140546875, -0.099984375, 0.98540625, 192.0, 0.0, 0.0, 0.0, 0.0, 0.0, 0.0, 0.0, 0.0, 0.0, 1.645921331145748E9, 0.0, 2022-02-27 11:22:11.145
96.0, -1904.5697932922594, -5134.665088017594, -2175.025901201475, -10627.896860587223, -829.5849954587217, 133.95400452065522, -5903.45333855788, -1873.1879440770083, -3825.4340082924377, -7086.575876066194, -4459.530646745044, -3574.4015663148843, -4178.524515452924, -2979.1075562366914, -10308.42337708752, -15143.440978937268, 0.016, -0.1, 0.984, 192.0, 0.0, 64.0, 126.0, 112.0, 15.0, 96.0, 0.0, 0.0, 0.0, 1.645921331153737E9, 0.0, 2022-02-27 11:22:11.153
98.0, -2400.6444097333447, -5491.46598475766, -2488.173841020327, -10993.817269065055, -1287.4157771367761, -172.60017068388115, -6020.777645203787, -2029.9183761976215, -3488.190887950765, -7392.459498937071, -4770.845743518561, -3651.8056573636127, -4500.434339098256, -3243.2828239539654, -10386.989758847923, -15332.55908877362, 0.016, -0.1, 0.984, 192.0, 0.0, 0.0, 0.0, 0.0, 0.0, 0.0, 0.0, 0.0, 0.0, 1.645921331160903E9, 0.0, 2022-02-27 11:22:11.160
100.0, -1840.330879727707, -5066.067584284257, -2114.7879498944226, -10559.500522553984, -784.5238786368226, 200.6069064863809, -5800.344741385548, -1736.9093581330012, -2477.266189726137, -6688.357196850443, -4503.3847693663565, -3459.267730625598, -4278.481516657057, -2970.524486365853, -10109.269333990733, -14628.255620986894, 0.016, -0.1, 0.984, 192.0, 0.0, 0.0, 0.0, 0.0, 0.0, 0.0, 0.0, 0.0, 0.0, 1.645921331168515E9, 0.0, 2022-02-27 11:22:11.168
102.0, -2232.3581257293376, -5357.511980237005, -2427.1759304017937, -10931.858233434945, -1173.846563559361, -110.35056237585097, -6089.039872770295, -2091.542135660903, -4574.798592901063, -7511.840166072866, -4582.599351715965, -3659.561712689604, -4276.291045700436, -3108.255935699455, -10500.849545103258, -15628.85381327317, 0.016, -0.1, 0.984, 192.0, 0.0, 0.0, 0.0, 0.0, 0.0, 0.0, 0.0, 0.0, 0.0, 1.64592133117634E9, 0.0, 2022-02-27 11:22:11.176
104.0, -2107.0095428239756, -5252.123505130232, -2290.0032746795746, -10777.89941762679, -1041.8371608063176, 4.671514591159176, -5853.072506555618, -1816.3698096716178, -2159.5361422939473, -6831.721285786783, -4663.043280010615, -3493.577658364494, -4457.139010088326, -3107.943011277081, -10127.463653977353, -14686.101935637229, 0.016, -0.1, 0.984, 192.0, 0.0, 0.0, 0.0, 0.0, 0.0, 0.0, 0.0, 0.0, 0.0, 1.645921331184319E9, 0.0, 2022-02-27 11:22:11.184
106.0, -1824.9528795424558, -5050.108438743167, -2156.406898070204, -10622.353627962308, -815.3245824962357, 148.23676922759643, -5905.666161258956, -1880.429909280528, -3770.3146064656507, -7008.255363494798, -4440.799884891497, -3537.118856563432, -4178.68097766411, -2969.853934032194, -10308.445728831975, -15135.886089311372, 0.014, -0.106, 0.986, 192.0, 0.0, 56.0, 126.0, 88.0, 15.0, 104.0, 0.0, 0.0, 0.0, 1.645921331190964E9, 0.0, 2022-02-27 11:22:11.190
108.0, -2343.7145166056775, -5419.381608889295, -2478.786108349098, -10994.51017314317, -1268.3050356274887, -176.9364091082107, -6028.176072618494, -2031.2371291204847, -3527.217033769731, -7397.89097283971, -4751.17620839789, -3639.311032213096, -4492.097138416426, -3242.1652367312, -10392.734157172938, -15356.94484197436, 0.014, -0.106, 0.986, 192.0, 0.0, 0.0, 0.0, 0.0, 0.0, 0.0, 0.0, 0.0, 0.0, 1.645921331205969E9, 0.0, 2022-02-27 11:22:11.205
110.0, -1788.1842599134757, -5010.8364237351925, -2100.438129954115, -10555.857188207769, -785.7755763263198, 199.64578147480267, -5794.890915738454, -1722.7830556372471, -2415.4412645627576, -6668.441792540764, -4497.729778019164, -3449.500018298628, -4296.9440575771405, -2984.0696435057694, -10099.836897830593, -14613.324655690749, 0.014, -0.106, 0.986, 192.0, 0.0, 0.0, 0.0, 0.0, 0.0, 0.0, 0.0, 0.0, 0.0, 1.645921331213283E9, 0.0, 2022-02-27 11:22:11.213
112.0, -2180.3903198707485, -5306.840575556824, -2409.5851075154674, -10914.848555904455, -1163.6318163432857, -111.02111470951019, -6080.412099410546, -2110.027028325442, -4555.307871736035, -7480.681834302168, -4562.99687182866, -3640.1603985023976, -4272.021862509473, -3109.105301988757, -10495.082795033788, -15621.90242074757, 0.014, -0.106, 0.986, 192.0, 0.0, 0.0, 0.0, 0.0, 0.0, 0.0, 0.0, 0.0, 0.0, 1.645921331220577E9, 0.0, 2022-02-27 11:22:11.220
114.0, -2063.4012893916715, -5207.50942319744, -2288.4163008232476, -10764.376612231328, -1044.0946869963036, 12.24875596150827, -5893.082129130617, -1827.6350888770926, -2161.9724824395757, -6825.373390361476, -4657.1200677299585, -3470.7788790200807, -4463.173981091259, -3107.4289211546093, -10135.510281981264, -14694.059156663317, 0.014, -0.106, 0.986, 192.0, 0.0, 0.0, 0.0, 0.0, 0.0, 0.0, 0.0, 0.0, 0.0, 1.645921331228671E9, 0.0, 2022-02-27 11:22:11.228
116.0, -1768.0229864147886, -4993.5808770156955, -2140.6489182292125, -10596.917342772167, -812.1953382724928, 166.58755142540355, -5894.646751242489, -1881.9274761590334, -3720.492568074771, -7001.371026202563, -4422.046771293494, -3513.5601179075384, -4178.882143364209, -2953.2912913908117, -10304.109490407645, -15115.814222790506, 0.014, -0.10400000000000001, 0.986, 192.0, 0.0, 56.0, 126.0, 96.0, 15.0, 104.0, 0.0, 0.0, 0.0, 1.64592133123668E9, 0.0, 2022-02-27 11:22:11.236
118.0, -2293.847774725887, -5376.913294424212, -2470.784183834098, -10984.004853249175, -1288.6004195929074, -184.5136504785598, -6051.310128129737, -2067.3798999047162, -3531.9109001053457, -7358.55190259837, -4724.890556918449, -3612.4889388667275, -4491.203068638214, -3230.7658470589936, -10405.608761979194, -15366.399629878955, 0.014, -0.10400000000000001, 0.986, 192.0, 0.0, 0.0, 0.0, 0.0, 0.0, 0.0, 0.0, 0.0, 0.0, 1.645921331243258E9, 0.0, 2022-02-27 11:22:11.243
120.0, -1750.7003844619258, -4968.904551137037, -2098.0464932973973, -10557.064182408356, -786.8931635490851, 185.87710689033352, -5795.4050058609255, -1747.302919304719, -2369.1955052847275, -6617.7703878605835, -4475.780364964052, -3420.3309917844526, -4292.5407639194445, -2977.8111550582835, -10107.302380478666, -14610.307170189282, 0.014, -0.10400000000000001, 0.986, 192.0, 0.0, 0.0, 0.0, 0.0, 0.0, 0.0, 0.0, 0.0, 0.0, 1.645921331251228E9, 0.0, 2022-02-27 11:22:11.251
122.0, -2129.741266935023, -5260.080726156321, -2396.5763922424785, -10904.410291243827, -1151.6289295707859, -109.23297515308562, -6085.39653842408, -2112.776292893445, -4535.012487770616, -7449.814075209389, -4534.699563348242, -3614.902927267901, -4262.678833327154, -3112.9274502906146, -10496.222734001009, -15624.808147526759, 0.014, -0.10400000000000001, 0.986, 192.0, 0.0, 0.0, 0.0, 0.0, 0.0, 0.0, 0.0, 0.0, 0.0, 1.645921331258417E9, 0.0, 2022-02-27 11:22:11.258
124.0, -2060.1155829567415, -5197.6746556371045, -2283.2530478540716, -10775.41837399225, -1062.3560622162893, 14.103950751298756, -5889.036463384207, -1826.428094676506, -2163.8500289738213, -6823.853471738515, -4645.63127107993, -3464.766259761603, -4464.649196225309, -3110.133482233701, -10139.332430283122, -14706.553781813835, 0.014, -0.10400000000000001, 0.986, 192.0, 0.0, 0.0, 0.0, 0.0, 0.0, 0.0, 0.0, 0.0, 0.0, 1.645921331266577E9, 0.0, 2022-02-27 11:22:11.266
126.0, -1752.7120414629032, -4974.291321550765, -2132.2670140584723, -10596.559714860883, -813.3129254952581, 160.61963565583656, -5891.562210507657, -1854.6359961791036, -3685.623846724492, -6995.827793577647, -4419.744541614597, -3515.057684786044, -4177.988073585996, -2970.2562654323897, -10299.75090023886, -15102.157306928315, 0.014, -0.10200000000000001, 0.988, 192.0, 0.0, 56.0, 126.0, 104.0, 15.0, 112.0, 0.0, 0.0, 0.0, 1.645921331272886E9, 0.0, 2022-02-27 11:22:11.272
128.0, -2284.92942868822, -5365.558608240915, -2467.2079047212487, -10987.961112017765, -1289.0921579709243, -186.6817696907246, -6037.161473889527, -2043.999975204465, -3552.452153259773, -7373.974606272532, -4723.325934806578, -3615.282906923641, -4482.1953156227255, -3241.6064431198174, -10405.988741634936, -15373.954519504849, 0.014, -0.10200000000000001, 0.988, 192.0, 0.0, 0.0, 0.0, 0.0, 0.0, 0.0, 0.0, 0.0, 0.0, 1.645921331280853E9, 0.0, 2022-02-27 11:22:11.280
130.0, -1749.2922245612413, -4963.093097578657, -2102.673304399646, -10555.700725996581, -800.7959486002861, 191.86737440435581, -5803.317523398105, -1720.8384538696355, -2370.4472029742246, -6631.9190421007925, -4476.74148997563, -3425.2260238201648, -4291.624342396777, -2982.862649305183, -10106.385958956, -14606.037986998319, 0.014, -0.10200000000000001, 0.988, 192.0, 0.0, 0.0, 0.0, 0.0, 0.0, 0.0, 0.0, 0.0, 0.0, 1.645921331288998E9, 0.0, 2022-02-27 11:22:11.288
132.0, -2122.2981360314056, -5245.954423660568, -2394.5200317525905, -10900.901067364344, -1163.3188919209115, -102.25923088302982, -6083.250770956371, -2100.6169439097575, -4551.731592623186, -7443.868511184277, -4546.054249531538, -3626.7717035736687, -4273.944112532629, -3113.821520068827, -10501.989484070478, -15615.442766599986, 0.014, -0.10200000000000001, 0.988, 192.0, 0.0, 0.0, 0.0, 0.0, 0.0, 0.0, 0.0, 0.0, 0.0, 1.645921331295967E9, 0.0, 2022-02-27 11:22:11.295
134.0, -2044.9387484715878, -5180.173239728599, -2283.0071786650633, -10773.674937924736, -1069.7768413754513, -1.050531989399432, -5878.531143490212, -1832.7536383573579, -2180.0997471928295, -6828.882614240959, -4651.196855449302, -3468.409594107818, -4469.901856172306, -3127.0537527863685, -10139.466540749854, -14718.154337186139, 0.014, -0.10200000000000001, 0.988, 192.0, 0.0, 0.0, 0.0, 0.0, 0.0, 0.0, 0.0, 0.0, 0.0, 1.645921331303551E9, 0.0, 2022-02-27 11:22:11.303
136.0, -1737.110523833099, -4959.8297428881815, -2121.8511011422993, -10584.780345532936, -810.0719225492386, 162.9442170791885, -5890.35521630707, -1859.5757317037264, -3662.53449470216, -6975.644168334505, -4411.20617523267, -3495.9245915323013, -4174.903532851164, -2964.601274085197, -10292.17365886851, -15095.429431847268, 0.01, -0.10400000000000001, 0.986, 192.0, 0.0, 40.0, 126.0, 96.0, 15.0, 104.0, 0.0, 0.0, 0.0, 1.645921331311614E9, 0.0, 2022-02-27 11:22:11.311
138.0, -2295.5465073044907, -5371.68298622167, -2469.398375677869, -10988.408146906871, -1292.0202364945694, -175.95293235217719, -6049.298471128759, -2063.8483242807774, -3620.401456403906, -7380.3225016978395, -4722.655382472919, -3611.706627810792, -4470.818277694974, -3229.134169713756, -10413.543631260829, -15392.595874380575, 0.01, -0.10400000000000001, 0.986, 192.0, 0.0, 0.0, 0.0, 0.0, 0.0, 0.0, 0.0, 0.0, 0.0, 1.645921331318684E9, 0.0, 2022-02-27 11:22:11.318
140.0, -1771.5322102942719, -4990.2281153474, -2106.897784101699, -10561.0427929214, -801.2653352338476, 186.23473480161846, -5803.898668753943, -1733.3554307646075, -2335.109094990384, -6617.88214658286, -4499.093234430938, -3424.577823230961, -4303.828394869375, -2996.6760273785626, -10099.971008297325, -14591.50935310237, 0.01, -0.10400000000000001, 0.986, 192.0, 0.0, 0.0, 0.0, 0.0, 0.0, 0.0, 0.0, 0.0, 0.0, 1.645921331333214E9, 0.0, 2022-02-27 11:22:11.333
142.0, -2123.795702909911, -5256.415040065652, -2394.721197452688, -10896.855401617933, -1143.7164120336072, -97.85593722533432, -6060.854323012152, -2103.2320980110285, -4559.040613060071, -7460.006470681009, -4551.083392033982, -3630.6832588533475, -4262.969406005073, -3113.687409602095, -10489.897190320158, -15600.444746070474, 0.01, -0.10400000000000001, 0.986, 192.0, 0.0, 0.0, 0.0, 0.0, 0.0, 0.0, 0.0, 0.0, 0.0, 1.645921331341341E9, 0.0, 2022-02-27 11:22:11.341
144.0, -2076.700577342579, -5213.164414544633, -2309.985734222619, -10792.964493389665, -1082.562039203887, -8.247793704008306, -5895.40671055397, -1822.1589114855424, -2221.808102346433, -6864.8912745584585, -4673.034509782137, -3490.3366554184745, -4477.680263242753, -3142.141180293701, -10148.876625165538, -14729.620782091712, 0.01, -0.10400000000000001, 0.986, 192.0, 0.0, 0.0, 0.0, 0.0, 0.0, 0.0, 0.0, 0.0, 0.0, 1.645921331348474E9, 0.0, 2022-02-27 11:22:11.348
146.0, -1738.5410354782387, -4965.216513301911, -2137.6761362166567, -10586.769650789458, -800.572431155733, 165.96170258065493, -5865.030689839207, -1849.808019376757, -3631.174997231364, -6962.881322250524, -4429.3110882414685, -3511.9731440512114, -4186.928771368119, -2969.339843909722, -10290.050243145257, -15063.533492509545, 0.014, -0.10200000000000001, 0.99, 192.0, 0.0, 56.0, 126.0, 104.0, 15.0, 120.0, 0.0, 0.0, 0.0, 1.645921331355786E9, 0.0, 2022-02-27 11:22:11.355
148.0, -2283.342454831893, -5365.6703669631925, -2483.5023264291676, -10994.778394076633, -1285.7617480470835, -172.7789846395236, -6034.412209321525, -2046.1457426721745, -3648.3187852285846, -7382.22239997654, -4724.644687729441, -3619.6414970924257, -4474.2157428521805, -3237.8960535402366, -10416.650523740116, -15401.402461695965, 0.014, -0.10200000000000001, 0.99, 192.0, 0.0, 0.0, 0.0, 0.0, 0.0, 0.0, 0.0, 0.0, 0.0, 1.645921331363838E9, 0.0, 2022-02-27 11:22:11.363
150.0, -1784.138594167065, -5000.666380008028, -2119.6829819301347, -10569.625862792238, -802.8299573457191, 178.00929284206543, -5802.132880941973, -1725.3311545051522, -2339.1324089923396, -6651.141542332357, -4501.060187943004, -3438.391201304341, -4306.287086759458, -2993.502079665909, -10093.37724368301, -14588.201294922985, 0.014, -0.10200000000000001, 0.99, 192.0, 0.0, 0.0, 0.0, 0.0, 0.0, 0.0, 0.0, 0.0, 0.0, 1.645921331371788E9, 0.0, 2022-02-27 11:22:11.371
152.0, -2115.614964439269, -5247.0943626277885, -2397.2245928316825, -10893.904971349833, -1136.1838741521685, -84.1543178742311, -6074.622997596622, -2080.612132622258, -4565.209694529735, -7447.578900763858, -4546.545987909554, -3632.180825731853, -4263.46114438309, -3102.399778652165, -10489.494858919961, -15598.14251639158, 0.014, -0.10200000000000001, 0.99, 192.0, 0.0, 0.0, 0.0, 0.0, 0.0, 0.0, 0.0, 0.0, 0.0, 1.645921331378482E9, 0.0, 2022-02-27 11:22:11.378
154.0, -2085.50716465797, -5217.612411691238, -2315.7077808031777, -10805.347359817906, -1079.3210362578675, -7.711351837080937, -5871.669157942433, -1844.622414663126, -2245.1209718133177, -6860.577387878584, -4681.192896508324, -3501.221954968209, -4481.949446433717, -3138.6766599031284, -10149.033087376725, -14739.455549652046, 0.014, -0.10200000000000001, 0.99, 192.0, 0.0, 0.0, 0.0, 0.0, 0.0, 0.0, 0.0, 0.0, 0.0, 1.645921331385646E9, 0.0, 2022-02-27 11:22:11.385
156.0, -1748.4428582719397, -4974.917170395514, -2136.4914937605254, -10591.508220613983, -792.3469891961801, 181.09383357689782, -5866.952939862364, -1835.9946413033774, -3621.496691882216, -6961.4508106053845, -4438.810579634975, -3522.7466848786694, -4187.666378935144, -2969.898637521105, -10278.27087381731, -15060.22543433016, 0.016, -0.10400000000000001, 0.988, 192.0, 0.0, 64.0, 126.0, 96.0, 15.0, 112.0, 0.0, 0.0, 0.0, 1.6459213313935E9, 0.0, 2022-02-27 11:22:11.393
158.0, -2303.1684521637503, -5375.8851141792675, -2493.8735358564304, -10998.421728422849, -1291.2379254386337, -176.51172596355988, -6050.080782184695, -2049.923187485121, -3707.103873146042, -7417.7169701715675, -4742.615490271508, -3644.6754508823697, -4481.949446433717, -3238.9465855296357, -10420.696189486527, -15413.315941490644, 0.016, -0.10400000000000001, 0.988, 192.0, 0.0, 0.0, 0.0, 0.0, 0.0, 0.0, 0.0, 0.0, 0.0, 1.645921331401562E9, 0.0, 2022-02-27 11:22:11.401
160.0, -1781.881067977079, -4993.6926357379725, -2130.2330053130395, -10574.878522739235, -809.155501026571, 182.32317952193972, -5802.334046642071, -1738.496331989328, -2341.412286926781, -6639.2504142821335, -4512.593688081943, -3449.835294465458, -4309.483386216568, -2980.2251434594564, -10098.607551885552, -14581.115791930652, 0.016, -0.10400000000000001, 0.988, 192.0, 0.0, 0.0, 0.0, 0.0, 0.0, 0.0, 0.0, 0.0, 0.0, 1.645921331408058E9, 0.0, 2022-02-27 11:22:11.408
162.0, -2109.244717269506, -5242.467551525539, -2399.884450421864, -10888.518200936103, -1132.4064293392216, -80.73450097256911, -6069.571503349723, -2088.278780970428, -4579.33599702549, -7440.158121604696, -4554.458505446733, -3643.9601950598, -4263.08116472735, -3088.8993250011595, -10491.55121940985, -15592.88985644458, 0.016, -0.10400000000000001, 0.988, 192.0, 0.0, 0.0, 0.0, 0.0, 0.0, 0.0, 0.0, 0.0, 0.0, 1.645921331416057E9, 0.0, 2022-02-27 11:22:11.416
164.0, -2086.021254780442, -5205.877745852202, -2322.882690773331, -10807.962513919178, -1086.4065392501998, -10.684133849636776, -5914.137472407517, -1837.715725626436, -2261.6165592213347, -6861.918492545902, -4681.841097097528, -3503.546536391561, -4483.491716801133, -3134.6980493900837, -10158.77844795924, -14755.548805659868, 0.014, -0.10500000000000001, 0.987, 192.0, 0.0, 48.0, 126.0, 88.0, 15.0, 104.0, 0.0, 0.0, 0.0, 1.6459213314242E9, 0.0, 2022-02-27 11:22:11.424
166.0, -1731.1202563190766, -4956.141705053056, -2127.796665167411, -10582.679281554138, -784.4344716590014, 187.46408074666033, -5876.966521378341, -1826.3163359542295, -3577.217886116253, -6940.417819072941, -4425.935974828717, -3501.8478038129574, -4183.01721608844, -2954.185361169024, -10276.974472638902, -15041.047637587506, 0.014, -0.10500000000000001, 0.987, 192.0, 0.0, 0.0, 0.0, 0.0, 0.0, 0.0, 0.0, 0.0, 0.0, 1.645921331430681E9, 0.0, 2022-02-27 11:22:11.430
168.0, -2298.5863445504124, -5375.594541501348, -2491.079567799517, -11005.75310060419, -1282.3419311454215, -170.16383053825265, -6036.088590155672, -2054.6394055651913, -3729.9026524904557, -7419.572164961358, -4723.817673184594, -3646.307128227607, -4472.248789340114, -3219.165291686689, -10423.244288354432, -15426.525822463731, 0.014, -0.10500000000000001, 0.987, 192.0, 0.0, 0.0, 0.0, 0.0, 0.0, 0.0, 0.0, 0.0, 0.0, 1.645921331438682E9, 0.0, 2022-02-27 11:22:11.438
170.0, -1781.4563848324283, -4986.607132745639, -2121.225252297551, -10576.420793106652, -804.5510416687778, 186.19003131270784, -5788.252447635227, -1704.6557908839932, -2303.660190541767, -6620.519652428586, -4499.249696642125, -3437.5641867594945, -4300.140357034249, -2980.403957415099, -10087.386976168988, -14577.383050606615, 0.014, -0.10500000000000001, 0.987, 192.0, 0.0, 0.0, 0.0, 0.0, 0.0, 0.0, 0.0, 0.0, 0.0, 1.645921331453781E9, 0.0, 2022-02-27 11:22:11.453
172.0, -2084.0095977794645, -5219.3334960142965, -2378.8738106338756, -10878.079936275475, -1113.2286325965683, -65.4906112540497, -6052.427715352502, -2059.1321062007078, -4546.948319309749, -7406.27287701045, -4527.859929544918, -3630.52679664216, -4234.716801013566, -3074.348339360755, -10483.750460594949, -15579.23294058239, 0.014, -0.10500000000000001, 0.987, 192.0, 0.0, 0.0, 0.0, 0.0, 0.0, 0.0, 0.0, 0.0, 0.0, 1.645921331460377E9, 0.0, 2022-02-27 11:22:11.460
174.0, -2079.159269232663, -5203.530812684395, -2307.3482283768926, -10805.436766795727, -1076.7952891344178, -9.387732671228965, -5902.02282691274, -1832.843045335179, -2265.5951697343794, -6863.3043007021315, -4676.2531609837015, -3502.0489695130555, -4474.88629518584, -3128.2607469869554, -10156.945604913904, -14762.768419118933, 0.012, -0.10650000000000001, 0.9875, 192.0, 0.0, 40.0, 126.0, 80.0, 15.0, 112.0, 0.0, 0.0, 0.0, 1.645921331468361E9, 0.0, 2022-02-27 11:22:11.468
176.0, -1714.848186355613, -4954.800600385738, -2110.0717318143525, -10568.441220336106, -773.6162273426328, 185.67594119023576, -5856.469971712825, -1813.2405654478748, -3526.725295391714, -6902.866888388025, -4401.214945461148, -3493.0412164975664, -4175.752899140465, -2951.01141345637, -10269.441934757464, -15030.4976142046, 0.012, -0.10650000000000001, 0.9875, 192.0, 0.0, 0.0, 0.0, 0.0, 0.0, 0.0, 0.0, 0.0, 0.0, 1.645921331476458E9, 0.0, 2022-02-27 11:22:11.476
178.0, -2286.4269955667255, -5373.627587989282, -2468.6384163663884, -10992.073832997541, -1277.5586578319858, -173.1366125508085, -6041.117732658116, -2048.9173589846323, -3749.7733533112237, -7427.842310409822, -4697.017931582682, -3617.6521918359035, -4456.446106010211, -3210.6492770492173, -10427.066436656289, -15442.350857538087, 0.012, -0.10650000000000001, 0.9875, 192.0, 0.0, 0.0, 0.0, 0.0, 0.0, 0.0, 0.0, 0.0, 0.0, 1.645921331483531E9, 0.0, 2022-02-27 11:22:11.483
180.0, -1770.660492260515, -4988.08234787969, -2111.8151678818667, -10572.732755271525, -805.0651317912498, 184.89363013430003, -5793.974494215786, -1704.8793083285461, -2248.9431201151756, -6618.97738206117, -4484.586952279443, -3422.6779249522597, -4305.191851281149, -2974.011358500881, -10087.878714547005, -14573.35973660466, 0.012, -0.10650000000000001, 0.9875, 192.0, 0.0, 0.0, 0.0, 0.0, 0.0, 0.0, 0.0, 0.0, 0.0, 1.645921331490937E9, 0.0, 2022-02-27 11:22:11.490
182.0, -2071.6937865845903, -5202.972019073012, -2369.9107611072973, -10856.599909853925, -1100.5998969793197, -48.61504419029286, -6047.6891455279765, -2049.0961729402748, -4528.910461534317, -7391.632484392225, -4512.638391570854, -3608.756197542691, -4235.297946369404, -3061.943121188059, -10481.761155338425, -15570.783981178283, 0.012, -0.10650000000000001, 0.9875, 192.0, 0.0, 0.0, 0.0, 0.0, 0.0, 0.0, 0.0, 0.0, 0.0, 1.645921331499034E9, 0.0, 2022-02-27 11:22:11.499
184.0, -2087.5188216589477, -5214.438463978585, -2321.183958194728, -10802.41928129426, -1089.1334520737473, -8.024276259455236, -5903.006303668774, -1840.3755832166175, -2283.923600187731, -6868.244036226754, -4666.753669590195, -3491.543649619061, -4478.1496498763145, -3130.1606452656565, -10168.143828886012, -14772.379669234715, 0.012, -0.10525000000000001, 0.98675, 192.0, 0.0, 48.0, 126.0, 96.0, 15.0, 104.0, 0.0, 0.0, 0.0, 1.64592133150594E9, 0.0, 2022-02-27 11:22:11.505
186.0, -1716.591622423127, -4940.830760101171, -2111.390484737216, -10561.467476066051, -764.0496807157613, 202.77502569854568, -5864.963634605841, -1794.107472194132, -3471.315320887008, -6896.340179007075, -4403.293657695492, -3476.6573878118265, -4179.8432683757865, -2934.314660348256, -10261.015327097813, -15000.92625629023, 0.012, -0.10525000000000001, 0.98675, 192.0, 0.0, 0.0, 0.0, 0.0, 0.0, 0.0, 0.0, 0.0, 0.0, 1.645921331513077E9, 0.0, 2022-02-27 11:22:11.513
188.0, -2284.705911243667, -5363.30108205093, -2479.747233360676, -11002.780318591633, -1279.2126869216786, -165.46996420263818, -6052.628881052599, -2066.21760919304, -3796.309685267173, -7415.258278281484, -4702.762329907695, -3649.481075940261, -4457.0719548549605, -3216.013695718491, -10434.73308500446, -15457.080657134136, 0.012, -0.10525000000000001, 0.98675, 192.0, 0.0, 0.0, 0.0, 0.0, 0.0, 0.0, 0.0, 0.0, 0.0, 1.645921331520629E9, 0.0, 2022-02-27 11:22:11.520
190.0, -1777.500126063839, -4997.559487528741, -2123.147502320707, -10574.632653550227, -818.7443993978977, 193.18612732721894, -5794.220363404795, -1708.9249740749567, -2237.789599631977, -6597.363245172888, -4483.223495867669, -3415.5700702154722, -4315.9653921086065, -2983.756719083395, -10087.118755235524, -14574.522027316336, 0.012, -0.10525000000000001, 0.98675, 192.0, 0.0, 0.0, 0.0, 0.0, 0.0, 0.0, 0.0, 0.0, 0.0, 1.645921331528526E9, 0.0, 2022-02-27 11:22:11.528
192.0, -2059.2662166674395, -5206.369484230218, -2362.0429470590293, -10851.77193305158, -1104.109120858803, -39.450828963616964, -6044.582253048689, -2066.418774893138, -4526.1611969663145, -7379.69665285309, -4501.484871087655, -3584.571610042049, -4245.088010440828, -3065.631159023185, -10482.0740797608, -15568.481751499387, 0.012, -0.10525000000000001, 0.98675, 192.0, 0.0, 0.0, 0.0, 0.0, 0.0, 0.0, 0.0, 0.0, 0.0, 1.645921331536618E9, 0.0, 2022-02-27 11:22:11.536
194.0, -2086.803565836378, -5205.542469685372, -2317.1382924483173, -10811.292923843017, -1095.5260509879652, -8.806587315390983, -5889.148222106483, -1842.4319437065058, -2301.961457963164, -6897.189545296377, -4665.434916667333, -3484.413443137818, -4485.928056946762, -3134.340421478799, -10169.127305642045, -14787.757669419965, 0.011, -0.10362500000000001, 0.985375, 192.0, 0.0, 40.0, 126.0, 104.0, 15.0, 96.0, 0.0, 0.0, 0.0, 1.645921331543203E9, 0.0, 2022-02-27 11:22:11.543
196.0, -1694.0834157566328, -4933.901719320026, -2095.900725829688, -10554.158455629165, -763.4908871043787, 206.23954608911828, -5859.39805023647, -1813.106454981143, -3443.2415298511423, -6878.928170076391, -4395.515250625044, -3487.7438530616587, -4178.993902086485, -2937.578015038731, -10255.159170050523, -14994.041918997995, 0.011, -0.10362500000000001, 0.985375, 192.0, 0.0, 0.0, 0.0, 0.0, 0.0, 0.0, 0.0, 0.0, 0.0, 1.645921331551339E9, 0.0, 2022-02-27 11:22:11.551
198.0, -2272.5018587710692, -5362.049384361432, -2477.2438379816817, -10990.062175996563, -1285.8958585138153, -160.4408217001941, -6075.829991797208, -2068.899818527677, -3805.697417938402, -7427.171758076162, -4683.137498275936, -3592.9088107238786, -4454.009765864583, -3206.1118729247896, -10443.316154875298, -15465.641375260519, 0.011, -0.10362500000000001, 0.985375, 192.0, 0.0, 0.0, 0.0, 0.0, 0.0, 0.0, 0.0, 0.0, 0.0, 1.645921331559292E9, 0.0, 2022-02-27 11:22:11.559
200.0, -1767.9559311814228, -4982.673225721505, -2123.3263162763496, -10576.890179740212, -823.9076523670736, 190.97330462614354, -5818.404950905437, -1707.5168141742724, -2223.8421110918657, -6592.915248026282, -4483.111737145393, -3414.7207039261707, -4324.2355375570705, -2972.133811966635, -10097.42290942942, -14565.648384767579, 0.011, -0.10362500000000001, 0.985375, 192.0, 0.0, 0.0, 0.0, 0.0, 0.0, 0.0, 0.0, 0.0, 0.0, 1.645921331565848E9, 0.0, 2022-02-27 11:22:11.565
202.0, -2030.8795012091998, -5190.812670089325, -2352.722269621166, -10845.021706226076, -1092.687379442141, -36.992137073533186, -6074.846515041175, -2056.3157863993392, -4510.738493292152, -7349.141818182686, -4497.193336152236, -3596.015703203166, -4237.734286515032, -3055.6175775072074, -10485.270379217909, -15563.139684574568, 0.011, -0.10362500000000001, 0.985375, 192.0, 0.0, 0.0, 0.0, 0.0, 0.0, 0.0, 0.0, 0.0, 0.0, 1.645921331581004E9, 0.0, 2022-02-27 11:22:11.581
204.0, -2071.6937865845903, -5199.686312638082, -2323.5532431069905, -10818.71370300218, -1106.6348679822527, -15.981497285544549, -5915.009190441274, -1866.9741591184331, -2309.7175132891552, -6879.799888110148, -4677.303692973101, -3494.181155464787, -4497.483908830155, -3130.42886619912, -10181.10784067009, -14801.92867540463, 0.0125, -0.0998125, 0.9836875, 192.0, 0.0, 56.0, 126.5, 0.0, 15.0, 88.0, 0.0, 0.0, 0.0, 1.645921331588872E9, 0.0, 2022-02-27 11:22:11.588
206.0, -1689.7024738433927, -4927.68793436145, -2090.670417627146, -10556.974775430534, -768.3859191400909, 207.9382786677216, -5886.30955056066, -1805.1939374439644, -3404.5953636879167, -6817.662038524394, -4397.39279715929, -3492.415367652818, -4186.1241085677275, -2924.3681340656444, -10254.153341550034, -14989.34805266238, 0.0125, -0.0998125, 0.9836875, 192.0, 0.0, 0.0, 0.0, 0.0, 0.0, 0.0, 0.0, 0.0, 0.0, 1.645921331595467E9, 0.0, 2022-02-27 11:22:11.595
208.0, -2271.1384023592955, -5359.322471537885, -2473.7569658466537, -11001.059234268574, -1292.5119748725863, -166.83342061441192, -6077.215799953437, -2072.900780785177, -3841.1472846445185, -7442.147426861218, -4682.69046338683, -3606.766892286169, -4457.78721067753, -3188.1187186382676, -10448.524111333385, -15482.82986674665, 0.0125, -0.0998125, 0.9836875, 192.0, 0.0, 0.0, 0.0, 0.0, 0.0, 0.0, 0.0, 0.0, 0.0, 1.645921331603522E9, 0.0, 2022-02-27 11:22:11.603
210.0, -1757.338852565152, -4966.334100524677, -2114.7208946610567, -10590.658854324682, -824.3546872561798, 172.19783928368562, -5812.504090369236, -1724.9958783383227, -2191.342674653849, -6569.356509370388, -4499.137937919848, -3406.316448010975, -4327.454188758635, -2979.5545911257973, -10084.145973222969, -14577.964195962453, 0.0125, -0.0998125, 0.9836875, 192.0, 0.0, 0.0, 0.0, 0.0, 0.0, 0.0, 0.0, 0.0, 0.0, 1.645921331611545E9, 0.0, 2022-02-27 11:22:11.611
212.0, -2050.861960752244, -5208.604658675749, -2337.076048502451, -10842.853587013911, -1084.2831235269457, -39.20495977460859, -6062.843628268675, -2057.5898358332915, -4501.753092021119, -7301.264381559418, -4489.392577337334, -3599.4355201048284, -4232.928661457141, -3056.7351647299724, -10463.633890585172, -15566.313632287221, 0.0125, -0.0998125, 0.9836875, 192.0, 0.0, 0.0, 0.0, 0.0, 0.0, 0.0, 0.0, 0.0, 0.0, 1.645921331618766E9, 0.0, 2022-02-27 11:22:11.618
214.0, -2093.0397025394086, -5246.669679483138, -2322.6144698398675, -10819.80893848049, -1119.4200658106884, -16.853215319301526, -5934.835187773131, -1848.9363013430002, -2340.8087898264876, -6911.315847792131, -4666.954835290294, -3463.0451754385444, -4500.233173398158, -3133.2898894893992, -10178.738555757827, -14823.766329737466, 0.01425, -0.10190625, 0.98384375, 192.0, 0.0, 64.0, 126.0, 96.0, 15.0, 96.0, 0.0, 0.0, 0.0, 1.645921331626192E9, 0.0, 2022-02-27 11:22:11.626
216.0, -1712.4565496988953, -4957.169885298001, -2087.451766425582, -10545.240109591497, -770.2411139298814, 198.0811593629312, -5872.853800398565, -1800.2318501748862, -3390.1337850253326, -6860.0185942672015, -4396.006989003061, -3441.095762383433, -4203.40200703168, -2933.353535336678, -10246.397286224043, -14978.529808346011, 0.01425, -0.10190625, 0.98384375, 192.0, 0.0, 0.0, 0.0, 0.0, 0.0, 0.0, 0.0, 0.0, 0.0, 1.645921331633299E9, 0.0, 2022-02-27 11:22:11.633
218.0, -2287.4998793005802, -5373.962864156111, -2475.3662914474357, -10995.314835943562, -1290.455614382698, -178.97041785364365, -6087.139974491593, -2063.4459928805823, -3895.596134137647, -7419.661571939179, -4677.817783095573, -3594.786357258124, -4460.558826989988, -3219.1429399422336, -10452.346259635242, -15501.873553022571, 0.01425, -0.10190625, 0.98384375, 192.0, 0.0, 0.0, 0.0, 0.0, 0.0, 0.0, 0.0, 0.0, 0.0, 1.645921331641177E9, 0.0, 2022-02-27 11:22:11.641
220.0, -1786.8878587350678, -4992.910324682036, -2122.4993017315032, -10591.217647936064, -833.4965507384004, 181.92084812174417, -5804.0327792206745, -1721.5537096922053, -2196.14829971174, -6602.995884775625, -4488.096176158926, -3402.002561331101, -4338.183026097182, -2966.4788206194426, -10088.303397691656, -14573.851474982677, 0.01425, -0.10190625, 0.98384375, 192.0, 0.0, 0.0, 0.0, 0.0, 0.0, 0.0, 0.0, 0.0, 0.0, 1.645921331648368E9, 0.0, 2022-02-27 11:22:11.648
222.0, -2024.509254039437, -5188.957475299535, -2335.7125920906774, -10827.788511251034, -1074.4260042221551, -43.116515054287326, -6046.906834472041, -2043.128257170708, -4501.753092021119, -7346.012573958943, -4487.045644169527, -3566.46669703325, -4238.158969659683, -3037.825588920783, -10472.507533133929, -15558.244652538855, 0.01425, -0.10190625, 0.98384375, 192.0, 0.0, 0.0, 0.0, 0.0, 0.0, 0.0, 0.0, 0.0, 0.0, 1.645921331655762E9, 0.0, 2022-02-27 11:22:11.655
224.0, -2095.230173496029, -5230.643478708682, -2326.1683972082615, -10820.993580936622, -1112.848652940828, -26.509168923994178, -5931.907109249486, -1854.8371618792012, -2363.764031382088, -6889.858173115036, -4668.966492291271, -3449.3212043429858, -4498.55679256401, -3135.3909534681984, -10185.220561649867, -14840.999524712506, 0.012125, -0.10395312500000001, 0.9839218750000001, 192.0, 0.0, 40.0, 126.0, 88.0, 15.0, 96.0, 0.0, 0.0, 0.0, 1.645921331663841E9, 0.0, 2022-02-27 11:22:11.663
226.0, -1679.1524504604877, -4920.423617413476, -2088.904629815177, -10544.301336324375, -755.2877968892809, 220.81288347397847, -5877.458259756358, -1798.555469340738, -3355.801505541981, -6829.709628785805, -4394.397663402279, -3430.5010355116174, -4191.6896929371, -2910.6441629700857, -10243.31274548921, -14968.493875085578, 0.012125, -0.10395312500000001, 0.9839218750000001, 192.0, 0.0, 0.0, 0.0, 0.0, 0.0, 0.0, 0.0, 0.0, 0.0, 1.645921331670889E9, 0.0, 2022-02-27 11:22:11.670
228.0, -2269.30555931396, -5357.891959892745, -2478.473183926724, -10998.958170289776, -1298.323428430966, -170.11912704934204, -6095.611285640155, -2084.74720534649, -3907.017875554309, -7397.868621095255, -4677.236637739735, -3584.3257408530408, -4446.767800661064, -3196.4782710645522, -10458.135361449165, -15512.35652117211, 0.012125, -0.10395312500000001, 0.9839218750000001, 192.0, 0.0, 0.0, 0.0, 0.0, 0.0, 0.0, 0.0, 0.0, 0.0, 1.64592133167837E9, 0.0, 2022-02-27 11:22:11.678
230.0, -1792.8334227601795, -5002.767443986827, -2134.0328018704417, -10596.04562473841, -846.3935072891126, 169.11329854885324, -5809.844232779054, -1708.209718252387, -2179.160973925707, -6547.876482948838, -4499.562621064499, -3381.126032009844, -4348.442476802168, -2978.8169835587723, -10090.493868648276, -14570.364602847649, 0.012125, -0.10395312500000001, 0.9839218750000001, 192.0, 0.0, 0.0, 0.0, 0.0, 0.0, 0.0, 0.0, 0.0, 0.0, 1.645921331686474E9, 0.0, 2022-02-27 11:22:11.686
232.0, -2018.0943033807641, -5188.130460754688, -2339.6464991148114, -10828.392008351328, -1073.1296030437475, -23.4246281891618, -6044.023459437306, -2030.2536523644512, -4488.230286625658, -7330.768684240424, -4483.26819935658, -3551.155752081365, -4236.907271970185, -3048.7108884705176, -10468.30540517633, -15549.41571347901, 0.012125, -0.10395312500000001, 0.9839218750000001, 192.0, 0.0, 0.0, 0.0, 0.0, 0.0, 0.0, 0.0, 0.0, 0.0, 1.6459213317006E9, 0.0, 2022-02-27 11:22:11.700
234.0, -2118.4983394740034, -5250.313013829353, -2343.5133509055795, -10841.445427113227, -1127.8019699814286, -33.818189360879586, -5933.091751705618, -1855.1500863015756, -2398.14101435435, -6911.695827447871, -4683.696291887319, -3463.469858583195, -4516.5946503394425, -3144.2645960169552, -10197.02228272227, -14858.232719687549, 0.012, -0.11, 0.982, 192.0, 0.0, 48.0, 126.0, 72.0, 15.0, 88.0, 0.0, 0.0, 0.0, 1.645921331708561E9, 0.0, 2022-02-27 11:22:11.708
236.0, -1681.2088109503761, -4929.140797751045, -2086.3341792028164, -10543.89900492418, -747.9787764523956, 221.84106371892258, -5876.988873122797, -1783.6021523001377, -3324.5984702823725, -6819.897212969925, -4403.5395268844995, -3433.317355312986, -4203.02202737594, -2920.791854952795, -10240.764646621305, -14954.993421434572, 0.012, -0.11, 0.982, 192.0, 0.0, 0.0, 0.0, 0.0, 0.0, 0.0, 0.0, 0.0, 0.0, 1.645921331716022E9, 0.0, 2022-02-27 11:22:11.716
238.0, -2276.92750417322, -5370.431288532172, -2477.6461693818774, -11000.478088912736, -1285.8288032804494, -166.3863857253058, -6055.914587487529, -2050.996071218976, -3955.5658645112358, -7416.264106781973, -4683.383367464944, -3590.159546155876, -4451.886350141329, -3193.5054890519964, -10458.045954471345, -15517.698588096928, 0.012, -0.11, 0.982, 192.0, 0.0, 0.0, 0.0, 0.0, 0.0, 0.0, 0.0, 0.0, 0.0, 1.645921331724139E9, 0.0, 2022-02-27 11:22:11.724
240.0, -1797.5049373513386, -5007.573069044718, -2124.6897726881234, -10594.324540415351, -834.9494141279953, 173.4495369731828, -5786.441956334348, -1713.5964886661159, -2169.6838342766564, -6575.704404795695, -4507.765711279597, -3373.7276045951376, -4352.197569870659, -2979.375777170155, -10075.629958585496, -14562.7873614773, 0.012, -0.11, 0.982, 192.0, 0.0, 0.0, 0.0, 0.0, 0.0, 0.0, 0.0, 0.0, 0.0, 1.64592133173068E9, 0.0, 2022-02-27 11:22:11.730
242.0, -2009.06419862082, -5180.329701939786, -2322.860339028876, -10814.310409344484, -1049.6155678767643, -8.940697782122825, -6034.501616299345, -2018.317820825317, -4473.969873663173, -7306.472338017505, -4480.608341766399, -3544.7408014226917, -4233.375696346247, -3034.003440618925, -10457.531864348874, -15532.294277226243, 0.012, -0.11, 0.982, 192.0, 0.0, 0.0, 0.0, 0.0, 0.0, 0.0, 0.0, 0.0, 0.0, 1.645921331738641E9, 0.0, 2022-02-27 11:22:11.738
244.0, -2133.384601281238, -5269.177886149631, -2349.9283015642527, -10844.462912614694, -1126.7067345031185, -36.03101206195498, -5921.446492844402, -1862.5038102273716, -2432.473293837702, -6921.016504885734, -4694.827460626061, -3464.9450737172456, -4517.823996284485, -3143.8846163612147, -10201.202058935412, -14866.569920369378, 0.008, -0.10400000000000001, 0.984, 192.0, 0.0, 32.0, 126.0, 96.0, 15.0, 96.0, 0.0, 0.0, 0.0, 1.64592133174682E9, 0.0, 2022-02-27 11:22:11.746
246.0, -1699.1125582590769, -4973.777231428294, -2096.6606851411684, -10547.341173570298, -745.2518636288481, 213.81678745946735, -5835.839311580577, -1778.7965272422466, -3297.2399350690766, -6814.219869878277, -4417.3305532134245, -3438.34649781543, -4212.655629236177, -2928.9725934234375, -10232.561556406208, -14938.296668326459, 0.008, -0.10400000000000001, 0.984, 192.0, 0.0, 0.0, 0.0, 0.0, 0.0, 0.0, 0.0, 0.0, 0.0, 1.645921331753864E9, 0.0, 2022-02-27 11:22:11.753
248.0, -2314.4784348581356, -5426.712981070636, -2491.9959893221844, -11007.340074460517, -1283.2807044125443, -172.01902532804314, -6076.522895875322, -2061.9484260020768, -4017.480196652436, -7441.454522783104, -4700.4377484843435, -3606.342209141518, -4456.73667868813, -3202.267372878477, -10465.891416775157, -15535.825852850183, 0.008, -0.10400000000000001, 0.984, 192.0, 0.0, 0.0, 0.0, 0.0, 0.0, 0.0, 0.0, 0.0, 0.0, 1.645921331760503E9, 0.0, 2022-02-27 11:22:11.760
250.0, -1855.1947897904863, -5079.9256658465465, -2145.633357242746, -10607.780290577448, -837.4975129959004, 167.30280724797336, -5810.29126766816, -1717.0163055677779, -2183.4972123500365, -6611.444844179731, -4534.18547322577, -3405.9811718441456, -4362.345261853368, -2984.6507888616075, -10082.223723199812, -14570.096381914185, 0.008, -0.10400000000000001, 0.984, 192.0, 0.0, 0.0, 0.0, 0.0, 0.0, 0.0, 0.0, 0.0, 0.0, 1.645921331769311E9, 0.0, 2022-02-27 11:22:11.769
252.0, -2088.770519348445, -5276.66572054216, -2330.616394354867, -10821.9547059482, -1034.8187130473511, -7.666648348170322, -6017.357828302125, -2022.3634865717277, -4500.300228631524, -7330.455759818049, -4509.799720025029, -3582.738766996714, -4237.443713837113, -3032.662335951607, -10457.442457371051, -15535.669390638996, 0.008, -0.10400000000000001, 0.984, 192.0, 0.0, 0.0, 0.0, 0.0, 0.0, 0.0, 0.0, 0.0, 0.0, 1.645921331776389E9, 0.0, 2022-02-27 11:22:11.776
254.0, -2273.932370416209, -5418.420483877717, -2359.1372202798393, -10853.448313885727, -1123.5774902793755, -36.20982601759744, -5916.037370686218, -1870.3045690422737, -2491.9512858332737, -6983.556685871683, -4728.310373820112, -3516.6893621312815, -4524.7530370656295, -3151.4395059871085, -10202.990198491836, -14882.70787986611, 0.008, -0.106, 0.986, 192.0, 0.0, 32.0, 126.0, 88.0, 15.0, 104.0, 0.0, 0.0, 0.0, 1.645921331783381E9, 0.0, 2022-02-27 11:22:11.783
0.0, -1878.6417697241034, -5153.9993469714345, -2096.705388630079, -10544.860129935758, -734.5677297792113, 231.58642430143647, -5844.44473319587, -1759.2611025883082, -3313.9813916661014, -6848.373335405986, -4456.580216476943, -3481.083033213977, -4213.393236803203, -2920.8365584417056, -10225.766626091794, -14922.359874529824, 0.008, -0.106, 0.986, 192.0, 0.0, 0.0, 0.0, 0.0, 0.0, 0.0, 0.0, 0.0, 0.0, 1.645921331790949E9, 0.0, 2022-02-27 11:22:11.790
2.0, -2522.372010036947, -5637.132303372897, -2502.4342539828126, -11012.279809985139, -1275.032910708536, -160.30671123346227, -6060.697860800965, -2039.8872542246884, -4128.702477062044, -7507.839203815366, -4752.830237487583, -3667.988320349255, -4457.027251366049, -3194.3101518523877, -10469.490047632462, -15538.888041840559, 0.008, -0.106, 0.986, 192.0, 0.0, 0.0, 0.0, 0.0, 0.0, 0.0, 0.0, 0.0, 0.0, 1.645921331798992E9, 0.0, 2022-02-27 11:22:11.798
4.0, -2093.88906882871, -5319.446959429617, -2164.989967941042, -10621.683075628647, -837.0951815957048, 171.2590660165627, -5773.544999783636, -1688.5848866206275, -2243.019907834519, -6675.169667621812, -4605.331075827012, -3471.985873220667, -4374.43755560369, -2986.953018540504, -10079.742679565274, -14558.607585264157, 0.008, -0.106, 0.986, 192.0, 0.0, 0.0, 0.0, 0.0, 0.0, 0.0, 0.0, 0.0, 0.0, 1.645921331807476E9, 0.0, 2022-02-27 11:22:11.807
6.0, -2256.073326596418, -5438.26883295403, -2331.7786850665434, -10811.270572098563, -1007.5048813229658, 15.132130996242882, -5983.271418007782, -1990.4004920006387, -4562.885113106384, -7365.45859163506, -4572.272845777613, -3648.698764884325, -4243.344574373314, -3028.9966498609365, -10442.489140330452, -15505.718053068884, 0.008, -0.106, 0.986, 192.0, 0.0, 0.0, 0.0, 0.0, 0.0, 0.0, 0.0, 0.0, 0.0, 1.645921331813717E9, 0.0, 2022-02-27 11:22:11.813
8.0, -2400.33148531097, -5535.81184575699, -2380.438432745747, -10872.559055395015, -1123.465731557099, -36.008660317499675, -5906.023789170241, -1868.1140980856537, -2607.710970367309, -7025.086227069643, -4781.887505279482, -3560.8787609194233, -4531.816188313507, -3142.43175297162, -10207.773471805272, -14908.211220289615, 0.008, -0.106, 0.99, 192.0, 0.0, 32.0, 126.0, 88.0, 15.0, 120.0, 0.0, 0.0, 0.0, 1.645921331828641E9, 0.0, 2022-02-27 11:22:11.828
10.0, -1934.8787587736558, -5204.98367607399, -2107.0542463128863, -10546.000068902978, -724.9117761745186, 226.02083993206503, -5815.543927615157, -1753.3602420521072, -3296.0552926129453, -6863.97485303579, -4496.835708240951, -3518.3880947098846, -4227.586594532322, -2940.7072592624736, -10209.762777061795, -14899.38228122977, 0.008, -0.106, 0.99, 192.0, 0.0, 0.0, 0.0, 0.0, 0.0, 0.0, 0.0, 0.0, 0.0, 1.645921331835834E9, 0.0, 2022-02-27 11:22:11.835
12.0, -2506.166995306849, -5616.971029874209, -2503.5741929500336, -11011.229277995739, -1259.9678349456592, -160.3961182112835, -6064.162381191538, -2062.998957991476, -4156.48569541999, -7507.459224159626, -4759.446353846354, -3692.5975909945478, -4452.73571643063, -3216.661896307695, -10467.701908076038, -15553.21551003641, 0.008, -0.106, 0.99, 192.0, 0.0, 0.0, 0.0, 0.0, 0.0, 0.0, 0.0, 0.0, 0.0, 1.645921331843695E9, 0.0, 2022-02-27 11:22:11.843
14.0, -2032.287661109884, -5255.498618542983, -2166.0181481859863, -10617.927982560157, -832.4236670045457, 171.30376950547333, -5795.539116327657, -1700.4536629263955, -2214.8343580763767, -6652.504998744131, -4594.937514655294, -3469.8401057529577, -4369.184895656693, -2998.531222168353, -10077.418098141921, -14561.759181232355, 0.008, -0.106, 0.99, 192.0, 0.0, 0.0, 0.0, 0.0, 0.0, 0.0, 0.0, 0.0, 0.0, 1.645921331851223E9, 0.0, 2022-02-27 11:22:11.851
16.0, -2162.0171859284865, -5351.454657489617, -2325.341382663415, -10801.659321982781, -1000.2405643749911, 15.37800018525126, -5991.966246600896, -1989.484070477971, -4513.085426459959, -7335.149626153663, -4541.203920984736, -3616.311087168585, -4232.325164356847, -3023.2298997914672, -10445.327811876276, -15493.715166296384, 0.008, -0.106, 0.99, 192.0, 0.0, 0.0, 0.0, 0.0, 0.0, 0.0, 0.0, 0.0, 0.0, 1.645921331859276E9, 0.0, 2022-02-27 11:22:11.859
18.0, -2302.2296788966273, -5447.3212894584285, -2370.46955471868, -10863.439543657249, -1118.883623943761, -39.40612547470635, -5894.6020477535785, -1872.6738539545363, -2577.357301397002, -7012.010456563289, -4758.462877090321, -3545.344298522985, -4527.412894655811, -3170.6396544742174, -10210.790957306739, -14908.166516800704, 0.01, -0.10200000000000001, 0.996, 192.0, 0.0, 40.0, 126.0, 104.0, 15.5, 16.0, 0.0, 0.0, 0.0, 1.645921331865931E9, 0.0, 2022-02-27 11:22:11.865
20.0, -1812.4806061363945, -5080.439755969019, -2084.8813158132216, -10533.75131294147, -715.769912692298, 240.214197661185, -5814.918078770409, -1757.6964804764368, -3249.0495740234346, -6832.727114287271, -4454.546207731511, -3482.960579748223, -4211.918021669152, -2930.4925120463986, -10208.846355539126, -14896.744775384042, 0.01, -0.10200000000000001, 0.996, 192.0, 0.0, 0.0, 0.0, 0.0, 0.0, 0.0, 0.0, 0.0, 0.0, 1.645921331873893E9, 0.0, 2022-02-27 11:22:11.873
22.0, -2391.0331596175624, -5495.601057481892, -2484.888134585397, -10998.600542378492, -1255.3186720989552, -148.3932314387836, -6045.431619337991, -2069.480963883515, -4131.138817207672, -7485.308645404416, -4710.272516044679, -3646.7094596278025, -4438.2294342791365, -3193.3490268408095, -10472.015794755913, -15555.942422859958, 0.01, -0.10200000000000001, 0.996, 192.0, 0.0, 0.0, 0.0, 0.0, 0.0, 0.0, 0.0, 0.0, 0.0, 1.645921331880897E9, 0.0, 2022-02-27 11:22:11.880
24.0, -1926.5639098362817, -5140.454189831518, -2151.7130317345895, -10610.86483131228, -832.6918879380094, 175.14826955178614, -5802.646971064445, -1696.5421076467167, -2159.670252760679, -6621.212556506701, -4556.313700236524, -3425.2707273090755, -4364.602788043355, -2975.5536288682974, -10070.846685272061, -14555.634803251602, 0.01, -0.10200000000000001, 0.996, 192.0, 0.0, 0.0, 0.0, 0.0, 0.0, 0.0, 0.0, 0.0, 0.0, 1.645921331888816E9, 0.0, 2022-02-27 11:22:11.888
26.0, -2056.3381381437944, -5249.910682429157, -2300.1062631733735, -10776.826533892934, -988.9305816806057, 32.74530562702485, -6006.293714796748, -2003.3645037847168, -4460.827047923452, -7286.221657540997, -4499.249696642125, -3585.4209763313506, -4219.383504317225, -3027.6108417047076, -10442.533843819361, -15489.848314505616, 0.01, -0.10200000000000001, 0.996, 192.0, 0.0, 0.0, 0.0, 0.0, 0.0, 0.0, 0.0, 0.0, 0.0, 1.645921331896109E9, 0.0, 2022-02-27 11:22:11.896
28.0, -2248.0043468480526, -5384.78110847248, -2377.800926900021, -10870.100363504931, -1143.4705428445986, -48.078602323365494, -5916.573812553145, -1901.418197324061, -2615.9811158157727, -7029.064837582689, -4736.155836123924, -3527.731123892203, -4532.285574947068, -3165.431698016131, -10227.711227859405, -14947.05855215294, 0.014, -0.1, 0.992, 192.0, 0.0, 56.0, 126.0, 112.0, 15.5, 0.0, 0.0, 0.0, 0.0, 1.645921331903299E9, 0.0, 2022-02-27 11:22:11.903
30.0, -1758.791715954747, -5017.966630216436, -2089.061092026364, -10528.386894272197, -732.8242937116974, 237.4202296042716, -5816.080369482085, -1749.1357623500542, -3170.7067097075833, -6798.663055737384, -4445.046716338005, -3457.5913497914494, -4226.625469520744, -2935.275785359834, -10203.616047336585, -14871.911987294197, 0.014, -0.1, 0.992, 192.0, 0.0, 0.0, 0.0, 0.0, 0.0, 0.0, 0.0, 0.0, 0.0, 1.645921331910814E9, 0.0, 2022-02-27 11:22:11.910
32.0, -2339.9594235371856, -5443.476789412116, -2487.168012519838, -10994.912504543365, -1272.7977362630054, -156.0822315314092, -6092.929076305518, -2078.153440732174, -4162.475962934013, -7476.278540644472, -4694.559239692598, -3647.3353084725513, -4437.760047645575, -3197.3052856093987, -10480.531809393384, -15568.459399754931, 0.014, -0.1, 0.992, 192.0, 0.0, 0.0, 0.0, 0.0, 0.0, 0.0, 0.0, 0.0, 0.0, 1.645921331918769E9, 0.0, 2022-02-27 11:22:11.918
34.0, -1898.3783600781394, -5103.39499752462, -2162.7547934955114, -10618.19620349362, -867.828830221752, 160.08319378890917, -5786.330197612071, -1720.8384538696355, -2133.921043148165, -6625.4593879532085, -4556.023127558605, -3420.129826084355, -4381.925389996218, -3006.7343123834507, -10088.303397691656, -14558.942861430987, 0.014, -0.1, 0.992, 192.0, 0.0, 0.0, 0.0, 0.0, 0.0, 0.0, 0.0, 0.0, 0.0, 1.64592133192689E9, 0.0, 2022-02-27 11:22:11.926
36.0, -2009.8241579323005, -5188.197515988054, -2302.3637893633595, -10773.853751880379, -1003.369808598734, 31.985346315544408, -5991.13923205605, -2002.7610066844234, -4429.735771386119, -7277.39271848115, -4494.689940773242, -3578.1343076389203, -4226.558414287379, -3010.891736852138, -10432.944945448035, -15466.736610738828, 0.014, -0.1, 0.992, 192.0, 0.0, 0.0, 0.0, 0.0, 0.0, 0.0, 0.0, 0.0, 0.0, 1.64592133193353E9, 0.0, 2022-02-27 11:22:11.933
38.0, -2202.406788159226, -5328.499415934017, -2366.13331629435, -10860.690279089247, -1153.4170691272104, -51.00668084701072, -5921.893527733509, -1891.002284407888, -2595.261048705703, -6984.607217861083, -4721.023705127681, -3514.0965597744657, -4526.4517696442335, -3171.4443172746087, -10224.425521424475, -14938.609592748833, 0.014, -0.098, 0.992, 192.0, 0.0, 56.0, 126.0, 120.0, 15.5, 0.0, 0.0, 0.0, 0.0, 1.645921331948458E9, 0.0, 2022-02-27 11:22:11.948
40.0, -1711.696590387415, -4965.7529551688385, -2071.6043796067693, -10515.691103421583, -731.2373198553705, 243.63401456284697, -5816.214479948817, -1744.240730314342, -3147.974985596536, -6797.321951070065, -4431.054524308983, -3443.420343806785, -4220.434036306624, -2930.4254568130323, -10199.34686414562, -14861.250205189015, 0.014, -0.098, 0.992, 192.0, 0.0, 0.0, 0.0, 0.0, 0.0, 0.0, 0.0, 0.0, 0.0, 1.645921331956594E9, 0.0, 2022-02-27 11:22:11.956
42.0, -2289.176260134728, -5393.587695787871, -2472.5052681571565, -10985.636530594413, -1268.2156286496675, -151.12014426233105, -6078.825125554219, -2088.345836203794, -4171.506067693957, -7466.600235295325, -4673.772117349162, -3614.545299356616, -4418.939878814206, -3186.375282570754, -10480.777678582392, -15572.616824223618, 0.014, -0.098, 0.992, 192.0, 0.0, 0.0, 0.0, 0.0, 0.0, 0.0, 0.0, 0.0, 0.0, 1.645921331963115E9, 0.0, 2022-02-27 11:22:11.963
44.0, -1863.4425834944946, -5074.248322754899, -2156.8986364482207, -10616.609229637294, -876.1660309035816, 150.44959192867185, -5822.003581762741, -1732.9530993644119, -2105.959010834576, -6615.803434348516, -4540.488665162166, -3395.3640932278745, -4373.029395703005, -2997.793614601328, -10087.275217446711, -14563.92730044452, 0.014, -0.098, 0.992, 192.0, 0.0, 0.0, 0.0, 0.0, 0.0, 0.0, 0.0, 0.0, 0.0, 1.645921331971045E9, 0.0, 2022-02-27 11:22:11.971
46.0, -1957.9457590515328, -5151.16067542561, -2277.598056506879, -10757.112295283354, -990.5175555369325, 37.528578940460555, -6018.43071203598, -1996.189593814563, -4382.081852207405, -7254.772753092379, -4462.995167135617, -3548.0265078576217, -4206.6430099777, -3003.06862629278, -10439.270489128887, -15461.416895558465, 0.015, -0.099, 0.992, 192.0, 0.0, 64.0, 126.0, 112.0, 15.5, 0.0, 0.0, 0.0, 0.0, 1.645921331979149E9, 0.0, 2022-02-27 11:22:11.979
48.0, -2181.172630926684, -5305.298305189408, -2371.587141941445, -10874.660119373813, -1162.7600983095288, -72.39730029073958, -5948.246234446316, -1915.6115550531813, -2630.1074183115265, -7024.10275031361, -4711.032475356159, -3509.067417272022, -4525.714162077208, -3168.471535262053, -10239.423541953987, -14969.320889630424, 0.015, -0.099, 0.992, 192.0, 0.0, 0.0, 0.0, 0.0, 0.0, 0.0, 0.0, 0.0, 0.0, 1.645921331985722E9, 0.0, 2022-02-27 11:22:11.985
50.0, -1687.5567063756832, -4937.030963543769, -2073.057242996364, -10522.240164546987, -742.3461368496581, 226.04319167652034, -5844.981175062797, -1781.59049529916, -3083.490202842975, -6741.733162609717, -4416.592945646399, -3437.094800125933, -4224.077370652839, -2931.8112649692616, -10201.850259524615, -14862.32308892287, 0.015, -0.099, 0.992, 192.0, 0.0, 0.0, 0.0, 0.0, 0.0, 0.0, 0.0, 0.0, 0.0, 1.645921331993755E9, 0.0, 2022-02-27 11:22:11.993
52.0, -2285.5776292774235, -5398.348617356851, -2479.7695851051312, -10991.537391130614, -1279.8832392553377, -173.60599918436995, -6088.1905064809935, -2103.6567811556797, -4212.163890858161, -7483.364043636804, -4663.490314899721, -3619.529738370149, -4424.997201561595, -3188.2304773605442, -10499.039053802378, -15600.489449559385, 0.015, -0.099, 0.992, 192.0, 0.0, 0.0, 0.0, 0.0, 0.0, 0.0, 0.0, 0.0, 0.0, 1.645921332000811E9, 0.0, 2022-02-27 11:22:12.000
54.0, -1870.841010909201, -5108.647657471616, -2169.080337176363, -10635.63056416876, -904.6868568285533, 124.49921661606034, -5848.713916386833, -1740.82091341268, -2115.257336527984, -6640.859739882915, -4554.480857191188, -3414.363076014886, -4401.304352438969, -3023.9675073584926, -10097.355854196056, -14584.245036154394, 0.015, -0.099, 0.992, 192.0, 0.0, 0.0, 0.0, 0.0, 0.0, 0.0, 0.0, 0.0, 0.0, 1.645921332008789E9, 0.0, 2022-02-27 11:22:12.008
56.0, -1961.8573143312115, -5142.465846832496, -2285.4211670662366, -10761.470885452138, -1000.3746748417229, 31.71712538208072, -6033.5404912877675, -2007.745445697957, -4368.827267745408, -7261.612386895703, -4470.415946294778, -3560.409374285862, -4224.658516008677, -3012.5457659418307, -10449.842864256247, -15459.069962390658, 0.0155, -0.10250000000000001, 0.992, 192.0, 0.0, 64.0, 126.0, 88.0, 15.5, 0.0, 0.0, 0.0, 0.0, 1.645921332015876E9, 0.0, 2022-02-27 11:22:12.015
58.0, -2213.24738422005, -5371.973558899589, -2382.2489240466266, -10888.562904425014, -1182.9660752971263, -83.81904170740148, -5965.948816054919, -1931.8612732721895, -2676.4649363118338, -7068.180390379476, -4728.824463942583, -3526.769998880625, -4537.13590349387, -3181.7261197240496, -10256.50027471784, -14995.15950622076, 0.0155, -0.10250000000000001, 0.992, 192.0, 0.0, 0.0, 0.0, 0.0, 0.0, 0.0, 0.0, 0.0, 0.0, 1.645921332023326E9, 0.0, 2022-02-27 11:22:12.023
60.0, -1757.4282595429731, -5021.162929673545, -2077.1476122316853, -10532.611373974249, -744.0001659393508, 216.1413688828193, -5827.636221365478, -1760.6692624889927, -3066.9275602015928, -6788.604770732495, -4439.8164081354635, -3462.4640300827064, -4234.403876591191, -2931.5430440357977, -10200.866782768582, -14848.286193404938, 0.0155, -0.10250000000000001, 0.992, 192.0, 0.0, 0.0, 0.0, 0.0, 0.0, 0.0, 0.0, 0.0, 0.0, 1.645921332031394E9, 0.0, 2022-02-27 11:22:12.031
62.0, -2400.175023099783, -5534.023706200565, -2482.049463039573, -11001.618027879957, -1281.1796404337456, -174.1424410512973, -6064.251788169359, -2093.1067577727745, -4258.923740258663, -7529.073361047907, -4695.07332981507, -3662.9368261023556, -4426.1371405288155, -3189.3480645833097, -10492.959379310534, -15601.1823536375, 0.0155, -0.10250000000000001, 0.992, 192.0, 0.0, 0.0, 0.0, 0.0, 0.0, 0.0, 0.0, 0.0, 0.0, 1.64592133203861E9, 0.0, 2022-02-27 11:22:12.038
64.0, -2045.519893827426, -5279.549095576894, -2181.798479771433, -10641.889052616245, -891.342865388735, 130.35537366335078, -5810.738302557266, -1738.272814544775, -2150.416630556182, -6689.497135817664, -4601.3524653139675, -3467.5825795629717, -4403.271305951036, -3011.5846409302526, -10081.061432488135, -14574.32086161624, 0.0155, -0.10250000000000001, 0.992, 192.0, 0.0, 0.0, 0.0, 0.0, 0.0, 0.0, 0.0, 0.0, 0.0, 1.645921332046038E9, 0.0, 2022-02-27 11:22:12.046
66.0, -2160.027880671964, -5380.802497959435, -2283.431861809714, -10755.122990026832, -968.2328663149914, 38.95909058560021, -5995.587229202656, -2016.1720533576076, -4418.82812009193, -7309.981561896988, -4530.497435390644, -3620.9155465263784, -4226.513710798467, -3000.185251258046, -10421.389093564641, -15446.128302351035, 0.01475, -0.10325000000000001, 0.992, 192.0, 0.0, 56.0, 126.0, 96.0, 15.5, 0.0, 0.0, 0.0, 0.0, 1.645921332054028E9, 0.0, 2022-02-27 11:22:12.054
68.0, -2431.7133345262214, -5580.336520711961, -2393.536554996557, -10890.01576781461, -1160.3237581639003, -77.58290500437082, -5927.637926058523, -1904.8603659701785, -2768.2411990453243, -7143.7069348939585, -4795.1197379970245, -3601.894211994912, -4532.956127280728, -3180.0944423788123, -10240.69759138794, -15001.753270835075, 0.01475, -0.10325000000000001, 0.992, 192.0, 0.0, 0.0, 0.0, 0.0, 0.0, 0.0, 0.0, 0.0, 0.0, 1.645921332062092E9, 0.0, 2022-02-27 11:22:12.062
70.0, -1941.584282110248, -5220.495786725973, -2091.4974321719924, -10532.611373974249, -735.7970757242532, 231.0499824345091, -5810.827709535088, -1733.3107272756968, -3110.1558339781564, -6840.103189957523, -4507.452786857222, -3522.3220017340186, -4233.643917279711, -2933.2641283588564, -10177.978596446348, -14824.03455067093, 0.01475, -0.10325000000000001, 0.992, 192.0, 0.0, 0.0, 0.0, 0.0, 0.0, 0.0, 0.0, 0.0, 0.0, 1.6459213320756E9, 0.0, 2022-02-27 11:22:12.075
72.0, -2523.847225170997, -5645.000117421165, -2494.745253890187, -10998.377024933938, -1274.8540967528936, -159.03266179950975, -6099.388730453102, -2097.9794380640315, -4335.210244084626, -7574.603864503368, -4743.12958039398, -3713.1388441489753, -4415.430654934723, -3177.6357504887287, -10490.590094398272, -15600.534153048297, 0.01475, -0.10325000000000001, 0.992, 192.0, 0.0, 0.0, 0.0, 0.0, 0.0, 0.0, 0.0, 0.0, 0.0, 1.645921332083725E9, 0.0, 2022-02-27 11:22:12.083
74.0, -2119.0794848298415, -5347.386639998751, -2187.699340307634, -10647.856968385813, -895.2097171795032, 133.5963766093703, -5824.1046457415405, -1747.4146780269955, -2172.7907267559444, -6720.923688521825, -4633.136645929414, -3500.21612646772, -4397.191631459193, -3010.3329432407554, -10086.023519757215, -14570.342251103193, 0.01475, -0.10325000000000001, 0.992, 192.0, 0.0, 0.0, 0.0, 0.0, 0.0, 0.0, 0.0, 0.0, 0.0, 1.645921332091807E9, 0.0, 2022-02-27 11:22:12.091
76.0, -2163.224180129073, -5389.899657952745, -2279.9673414191416, -10750.071495779932, -968.8363634152846, 46.558683700404615, -5987.89822911003, -1986.2207157874961, -4402.578401872922, -7322.833814958789, -4535.9065575488285, -3653.794962620135, -4210.800434446387, -3026.202681804023, -10419.779767963859, -15429.453900987375, 0.014374999999999999, -0.10362500000000001, 0.99, 192.0, 0.0, 56.0, 126.0, 96.0, 15.0, 112.0, 0.0, 0.0, 0.0, 1.64592133209829E9, 0.0, 2022-02-27 11:22:12.098
78.0, -2407.0593603920174, -5566.724308338679, -2407.3052295810257, -10894.150840538841, -1189.1128050223358, -83.03673065146573, -5947.799199557209, -1922.2500231564075, -2786.703739965408, -7176.921627154545, -4791.632865861996, -3607.3927411309173, -4530.028048757083, -3189.6386372612283, -10254.332155505677, -15008.749366849586, 0.014374999999999999, -0.10362500000000001, 0.99, 192.0, 0.0, 0.0, 0.0, 0.0, 0.0, 0.0, 0.0, 0.0, 0.0, 1.645921332106296E9, 0.0, 2022-02-27 11:22:12.106
80.0, -1876.6077609786703, -5159.922559252091, -2094.2690484844506, -10524.073007592322, -745.5200845623118, 231.407610345794, -5836.7780848477, -1753.8072769412133, -3073.5883800492743, -6832.570652076084, -4495.472251829177, -3507.3686846934183, -4234.761504502476, -2940.3943348400994, -10188.953302973903, -14822.335818092326, 0.014374999999999999, -0.10362500000000001, 0.99, 192.0, 0.0, 0.0, 0.0, 0.0, 0.0, 0.0, 0.0, 0.0, 0.0, 1.645921332114897E9, 0.0, 2022-02-27 11:22:12.114
82.0, -2437.9047677403414, -5580.716500367702, -2493.2923905005923, -10993.996083020698, -1272.2165909071673, -161.22313275612984, -6076.478192386412, -2106.920135846154, -4335.5678719959105, -7571.720489468634, -4709.087873588547, -3687.0096548807214, -4397.39279715929, -3176.495811521508, -10495.865106089725, -15609.832478741704, 0.014374999999999999, -0.10362500000000001, 0.99, 192.0, 0.0, 0.0, 0.0, 0.0, 0.0, 0.0, 0.0, 0.0, 0.0, 1.645921332121224E9, 0.0, 2022-02-27 11:22:12.121
84.0, -2046.8833502391997, -5273.715290274059, -2200.216317202606, -10664.218445327097, -913.8510720552292, 112.98806822157721, -5806.335008899571, -1752.8238001851798, -2144.2699008309723, -6725.505796135163, -4622.653677779875, -3490.537821118572, -4400.566744871944, -3019.005420089414, -10086.783479068694, -14577.986547706909, 0.014374999999999999, -0.10362500000000001, 0.99, 192.0, 0.0, 0.0, 0.0, 0.0, 0.0, 0.0, 0.0, 0.0, 0.0, 1.645921332127955E9, 0.0, 2022-02-27 11:22:12.127
86.0, -2047.4644955950375, -5276.9786449645335, -2267.2268470796166, -10745.020001533032, -954.2853777748797, 49.50911396850515, -5987.048862820729, -1994.5579164693258, -4338.294784819458, -7281.930122605578, -4503.317714132991, -3619.9767732592554, -4198.350512784781, -3022.335830013255, -10410.77201494837, -15410.611380411552, 0.0121875, -0.1028125, 0.99, 192.0, 0.0, 40.0, 126.0, 104.0, 15.0, 120.0, 0.0, 0.0, 0.0, 1.645921332135965E9, 0.0, 2022-02-27 11:22:12.135
88.0, -2311.8856325013203, -5465.3367954894065, -2407.9310784257746, -10902.577448198492, -1189.6045434003524, -75.37008230329542, -5958.975071784863, -1926.5639098362817, -2785.921428909472, -7160.627205446626, -4759.178132912891, -3580.7494617401912, -4516.818167783996, -3177.881619677737, -10261.864693387115, -15026.764872880563, 0.0121875, -0.1028125, 0.99, 192.0, 0.0, 0.0, 0.0, 0.0, 0.0, 0.0, 0.0, 0.0, 0.0, 1.645921332144086E9, 0.0, 2022-02-27 11:22:12.144
90.0, -1787.625466302093, -5069.018014552357, -2091.7433013610007, -10533.058408863355, -743.6872415169765, 227.6078137883918, -5791.359340114515, -1747.3476227936296, -3016.6137834326964, -6813.795186733626, -4475.579199263954, -3485.4639751272175, -4232.682792268132, -2937.823884227739, -10179.386756347032, -14804.230905083527, 0.0121875, -0.1028125, 0.99, 192.0, 0.0, 0.0, 0.0, 0.0, 0.0, 0.0, 0.0, 0.0, 0.0, 1.645921332150536E9, 0.0, 2022-02-27 11:22:12.150
92.0, -2338.372449680859, -5469.673033913736, -2484.642265396388, -10996.588885377514, -1269.2661606390668, -159.5020484330712, -6060.474343356413, -2125.539138977425, -4328.638831214766, -7551.715678181134, -4688.256047756201, -3673.308035529618, -4391.246067434081, -3181.4131953016754, -10493.115841521721, -15616.42624335602, 0.0121875, -0.1028125, 0.99, 192.0, 0.0, 0.0, 0.0, 0.0, 0.0, 0.0, 0.0, 0.0, 0.0, 1.645921332158613E9, 0.0, 2022-02-27 11:22:12.158
94.0, -1951.9331397930553, -5166.583379099772, -2194.449567133137, -10657.244701057041, -915.6615633561091, 133.79754230946807, -5826.25041320925, -1730.2932417742304, -2110.8540428702886, -6694.146298664367, -4599.541974013087, -3461.122925415388, -4391.983675001106, -3022.1570160576125, -10085.844705801572, -14573.31503311575, 0.0121875, -0.1028125, 0.99, 192.0, 0.0, 0.0, 0.0, 0.0, 0.0, 0.0, 0.0, 0.0, 0.0, 1.645921332166611E9, 0.0, 2022-02-27 11:22:12.166
96.0, -1951.1508287371194, -5172.394832658152, -2264.3211203004266, -10739.968507286134, -957.0122905984272, 68.77631768897983, -5982.019720318284, -1976.1847825270634, -4307.09174955985, -7256.113857759698, -4483.3129028454905, -3581.9117524518674, -4188.359283013258, -2982.594428371719, -10414.750625461415, -15402.318883218633, 0.013093750000000001, -0.10340625, 0.991, 192.0, 0.0, 56.0, 126.0, 96.0, 15.5, 0.0, 0.0, 0.0, 0.0, 1.645921332173781E9, 0.0, 2022-02-27 11:22:12.173
98.0, -2250.0383555934854, -5376.600370001837, -2415.664782007311, -10909.573544213003, -1204.3566947408551, -87.19415512015286, -5948.335641424137, -1933.492950617427, -2802.9087546955056, -7149.384277985607, -4750.080972919581, -3568.6571679898702, -4521.914365519806, -3201.01567518898, -10270.783039424783, -15049.988335369628, 0.013093750000000001, -0.10340625, 0.991, 192.0, 0.0, 0.0, 0.0, 0.0, 0.0, 0.0, 0.0, 0.0, 0.0, 1.645921332181131E9, 0.0, 2022-02-27 11:22:12.181
100.0, -1719.698514902415, -4987.836478690681, -2094.3137519733614, -10527.492824493984, -748.9399014639738, 238.40370636030514, -5812.727607813788, -1739.1892360674426, -2980.0910329927246, -6791.510497511685, -4461.922283401762, -3481.083033213977, -4229.173568388649, -2952.866608246161, -10183.030090693246, -14800.252294570482, 0.013093750000000001, -0.10340625, 0.991, 192.0, 0.0, 0.0, 0.0, 0.0, 0.0, 0.0, 0.0, 0.0, 0.0, 1.645921332196263E9, 0.0, 2022-02-27 11:22:12.196
102.0, -2276.4134140507476, -5397.87923072329, -2487.816213109042, -10990.531562630125, -1264.326425114444, -148.79556283897912, -6096.147727507082, -2112.8433481268107, -4328.23649981457, -7542.082076320896, -4666.328986445545, -3647.0670875390874, -4378.349110883369, -3181.502602279497, -10504.805803871848, -15622.237696914399, 0.013093750000000001, -0.10340625, 0.991, 192.0, 0.0, 0.0, 0.0, 0.0, 0.0, 0.0, 0.0, 0.0, 0.0, 1.645921332203308E9, 0.0, 2022-02-27 11:22:12.203
104.0, -1904.0557031697874, -5121.5446140223285, -2201.378607914282, -10657.021183612489, -915.8850808006622, 135.51862663252672, -5812.258221180227, -1741.8714454020794, -2085.2389437245065, -6658.65172846934, -4580.297122037068, -3436.9159861702906, -4383.691177808187, -3014.2221467759787, -10089.041005258681, -14577.941844217998, 0.013093750000000001, -0.10340625, 0.991, 192.0, 0.0, 0.0, 0.0, 0.0, 0.0, 0.0, 0.0, 0.0, 0.0, 1.645921332210836E9, 0.0, 2022-02-27 11:22:12.210
106.0, -1895.1597088765752, -5112.7380267069375, -2260.5883789763902, -10719.516661109526, -944.2717962589022, 84.73546323006907, -5967.558141655701, -1977.5258871943818, -4265.562208361889, -7231.6386975811365, -4454.993242620617, -3569.2606650901635, -4184.8277073893205, -2975.7771463128506, -10409.140337603134, -15392.707633102851, 0.012546875, -0.10370312500000001, 0.9904999999999999, 192.0, 0.0, 48.0, 126.0, 96.0, 15.0, 120.0, 0.0, 0.0, 0.0, 1.645921332218873E9, 0.0, 2022-02-27 11:22:12.218
108.0, -2210.699285352145, -5340.524654450972, -2410.5238807825904, -10900.722253408701, -1194.454871947154, -72.59846599083734, -5943.015926243774, -1955.7329363504573, -2831.787208531762, -7134.050981289266, -4726.723399963785, -3544.9419671227897, -4510.514975847599, -3169.209142829078, -10278.382632539588, -15068.115600122883, 0.012546875, -0.10370312500000001, 0.9904999999999999, 192.0, 0.0, 0.0, 0.0, 0.0, 0.0, 0.0, 0.0, 0.0, 0.0, 1.645921332225787E9, 0.0, 2022-02-27 11:22:12.225
110.0, -1687.8025755646916, -4946.9104345930145, -2080.925057044632, -10515.534641210395, -726.7446192198538, 264.2870264395507, -5797.617828562001, -1726.4263899834623, -2916.2544508283677, -6748.014002801658, -4436.284832511525, -3436.133675114355, -4218.31062058337, -2910.0630176142477, -10165.282805595732, -14780.87333212773, 0.012546875, -0.10370312500000001, 0.9904999999999999, 192.0, 0.0, 0.0, 0.0, 0.0, 0.0, 0.0, 0.0, 0.0, 0.0, 1.64592133223349E9, 0.0, 2022-02-27 11:22:12.233
112.0, -2250.463038738136, -5364.128096595776, -2480.9542275612625, -10984.764812560656, -1255.4751343101425, -127.33788816188434, -6071.069070228228, -2092.235039739018, -4356.556160039444, -7512.421311428704, -4648.469942625755, -3640.406267691406, -4362.457020575645, -3144.3092995058655, -10499.46373694703, -15617.94616197898, 0.012546875, -0.10370312500000001, 0.9904999999999999, 192.0, 0.0, 0.0, 0.0, 0.0, 0.0, 0.0, 0.0, 0.0, 0.0, 1.645921332241472E9, 0.0, 2022-02-27 11:22:12.241
114.0, -1897.6407525111142, -5091.906200874591, -2204.4184451602036, -10657.15529407922, -924.8481303272404, 137.6867458446915, -5806.647933321945, -1745.6935937039368, -2083.3613971902605, -6649.532216731574, -4575.558552212543, -3423.549642986017, -4385.322855153425, -3003.0015710594143, -10087.431679657899, -14577.69597502899, 0.012546875, -0.10370312500000001, 0.9904999999999999, 192.0, 0.0, 0.0, 0.0, 0.0, 0.0, 0.0, 0.0, 0.0, 0.0, 1.645921332248658E9, 0.0, 2022-02-27 11:22:12.248
116.0, -1878.485307512916, -5087.525258961351, -2248.831361392899, -10708.810175515435, -947.2222265270027, 77.71701547110266, -5974.08485103665, -1972.5637999253036, -4248.2843098979365, -7207.699979269502, -4446.365469260868, -3549.054688102566, -4189.074538835828, -2982.2591522048897, -10409.788538192337, -15382.783458564694, 0.008, -0.10400000000000001, 0.99, 192.0, 0.0, 32.0, 126.0, 96.0, 15.0, 120.0, 0.0, 0.0, 0.0, 1.645921332255532E9, 0.0, 2022-02-27 11:22:12.255
118.0, -2196.7517968120333, -5319.201090240609, -2409.2274796041825, -10903.136241809874, -1211.6210116888299, -90.1669371327087, -5962.081964264151, -1989.327608266784, -2852.3284616861897, -7127.412513186039, -4720.151987093925, -3535.442475729284, -4515.968801494694, -3187.112890137779, -10293.380653069098, -15083.001861930117, 0.008, -0.10400000000000001, 0.99, 192.0, 0.0, 0.0, 0.0, 0.0, 0.0, 0.0, 0.0, 0.0, 0.0, 1.645921332263112E9, 0.0, 2022-02-27 11:22:12.263
120.0, -1670.077642211633, -4925.7209808493835, -2078.287551198906, -10517.769815655925, -746.7494305073536, 250.45129662171564, -5805.820918777099, -1730.62851794106, -2886.146651047069, -6717.258002431155, -4426.226547506636, -3431.618622734383, -4225.530234042434, -2912.1417298485912, -10178.82796273565, -14779.241654782494, 0.008, -0.10400000000000001, 0.99, 192.0, 0.0, 0.0, 0.0, 0.0, 0.0, 0.0, 0.0, 0.0, 0.0, 1.645921332271212E9, 0.0, 2022-02-27 11:22:12.271
122.0, -2216.890718566265, -5322.106817019799, -2466.0009105206623, -10971.465524609748, -1262.1136024133687, -143.22997846960766, -6104.440224700002, -2127.9754791230534, -4365.765078755031, -7500.172555467196, -4627.548709815587, -3623.9553837723, -4364.558084554445, -3142.744677393994, -10512.114824308734, -15633.793548797794, 0.008, -0.10400000000000001, 0.99, 192.0, 0.0, 0.0, 0.0, 0.0, 0.0, 0.0, 0.0, 0.0, 0.0, 1.645921332279159E9, 0.0, 2022-02-27 11:22:12.279
124.0, -1872.9197231435446, -5065.57584590624, -2186.8723257627876, -10658.429343513173, -933.3641449647123, 126.19794919466368, -5840.175550004906, -1763.463230545906, -2061.4790393685153, -6643.609004450918, -4553.653842646342, -3402.0472648200116, -4384.540544097489, -3002.018094303381, -10098.495793163276, -14590.928207746532, 0.008, -0.10400000000000001, 0.99, 192.0, 0.0, 0.0, 0.0, 0.0, 0.0, 0.0, 0.0, 0.0, 0.0, 1.645921332285742E9, 0.0, 2022-02-27 11:22:12.285
126.0, -1836.106400025654, -5036.987964747902, -2216.3989801882485, -10700.808251000435, -929.407886196123, 95.01726567951032, -5968.094583522628, -1958.7280701074685, -4210.286344323915, -7158.570844956737, -4426.405361462279, -3540.672783931826, -4173.718890395033, -2928.05617190077, -10398.97029387597, -15370.691164814374, 0.01, -0.10400000000000001, 0.992, 192.0, 0.0, 40.0, 126.0, 96.0, 15.5, 0.0, 0.0, 0.0, 0.0, 1.645921332293795E9, 0.0, 2022-02-27 11:22:12.293
128.0, -2173.371872111782, -5292.781328294436, -2393.0001131296294, -10895.96133183972, -1218.7288664256175, -86.97063767559978, -5970.6203306460775, -1945.1382094786418, -2882.0786335562034, -7118.31535319273, -4704.148138063924, -3522.120836033921, -4504.949391478228, -3179.58035225634, -10294.162964125033, -15101.285588894558, 0.01, -0.10400000000000001, 0.992, 192.0, 0.0, 0.0, 0.0, 0.0, 0.0, 0.0, 0.0, 0.0, 0.0, 1.645921332302641E9, 0.0, 2022-02-27 11:22:12.302
130.0, -1639.7463249857815, -4889.645265298518, -2050.325518885317, -10499.195516013566, -744.4695525729123, 252.48530536714858, -5808.167851944906, -1753.0920211186435, -2829.7084962974186, -6696.157955665345, -4412.234355477614, -3391.7207588816595, -4220.948126429096, -2904.4527297559657, -10167.897959697004, -14759.39330570618, 0.01, -0.10400000000000001, 0.992, 192.0, 0.0, 0.0, 0.0, 0.0, 0.0, 0.0, 0.0, 0.0, 0.0, 1.645921332308905E9, 0.0, 2022-02-27 11:22:12.308
132.0, -2195.9694857560976, -5309.031046513444, -2441.8163230200203, -10957.048649436076, -1260.839552979416, -139.38547842329484, -6081.954369777963, -2108.4400544691152, -4363.932235709695, -7474.5351045769585, -4602.268886836635, -3591.768871756658, -4348.464828546623, -3121.7563893504607, -10511.533678952896, -15638.979153511424, 0.01, -0.10400000000000001, 0.992, 192.0, 0.0, 0.0, 0.0, 0.0, 0.0, 0.0, 0.0, 0.0, 0.0, 1.645921332323666E9, 0.0, 2022-02-27 11:22:12.323
134.0, -1865.6554061955699, -5050.3990114210865, -2172.0084157000083, -10651.522654476483, -943.8918166031619, 114.8879665002783, -5816.460349137825, -1748.0628786161994, -2048.1126961842415, -6626.889899598348, -4555.598444413954, -3391.161965270277, -4388.96618949964, -3006.68960889454, -10091.298531448667, -14588.223646667439, 0.01, -0.10400000000000001, 0.992, 192.0, 0.0, 0.0, 0.0, 0.0, 0.0, 0.0, 0.0, 0.0, 0.0, 1.645921332331594E9, 0.0, 2022-02-27 11:22:12.331
136.0, -1814.849891048657, -5020.380618617609, -2194.516622366503, -10681.809268213425, -922.7470663484414, 101.56632680491529, -5955.689365349933, -1960.3150439637952, -4168.086250792295, -7118.874146804113, -4409.440387420701, -3513.1354347628876, -4161.425430944613, -2945.669346531552, -10390.700148427504, -15355.84960649605, 0.01, -0.10400000000000001, 0.992, 192.0, 0.0, 40.0, 126.0, 96.0, 15.5, 0.0, 0.0, 0.0, 0.0, 1.645921332338102E9, 0.0, 2022-02-27 11:22:12.338
138.0, -2167.806287742411, -5279.035005454422, -2382.919476380286, -10898.911762107822, -1219.3770670148215, -91.35157958883997, -5977.817592360687, -1948.647433358125, -2895.5567354627533, -7117.331876436696, -4700.303638017612, -3508.374513193907, -4498.109757674904, -3157.4744769900417, -10292.017196657323, -15109.645141320843, 0.01, -0.10400000000000001, 0.992, 192.0, 0.0, 0.0, 0.0, 0.0, 0.0, 0.0, 0.0, 0.0, 0.0, 1.645921332346039E9, 0.0, 2022-02-27 11:22:12.346
140.0, -1641.2662436087423, -4876.278922114244, -2043.351774615261, -10510.661960919138, -745.0506979287503, 244.48338085214866, -5808.301962411638, -1753.270835074286, -2811.6259350330756, -6671.7722024646055, -4411.787320588508, -3394.447671705207, -4218.221213605549, -2885.543153946776, -10160.253663093288, -14761.092038284783, 0.01, -0.10400000000000001, 0.992, 192.0, 0.0, 0.0, 0.0, 0.0, 0.0, 0.0, 0.0, 0.0, 0.0, 1.645921332354293E9, 0.0, 2022-02-27 11:22:12.354
142.0, -2199.724578824589, -5311.176813981154, -2444.297366654559, -10967.732783285712, -1260.8842564683266, -146.2474639710741, -6081.864962800141, -2104.7743683784447, -4379.19847717267, -7477.038499955953, -4615.3223055985345, -3607.146871941909, -4351.012927414528, -3128.528967920419, -10507.733882395492, -15640.521423878841, 0.01, -0.10400000000000001, 0.992, 192.0, 0.0, 0.0, 0.0, 0.0, 0.0, 0.0, 0.0, 0.0, 0.0, 1.645921332361207E9, 0.0, 2022-02-27 11:22:12.361
144.0, -1886.911915172567, -5069.934436075025, -2186.8499740183324, -10664.307852304919, -959.3145202773238, 101.76749250501305, -5847.01518380823, -1764.3125968352076, -2046.6821845391019, -6635.0259345800805, -4571.088203321481, -3400.8179188749696, -4400.410282660757, -3019.1842340450567, -10096.506487906754, -14598.304283416783, 0.01, -0.10400000000000001, 0.992, 192.0, 0.0, 0.0, 0.0, 0.0, 0.0, 0.0, 0.0, 0.0, 0.0, 1.645921332368646E9, 0.0, 2022-02-27 11:22:12.368
146.0, -1823.5000161528608, -5028.8519297661705, -2202.920878281698, -10680.535218779472, -928.4467611845448, 95.64311452425892, -5978.018758060784, -1950.0108897698988, -4156.463343675536, -7113.509728134839, -4427.187672518215, -3514.118911518921, -4182.0113875879515, -2961.9414164950153, -10399.037349109334, -15348.026495936692, 0.016, -0.10400000000000001, 0.99, 192.0, 0.0, 64.0, 126.0, 96.0, 15.0, 120.0, 0.0, 0.0, 0.0, 1.645921332376824E9, 0.0, 2022-02-27 11:22:12.376
148.0, -2188.414596130204, -5286.276970657942, -2393.0001131296294, -10915.720273938212, -1236.2079305896677, -101.6110302938259, -5974.688348136944, -1966.3276632222728, -2937.600366783186, -7120.706989849447, -4712.038303856648, -3529.1169320484323, -4512.861909015406, -3187.9175529381696, -10311.61967654463, -15135.684923611276, 0.016, -0.10400000000000001, 0.99, 192.0, 0.0, 0.0, 0.0, 0.0, 0.0, 0.0, 0.0, 0.0, 0.0, 1.6459213323837E9, 0.0, 2022-02-27 11:22:12.383
150.0, -1654.923159470935, -4889.734672276339, -2050.3925741186827, -10511.55603069735, -749.2304741418927, 243.45520060720452, -5804.81509027661, -1726.2252242833645, -2773.6950246924193, -6690.122984662412, -4414.87186132334, -3410.2503550351094, -4230.537024800423, -2897.85896514165, -10157.571453758652, -14750.229090479505, 0.016, -0.10400000000000001, 0.99, 192.0, 0.0, 0.0, 0.0, 0.0, 0.0, 0.0, 0.0, 0.0, 0.0, 1.645921332390868E9, 0.0, 2022-02-27 11:22:12.390
152.0, -2187.028787973975, -5288.869773014757, -2438.396506118358, -10957.40627734736, -1253.0164424200586, -131.22709169710777, -6104.082596788717, -2116.8219586398554, -4397.795128559485, -7481.486497102559, -4601.151299613869, -3606.051636463599, -4341.446380787656, -3114.1567962356567, -10512.003065586456, -15647.42811291553, 0.016, -0.10400000000000001, 0.99, 192.0, 0.0, 0.0, 0.0, 0.0, 0.0, 0.0, 0.0, 0.0, 0.0, 1.645921332398306E9, 0.0, 2022-02-27 11:22:12.398
154.0, -1885.2802378273295, -5060.881979570625, -2189.0627967194077, -10661.82680867038, -954.3300812637904, 112.9657164771219, -5816.907384026931, -1755.5730647531827, -2030.5665767868254, -6617.144539015835, -4566.170819541314, -3408.998657345612, -4394.509422124555, -3001.3922454586323, -10093.980740783303, -14599.533629361824, 0.016, -0.10400000000000001, 0.99, 192.0, 0.0, 0.0, 0.0, 0.0, 0.0, 0.0, 0.0, 0.0, 0.0, 1.645921332406356E9, 0.0, 2022-02-27 11:22:12.406
156.0, -1839.6603273940477, -5044.5875578627065, -2199.8586892913213, -10668.73349770707, -922.1212175036928, 107.31072512992921, -5949.699097835911, -1935.6834215740469, -4141.107695234739, -7144.958632583455, -4430.227509764136, -3503.0324462690887, -4178.412756730647, -2963.8636665181716, -10384.665177424571, -15333.430806807377, 0.012, -0.10400000000000001, 0.992, 192.0, 0.0, 48.0, 126.0, 96.0, 15.5, 0.0, 0.0, 0.0, 0.0, 1.645921332414319E9, 0.0, 2022-02-27 11:22:12.414
158.0, -2221.115198268318, -5316.0718460168655, -2409.562755771012, -10914.580334970991, -1238.1301806128242, -102.08041692738736, -5979.4269179614685, -1962.1255352646751, -2997.0113035453924, -7176.139316098609, -4726.008144141215, -3526.121798291421, -4512.213708426203, -3179.3121313228767, -10311.239696888888, -15147.978383061694, 0.012, -0.10400000000000001, 0.992, 192.0, 0.0, 0.0, 0.0, 0.0, 0.0, 0.0, 0.0, 0.0, 0.0, 1.645921332421512E9, 0.0, 2022-02-27 11:22:12.421
160.0, -1678.660712082471, -4918.948402279425, -2062.7754405469227, -10512.584210942294, -753.1420294215715, 239.43188660524925, -5803.026950720186, -1724.6829539159482, -2757.579416940143, -6669.4252692967975, -4440.375201746846, -3414.6312969483492, -4245.445638352113, -2923.898747432083, -10154.129285112534, -14738.96381127403, 0.012, -0.10400000000000001, 0.992, 192.0, 0.0, 0.0, 0.0, 0.0, 0.0, 0.0, 0.0, 0.0, 0.0, 1.645921332428927E9, 0.0, 2022-02-27 11:22:12.428
162.0, -2218.544747655958, -5313.032008770944, -2453.1263057144056, -10961.228425649218, -1252.7258697421396, -137.7090975891468, -6090.336273948703, -2111.502243459492, -4443.795018648508, -7478.580770323369, -4616.842224221495, -3613.673581322859, -4354.611558271832, -3127.880767331215, -10515.981676099502, -15650.914985050558, 0.012, -0.10400000000000001, 0.992, 192.0, 0.0, 0.0, 0.0, 0.0, 0.0, 0.0, 0.0, 0.0, 0.0, 1.645921332443227E9, 0.0, 2022-02-27 11:22:12.443
164.0, -1932.710639561491, -5083.948979848502, -2214.1414539982625, -10683.597407769848, -966.3329680362903, 101.54397506045999, -5851.619643166023, -1760.0881171331546, -2075.3371209308057, -6662.228007582189, -4595.675122222319, -3419.6827911952487, -4426.695934140198, -3030.2930510393444, -10105.782461855706, -14614.375187680149, 0.012, -0.10400000000000001, 0.992, 192.0, 0.0, 0.0, 0.0, 0.0, 0.0, 0.0, 0.0, 0.0, 0.0, 1.645921332450615E9, 0.0, 2022-02-27 11:22:12.450
166.0, -1831.881920323601, -5025.298002397776, -2199.724578824589, -10673.360308809319, -898.763644547897, 111.17757692069733, -5954.437667660435, -1932.196549439019, -4127.696648561555, -7117.5330421367935, -4441.1128093138705, -3535.3977722403733, -4191.175602814627, -2959.505076349387, -10384.173439046555, -15324.244239836245, 0.014, -0.108, 0.99, 192.0, 0.0, 56.0, 126.0, 80.0, 15.0, 120.0, 0.0, 0.0, 0.0, 1.645921332458663E9, 0.0, 2022-02-27 11:22:12.458
168.0, -2231.732276884589, -5321.972706553067, -2417.788197730565, -10930.941811912277, -1235.1573986002684, -109.36708561981746, -5967.289920722237, -1963.7348608654572, -3061.5184380434084, -7175.625225976137, -4734.546510523142, -3556.7436881951917, -4522.786083553563, -3200.523936810963, -10322.907307494559, -15185.059927113049, 0.014, -0.108, 0.99, 192.0, 0.0, 0.0, 0.0, 0.0, 0.0, 0.0, 0.0, 0.0, 0.0, 1.645921332466669E9, 0.0, 2022-02-27 11:22:12.466
170.0, -1689.6801220989373, -4933.030001286269, -2061.4790393685153, -10516.898097622168, -750.7280410203983, 240.12479068336378, -5794.712101782811, -1716.658677656493, -2744.4365912004223, -6679.103574645946, -4453.540379231022, -3411.5691079579724, -4258.253187925004, -2915.2709740723344, -10147.803741431682, -14725.731578556488, 0.014, -0.108, 0.99, 192.0, 0.0, 0.0, 0.0, 0.0, 0.0, 0.0, 0.0, 0.0, 0.0, 1.645921332473193E9, 0.0, 2022-02-27 11:22:12.473
172.0, -2202.183270714673, -5304.67245634466, -2432.562700815523, -10955.327565113017, -1238.7336777131175, -124.83449278288994, -6090.515087904345, -2102.8297666108333, -4471.354719561901, -7493.534087363969, -4617.713942255252, -3616.579308102049, -4346.833151201386, -3115.497900902975, -10510.505498707951, -15651.406723428576, 0.014, -0.108, 0.99, 192.0, 0.0, 0.0, 0.0, 0.0, 0.0, 0.0, 0.0, 0.0, 0.0, 1.64592133248114E9, 0.0, 2022-02-27 11:22:12.481
174.0, -1931.324831405262, -5070.739098875416, -2201.8479945478434, -10690.034710172977, -975.0054448849494, 97.8112337364237, -5831.883052811987, -1756.2212653423865, -2075.5382866309033, -6656.640071468362, -4595.183383844303, -3435.7536954586144, -4425.220719006147, -3038.272623809889, -10103.144956009979, -14616.722120847955, 0.014, -0.108, 0.99, 192.0, 0.0, 0.0, 0.0, 0.0, 0.0, 0.0, 0.0, 0.0, 0.0, 1.645921332489336E9, 0.0, 2022-02-27 11:22:12.489
176.0, -1816.4145131605285, -5032.0258774788235, -2188.4369478746594, -10667.235930828563, -895.9473247465284, 110.97641122059957, -5936.377458140548, -1927.1227034476644, -4080.9815026499637, -7105.619562342115, -4431.412152220268, -3535.867158873935, -4184.939466111597, -2960.376794383144, -10375.992700575913, -15304.351187271022, 0.016, -0.10400000000000001, 0.994, 192.0, 0.0, 64.0, 126.0, 96.0, 15.5, 8.0, 0.0, 0.0, 0.0, 1.645921332496491E9, 0.0, 2022-02-27 11:22:12.496
178.0, -2231.5534629289464, -5320.743360608025, -2415.4859680516684, -10925.599744987458, -1238.1748841017347, -113.41275136622804, -5970.195647501427, -1957.8116485848009, -3072.783717248883, -7181.5707900012485, -4734.680620989874, -3539.9351763648006, -4518.829824784973, -3213.555003828407, -10323.868432506137, -15182.24360731168, 0.016, -0.10400000000000001, 0.994, 192.0, 0.0, 0.0, 0.0, 0.0, 0.0, 0.0, 0.0, 0.0, 0.0, 1.645921332502798E9, 0.0, 2022-02-27 11:22:12.502
180.0, -1684.7180348298593, -4929.140797751045, -2061.032004479409, -10514.148833054165, -756.6065498121441, 246.2044651752073, -5794.846212249543, -1719.6538114135042, -2733.9759747953385, -6679.394147323865, -4445.873730882851, -3403.902459609802, -4247.390240119725, -2930.8054364687728, -10148.071962365148, -14723.943439000064, 0.016, -0.10400000000000001, 0.994, 192.0, 0.0, 0.0, 0.0, 0.0, 0.0, 0.0, 0.0, 0.0, 0.0, 1.645921332510908E9, 0.0, 2022-02-27 11:22:12.510
182.0, -2210.185195229673, -5314.7754448384585, -2429.4781600806905, -10951.952451700265, -1239.5606922579639, -123.62749858230336, -6083.250770956371, -2087.965856548054, -4468.516048016078, -7490.002511740031, -4610.29316309609, -3605.2246219187527, -4341.893415676763, -3124.6397643851956, -10518.440367989584, -15650.155025739077, 0.016, -0.10400000000000001, 0.994, 192.0, 0.0, 0.0, 0.0, 0.0, 0.0, 0.0, 0.0, 0.0, 0.0, 1.645921332518861E9, 0.0, 2022-02-27 11:22:12.518
184.0, -1943.7076978335022, -5119.6670674880825, -2207.6147446173127, -10695.466184075616, -981.5098025214437, 93.3632365898176, -5827.189186476372, -1759.462268288406, -2077.8181645653444, -6689.832411984493, -4600.681912980308, -3412.329067269453, -4426.673582395742, -3037.535016242864, -10108.017636301236, -14619.650199371601, 0.013000000000000001, -0.10400000000000001, 0.992, 192.0, 0.0, 40.0, 126.0, 96.0, 15.0, 120.0, 0.0, 0.0, 0.0, 1.645921332526134E9, 0.0, 2022-02-27 11:22:12.526
186.0, -1815.2522224488525, -5029.56718558874, -2179.4068431147152, -10662.787933681957, -891.0299409663608, 116.74316129006878, -5927.257946402782, -1919.9477934775107, -4071.3031973008156, -7109.709931577437, -4431.032172564527, -3514.901222574857, -4175.484678207002, -2954.4535821024874, -10372.729345885438, -15297.869181378983, 0.013000000000000001, -0.10400000000000001, 0.992, 192.0, 0.0, 0.0, 0.0, 0.0, 0.0, 0.0, 0.0, 0.0, 0.0, 1.645921332533581E9, 0.0, 2022-02-27 11:22:12.533
188.0, -2240.8964921112647, -5341.3069655069075, -2417.9893634306627, -10944.397562074371, -1248.032003406525, -119.80535028044585, -5978.42108946098, -1962.907846320611, -3122.4492934285754, -7194.378339574139, -4732.154873866424, -3559.7164702077475, -4518.56160385151, -3201.708579267094, -10337.95003151298, -15211.434985570311, 0.013000000000000001, -0.10400000000000001, 0.992, 192.0, 0.0, 0.0, 0.0, 0.0, 0.0, 0.0, 0.0, 0.0, 0.0, 1.645921332541509E9, 0.0, 2022-02-27 11:22:12.541
190.0, -1699.7160553593703, -4942.618899657596, -2066.17290570413, -10519.625010445716, -758.5287998353004, 240.34830812791685, -5780.943427198342, -1712.367142721074, -2683.1034044150597, -6656.662423212818, -4452.3780885193455, -3410.2950585240196, -4257.157952446693, -2920.635392741608, -10149.144846099001, -14713.639284806168, 0.013000000000000001, -0.10400000000000001, 0.992, 192.0, 0.0, 0.0, 0.0, 0.0, 0.0, 0.0, 0.0, 0.0, 0.0, 1.645921332549649E9, 0.0, 2022-02-27 11:22:12.549
192.0, -2219.8411488343654, -5346.693735920637, -2428.695849024755, -10945.157521385852, -1233.1904450882012, -125.61680383882569, -6076.724061575421, -2121.0687900863636, -4504.301190889024, -7477.306720889416, -4607.074511894526, -3610.9466684993113, -4337.400715041246, -3122.4269416841203, -10521.502556979962, -15663.655479390083, 0.013000000000000001, -0.10400000000000001, 0.992, 192.0, 0.0, 0.0, 0.0, 0.0, 0.0, 0.0, 0.0, 0.0, 0.0, 1.645921332556073E9, 0.0, 2022-02-27 11:22:12.556
194.0, -2002.4927857509597, -5198.50167018195, -2219.5282244119912, -10706.55264932545, -995.211421872547, 77.71701547110266, -5832.464198167825, -1752.7120414629032, -2109.781159136434, -6701.835298756993, -4617.110445154959, -3418.900480139313, -4434.250823766091, -3046.073382624791, -10115.90780209396, -14646.76286539589, 0.0115, -0.10400000000000001, 0.993, 192.0, 0.0, 40.0, 126.0, 96.0, 15.5, 8.0, 0.0, 0.0, 0.0, 1.645921332571288E9, 0.0, 2022-02-27 11:22:12.571
196.0, -1885.2802378273295, -5124.517396034885, -2173.863610489799, -10654.54013997795, -881.8210222507743, 127.85197828435639, -5915.098597419095, -1887.873040184145, -4051.7901243913325, -7104.680789074992, -4441.381030247335, -3519.3045162325525, -4182.816050388343, -2953.760678024373, -10363.47572368094, -15273.148152011414, 0.0115, -0.10400000000000001, 0.993, 192.0, 0.0, 0.0, 0.0, 0.0, 0.0, 0.0, 0.0, 0.0, 0.0, 1.645921332578341E9, 0.0, 2022-02-27 11:22:12.578
198.0, -2341.3228799489593, -5456.060821540454, -2415.7765407295874, -10935.12158812542, -1247.4508580506872, -105.32141987340688, -5981.773851129276, -1951.2849392038513, -3166.9292648946366, -7238.031296495355, -4748.963385696815, -3565.2373510882085, -4507.564545579498, -3190.0633204058795, -10337.368886157143, -15212.507869304165, 0.0115, -0.10400000000000001, 0.993, 192.0, 0.0, 0.0, 0.0, 0.0, 0.0, 0.0, 0.0, 0.0, 0.0, 1.645921332585915E9, 0.0, 2022-02-27 11:22:12.585
200.0, -1868.3152637857515, -5144.54455906684, -2066.061146981853, -10516.719283666525, -759.0652417022278, 255.0781077239642, -5782.105717910018, -1687.824927309147, -2710.707808817364, -6670.453449541742, -4478.641388254331, -3422.6555732078045, -4259.393126892224, -2908.7442646913846, -10143.266337307256, -14694.86381946371, 0.0115, -0.10400000000000001, 0.993, 192.0, 0.0, 0.0, 0.0, 0.0, 0.0, 0.0, 0.0, 0.0, 0.0, 1.645921332593911E9, 0.0, 2022-02-27 11:22:12.593
202.0, -2391.6813602067664, -5541.980927226655, -2425.9018809678414, -10943.414085318338, -1220.4723024931316, -98.25826862552985, -6060.139067189582, -2082.7579000899673, -4582.018206360127, -7537.231747774094, -4644.82660827954, -3657.7959248776347, -4334.070305117405, -3116.5707846368296, -10516.808690644348, -15646.578746626228, 0.0115, -0.10400000000000001, 0.993, 192.0, 0.0, 0.0, 0.0, 0.0, 0.0, 0.0, 0.0, 0.0, 0.0, 1.645921332601845E9, 0.0, 2022-02-27 11:22:12.601
204.0, -2198.472881135092, -5389.832602719379, -2235.1297420417955, -10720.477786121106, -1006.5214045669323, 87.55178303143776, -5815.633334592979, -1766.7265852363807, -2171.606084299813, -6769.985767601224, -4665.859599811984, -3477.3279401454856, -4444.063239581971, -3050.051993137836, -10112.689150892396, -14637.79981586931, 0.012750000000000001, -0.10600000000000001, 0.9924999999999999, 192.0, 0.0, 56.0, 126.0, 80.0, 15.5, 0.0, 0.0, 0.0, 0.0, 1.645921332608331E9, 0.0, 2022-02-27 11:22:12.608
206.0, -2035.3722018447165, -5266.272159370442, -2177.5292965804692, -10646.493511974038, -874.6461122806206, 152.14832450727516, -5913.176347395939, -1897.0149036663656, -4077.002892136919, -7123.433902672995, -4488.677321514764, -3563.7844876986132, -4187.979303357519, -2953.0901256907136, -10356.18905498851, -15245.990782498217, 0.012750000000000001, -0.10600000000000001, 0.9924999999999999, 192.0, 0.0, 0.0, 0.0, 0.0, 0.0, 0.0, 0.0, 0.0, 0.0, 1.645921332616401E9, 0.0, 2022-02-27 11:22:12.616
208.0, -2468.370195432925, -5578.347215455439, -2441.749267786654, -10959.082658181509, -1255.229265121134, -102.61685879431472, -5960.249121218815, -1952.5366368933485, -3306.7841299514926, -7280.186686538063, -4793.577467629608, -3619.7756075591574, -4518.092217217948, -3190.711520995083, -10350.0423252633, -15240.246384173202, 0.012750000000000001, -0.10600000000000001, 0.9924999999999999, 192.0, 0.0, 0.0, 0.0, 0.0, 0.0, 0.0, 0.0, 0.0, 0.0, 1.64592133262346E9, 0.0, 2022-02-27 11:22:12.623
210.0, -1924.8875290021335, -5179.659149606126, -2080.5897808778027, -10531.896118151679, -760.8757330031077, 251.39006988883853, -5770.505162537714, -1692.7646628337698, -2682.097575914571, -6691.5534963075515, -4521.377923652879, -3470.2647888976085, -4275.46403115559, -2947.8151139992615, -10128.827110389127, -14671.662708719101, 0.012750000000000001, -0.10600000000000001, 0.9924999999999999, 192.0, 0.0, 0.0, 0.0, 0.0, 0.0, 0.0, 0.0, 0.0, 0.0, 1.645921332631377E9, 0.0, 2022-02-27 11:22:12.631
212.0, -2400.175023099783, -5538.874034747367, -2444.9008637548523, -10952.98063194521, -1225.09911359538, -112.89866124375597, -6046.973889705407, -2087.31765595885, -4580.542991226076, -7535.9353465956865, -4656.4718671407545, -3662.6909569133472, -4338.80887494193, -3128.126636520223, -10508.247972517966, -15644.09770299169, 0.012750000000000001, -0.10600000000000001, 0.9924999999999999, 192.0, 0.0, 0.0, 0.0, 0.0, 0.0, 0.0, 0.0, 0.0, 0.0, 1.645921332638044E9, 0.0, 2022-02-27 11:22:12.638
214.0, -2151.6459765012237, -5318.374075695762, -2245.63506193579, -10719.539012853982, -1000.3746748417229, 89.20581212113049, -5823.367038174515, -1750.4545152729172, -2166.532238308458, -6728.031543258613, -4676.186105750336, -3477.3279401454856, -4458.927149644751, -3041.2677575669004, -10106.900049078471, -14626.199260497006, 0.013375000000000001, -0.10600000000000001, 0.99125, 192.0, 0.0, 56.0, 126.0, 88.0, 15.0, 120.0, 0.0, 0.0, 0.0, 1.645921332646037E9, 0.0, 2022-02-27 11:22:12.646
216.0, -1958.3033869628177, -5195.238315491476, -2189.286314163961, -10645.48768347355, -873.7296907579531, 154.1376297637975, -5921.044161444207, -1879.5805429912261, -4050.314909257282, -7094.846021514657, -4480.161306877292, -3560.565836497049, -4198.618733718245, -2955.3476518806997, -10355.00441253238, -15238.860576016972, 0.013375000000000001, -0.10600000000000001, 0.99125, 192.0, 0.0, 0.0, 0.0, 0.0, 0.0, 0.0, 0.0, 0.0, 0.0, 1.645921332654018E9, 0.0, 2022-02-27 11:22:12.654
218.0, -2388.7085781942105, -5504.362941308373, -2443.8279800209975, -10952.019506933631, -1255.9221691992486, -110.48467284258281, -5978.1305167830615, -1974.7989743708342, -3271.1778010341886, -7290.557895965326, -4778.80296454465, -3599.1002439379986, -4524.820092298995, -3194.4442623191194, -10354.736191598915, -15233.004418969682, 0.013375000000000001, -0.10600000000000001, 0.99125, 192.0, 0.0, 0.0, 0.0, 0.0, 0.0, 0.0, 0.0, 0.0, 0.0, 1.645921332661078E9, 0.0, 2022-02-27 11:22:12.661
220.0, -1817.2191759609195, -5078.0481193123005, -2074.0854232413085, -10527.1351965827, -756.5618463232335, 246.69620355322405, -5786.57606680108, -1719.9220323469679, -2664.707918728342, -6665.737231461672, -4489.727853504164, -3428.9811168886563, -4267.976196763062, -2958.409840871077, -10128.96122085586, -14680.916330923597, 0.013375000000000001, -0.10600000000000001, 0.99125, 192.0, 0.0, 0.0, 0.0, 0.0, 0.0, 0.0, 0.0, 0.0, 0.0, 1.645921332668757E9, 0.0, 2022-02-27 11:22:12.668
222.0, -2281.9342949312086, -5421.9073560127445, -2431.936851970774, -10938.384942815894, -1226.2837560515113, -105.43317859568342, -6097.287666474303, -2072.1408214736966, -4558.772392126607, -7502.966523524109, -4619.166805644847, -3626.5481861291155, -4327.498892247545, -3116.727246848017, -10515.51228946594, -15646.33287743722, 0.013375000000000001, -0.10600000000000001, 0.99125, 192.0, 0.0, 0.0, 0.0, 0.0, 0.0, 0.0, 0.0, 0.0, 0.0, 1.645921332676688E9, 0.0, 2022-02-27 11:22:12.676
224.0, -2065.859981281755, -5244.590967248794, -2240.762381644533, -10724.814024545434, -1018.0772564503261, 70.29623631194072, -5842.790704106177, -1775.8013934852356, -2140.760676951489, -6740.034430031113, -4645.921843757849, -3443.1521228733213, -4460.64823396781, -3060.043222909358, -10117.830052117117, -14643.879490361154, 0.014687500000000001, -0.10600000000000001, 0.992625, 192.0, 0.0, 64.0, 126.0, 88.0, 15.5, 8.0, 0.0, 0.0, 0.0, 1.645921332690769E9, 0.0, 2022-02-27 11:22:12.690
226.0, -1857.4076124915616, -5084.7983461378035, -2162.933607451154, -10635.049418812921, -871.2709988678693, 143.43114416970542, -5949.855560047097, -1899.808871723279, -3981.3821293571154, -7052.556521005216, -4446.3878210053235, -3512.8672138294237, -4198.886954651708, -2955.861742003172, -10345.080237994223, -15224.510756076665, 0.014687500000000001, -0.10600000000000001, 0.992625, 192.0, 0.0, 0.0, 0.0, 0.0, 0.0, 0.0, 0.0, 0.0, 0.0, 1.645921332698392E9, 0.0, 2022-02-27 11:22:12.698
228.0, -2313.1596819352726, -5426.109483970343, -2433.2556048936376, -10961.206073904763, -1271.9483699737036, -129.88598702978933, -5984.545467441734, -2014.383913801183, -3297.172879835711, -7260.159523506109, -4748.60575778553, -3572.345205824996, -4521.80260679753, -3217.06422770789, -10360.167665501556, -15261.189968727824, 0.014687500000000001, -0.10600000000000001, 0.992625, 192.0, 0.0, 0.0, 0.0, 0.0, 0.0, 0.0, 0.0, 0.0, 0.0, 1.645921332706336E9, 0.0, 2022-02-27 11:22:12.706
230.0, -1766.9724544253893, -5019.106569183657, -2074.375995919227, -10535.1371210977, -780.5005646348674, 233.17339815776327, -5778.61884577499, -1713.8423578551244, -2606.191051744348, -6654.874283656393, -4480.116603388382, -3421.806206918503, -4289.500926673523, -2956.8675705036608, -10124.96025859836, -14668.779333684366, 0.014687500000000001, -0.10600000000000001, 0.992625, 192.0, 0.0, 0.0, 0.0, 0.0, 0.0, 0.0, 0.0, 0.0, 0.0, 1.645921332713478E9, 0.0, 2022-02-27 11:22:12.713
232.0, -2225.429084948192, -5352.415782501195, -2424.918404211808, -10939.591937016481, -1229.5471107419862, -108.65182979724763, -6079.227456954415, -2100.5945921653024, -4576.497325479666, -7460.408802081204, -4611.72367474123, -3625.0059157616993, -4344.62032850031, -3134.943918579092, -10513.74650165397, -15651.294964706298, 0.014687500000000001, -0.10600000000000001, 0.992625, 192.0, 0.0, 0.0, 0.0, 0.0, 0.0, 0.0, 0.0, 0.0, 0.0, 1.645921332720946E9, 0.0, 2022-02-27 11:22:12.720
234.0, -2037.1156379122303, -5194.366597457719, -2248.116105570329, -10743.969469543634, -1048.855608565284, 59.14271582874249, -5867.154105562461, -1800.0530362192437, -2163.2018283846173, -6743.007212043669, -4655.644852595908, -3438.771180960081, -4483.6034755234095, -3098.778796050405, -10125.407293487466, -14666.678269705568, 0.01434375, -0.10800000000000001, 0.9943124999999999, 192.0, 0.0, 56.0, 126.0, 72.0, 15.5, 16.0, 0.0, 0.0, 0.0, 1.645921332729051E9, 0.0, 2022-02-27 11:22:12.729
236.0, -1810.6477630910592, -5034.238700179899, -2156.3621945812934, -10639.229195026064, -877.6412460376318, 142.04533601347637, -5932.130626694039, -1886.7107494724692, -3943.4065155275484, -7038.765494676291, -4441.984527347628, -3510.3638184504293, -4212.253297835982, -2974.3242829232554, -10342.263918192855, -15215.279485616624, 0.01434375, -0.10800000000000001, 0.9943124999999999, 192.0, 0.0, 0.0, 0.0, 0.0, 0.0, 0.0, 0.0, 0.0, 0.0, 1.645921332736904E9, 0.0, 2022-02-27 11:22:12.736
238.0, -2277.374539062326, -5379.953131670133, -2438.9105962408303, -10963.664765794847, -1281.7607857895835, -124.94625150516649, -6021.962287659918, -2001.0399223613647, -3329.1358744067998, -7277.191552781052, -4744.850664717039, -3576.569685527049, -4531.816188313507, -3221.0204864764796, -10364.638014392616, -15275.629195645954, 0.01434375, -0.10800000000000001, 0.9943124999999999, 192.0, 0.0, 0.0, 0.0, 0.0, 0.0, 0.0, 0.0, 0.0, 0.0, 1.645921332743037E9, 0.0, 2022-02-27 11:22:12.743
240.0, -1724.6606021714929, -4968.345757525654, -2069.0115772499535, -10533.41603677464, -788.2119164719483, 233.8663022358778, -5795.852040750032, -1727.432218483951, -2573.6022083285106, -6644.41366725131, -4473.008748651594, -3414.34072427043, -4289.94796156263, -2959.72859379394, -10125.317886509643, -14662.632603959157, 0.01434375, -0.10800000000000001, 0.9943124999999999, 192.0, 0.0, 0.0, 0.0, 0.0, 0.0, 0.0, 0.0, 0.0, 0.0, 1.645921332750698E9, 0.0, 2022-02-27 11:22:12.750
242.0, -2178.177497169673, -5300.313866175874, -2412.915517439308, -10934.138111369386, -1223.422732761232, -118.50894910203804, -6085.508297146356, -2122.096970331308, -4562.035746817082, -7454.28442410045, -4583.135793582892, -3608.8679562649677, -4319.496967732545, -3141.2471105154887, -10510.527850452407, -15659.47570317694, 0.01434375, -0.10800000000000001, 0.9943124999999999, 192.0, 0.0, 0.0, 0.0, 0.0, 0.0, 0.0, 0.0, 0.0, 0.0, 1.645921332758644E9, 0.0, 2022-02-27 11:22:12.758
