%OpenBCI Raw EEG Data
%Number of channels = 16
%Sample Rate = 125 Hz
%Board = OpenBCI_GUI$BoardCytonSerialDaisy
Sample Index, EXG Channel 0, EXG Channel 1, EXG Channel 2, EXG Channel 3, EXG Channel 4, EXG Channel 5, EXG Channel 6, EXG Channel 7, EXG Channel 8, EXG Channel 9, EXG Channel 10, EXG Channel 11, EXG Channel 12, EXG Channel 13, EXG Channel 14, EXG Channel 15, Accel Channel 0, Accel Channel 1, Accel Channel 2, Other, Other, Other, Other, Other, Other, Other, Analog Channel 0, Analog Channel 1, Analog Channel 2, Timestamp, Other, Timestamp (Formatted)
0.0, -1251.1388958858129, -4625.313535370056, -2018.6530969921469, -10385.91687511407, -741.6755845159989, -120.83353052538997, -5658.411164094349, -1912.3705521071618, 0.0, 0.0, 0.0, 0.0, 0.0, 0.0, 0.0, 0.0, 0.0, 0.0, 0.0, 192.0, 0.0, 0.0, 0.0, 0.0, 0.0, 0.0, 0.0, 0.0, 0.0, 1.645921761631626E9, 0.0, 2022-02-27 11:29:21.631
236.0, -722.900119173541, -4186.995826601485, -1574.2110102428212, -9904.750872224675, -231.16174115678564, 316.3218875315055, -5267.859133226769, -1420.8109880460488, -1262.2030093911899, -5465.247388511585, -4019.670667609056, -2793.632780746553, -3390.893744336813, -2346.508484662591, -9452.798599338365, -14466.540749852747, 0.018000000000000002, -0.10200000000000001, 0.976, 192.0, 0.0, 72.0, 126.0, 104.0, 15.0, 64.0, 0.0, 0.0, 0.0, 1.645921761631629E9, 0.0, 2022-02-27 11:29:21.631
0.0, -613.9353649539191, -2289.019797923541, -1004.822671988329, -5197.920524826112, -351.50353330415885, -33.16998877167568, -2856.798810577251, -978.6264274867091, -1539.7222685482823, -3255.2410072375546, -2170.2426278880394, -1532.770876022682, -1808.2784781787966, -1336.902539360826, -4948.117428793601, -7797.16018404486, 0.017, -0.10400000000000001, 0.979, 192.0, 0.0, 64.0, 126.0, 88.0, 15.0, 88.0, 0.0, 0.0, 0.0, 1.645921761742302E9, 0.0, 2022-02-27 11:29:21.742
2.0, -1020.9159279961501, -4396.610486103355, -1789.525364580794, -10158.197302603401, -481.4342238228588, 160.01613855554325, -5418.64400132227, -1593.7687866412148, -1758.657605488015, -5899.899411189486, -4147.589701126779, -2878.055319554248, -3527.1723302808205, -2489.3137799875476, -9604.790461634453, -14858.36683015428, 0.017, -0.10400000000000001, 0.979, 192.0, 0.0, 0.0, 0.0, 0.0, 0.0, 0.0, 0.0, 0.0, 0.0, 1.645921761749885E9, 0.0, 2022-02-27 11:29:21.749
4.0, -483.0435494236409, -3973.9837019424085, -1416.6982670662721, -9758.525759998056, -2.548098867905005, 492.81126175061013, -5272.932979218123, -1462.1393635439115, -2629.0121828332167, -5693.123423233441, -3776.483687935315, -2766.542466466721, -3072.18022014859, -2124.2650895434726, -9532.12494041025, -14878.952786797618, 0.017, -0.10400000000000001, 0.979, 192.0, 0.0, 0.0, 0.0, 0.0, 0.0, 0.0, 0.0, 0.0, 0.0, 1.645921761756394E9, 0.0, 2022-02-27 11:29:21.756
6.0, -1227.6248607188297, -4573.457488233744, -1981.6386081741582, -10359.76533410136, -692.0770635696725, -32.99117481603322, -5631.1643876033295, -1849.3833362321063, -3482.0218064811, -6485.001025796059, -4147.053259259851, -2996.5195651673753, -3416.5088434825952, -2502.1883847938043, -9860.919101347818, -15626.506880105362, 0.017, -0.10400000000000001, 0.979, 192.0, 0.0, 0.0, 0.0, 0.0, 0.0, 0.0, 0.0, 0.0, 0.0, 1.645921761764291E9, 0.0, 2022-02-27 11:29:21.764
8.0, -621.4455510909023, -4079.1486596046284, -1490.3025615575984, -9830.207804466225, -125.68385907219161, 435.2331680337391, -5267.009766937467, -1389.026807430602, -1420.5204153681298, -5468.063708312954, -3915.712704147423, -2748.839884858118, -3306.135929362289, -2254.709870184645, -9437.331192175292, -14464.372630640582, 0.018000000000000002, -0.10400000000000001, 0.992, 192.0, 0.0, 72.0, 126.0, 96.0, 15.5, 0.0, 0.0, 0.0, 0.0, 1.645921761774201E9, 0.0, 2022-02-27 11:29:21.774
10.0, -870.7569087453973, -4296.988761066051, -1736.3505645216185, -10105.447185688876, -377.40920512785976, 176.75759515256826, -5553.559130854504, -1808.9043270235452, -3970.586236785202, -6293.848907214273, -3878.0276629957752, -2904.3633227781443, -3093.302618658855, -2227.016058804519, -9794.17679240427, -15588.575969764706, 0.018000000000000002, -0.10400000000000001, 0.992, 192.0, 0.0, 0.0, 0.0, 0.0, 0.0, 0.0, 0.0, 0.0, 0.0, 1.645921761787447E9, 0.0, 2022-02-27 11:29:21.787
12.0, -1040.1831317166248, -4417.688181124709, -1808.0549607342437, -10168.63556726403, -505.4176456234033, 136.7256208331133, -5432.435027651194, -1603.4247402459075, -1819.1190742396207, -5921.468844588858, -4161.023099544418, -2891.600476694164, -3537.3200222635296, -2498.634457425411, -9622.850671154341, -14890.218066003094, 0.018000000000000002, -0.10400000000000001, 0.992, 192.0, 0.0, 0.0, 0.0, 0.0, 0.0, 0.0, 0.0, 0.0, 0.0, 1.645921761794121E9, 0.0, 2022-02-27 11:29:21.794
14.0, -475.0863283975516, -3974.6319025316125, -1415.08894146549, -9753.273100051058, -4.872680291256939, 501.08140719907374, -5283.527706089939, -1465.7603461456713, -2588.8013945581192, -5683.489821373203, -3781.982217071321, -2768.0400333452267, -3080.3833103636875, -2126.1649878221738, -9533.823672988854, -14851.7060103066, 0.018000000000000002, -0.10400000000000001, 0.992, 192.0, 0.0, 0.0, 0.0, 0.0, 0.0, 0.0, 0.0, 0.0, 0.0, 1.645921761801901E9, 0.0, 2022-02-27 11:29:21.801
16.0, -1222.8192356609388, -4565.969653841216, -1980.9233523515884, -10364.749773114894, -690.0430548242397, -31.135980026242738, -5630.560890503036, -1851.5738071887265, -3504.194736980765, -6473.08754600138, -4143.968718525019, -3008.4106932175987, -3407.38933174483, -2497.8521463694747, -9866.976424095204, -15631.781891796816, 0.018000000000000002, -0.10400000000000001, 0.992, 192.0, 0.0, 0.0, 0.0, 0.0, 0.0, 0.0, 0.0, 0.0, 0.0, 1.645921761809157E9, 0.0, 2022-02-27 11:29:21.809
18.0, -631.9732227293518, -4086.4353282970583, -1495.0634831265788, -9841.227214482691, -126.17559745020837, 436.1048860674961, -5233.526853743417, -1395.7993860005602, -1408.8751565069147, -5467.370804234839, -3924.7204571629118, -2759.121687307559, -3310.9192026757246, -2263.3376435443934, -9432.637325839678, -14462.249214917329, 0.02, -0.10400000000000001, 0.988, 192.0, 0.0, 80.0, 126.0, 96.0, 15.0, 112.0, 0.0, 0.0, 0.0, 1.645921761816674E9, 0.0, 2022-02-27 11:29:21.816
20.0, -869.1475831446152, -4297.301685488425, -1731.9696226083784, -10102.116775765035, -373.56470508154695, 189.85571740337818, -5535.342459123428, -1766.815992214202, -3956.5046377783583, -6290.317331590335, -3874.3396251606496, -2901.6364099545967, -3089.7710430349166, -2230.8382071063766, -9784.02910042156, -15571.40983002303, 0.02, -0.10400000000000001, 0.988, 192.0, 0.0, 0.0, 0.0, 0.0, 0.0, 0.0, 0.0, 0.0, 0.0, 1.645921761824648E9, 0.0, 2022-02-27 11:29:21.824
22.0, -1032.047096734893, -4404.098320495882, -1800.6341815750816, -10171.608349276585, -499.6732472983894, 145.21928372613, -5427.8305682934015, -1588.2702575052092, -1825.6681353650256, -5927.83909175862, -4155.323404708315, -2891.6228284386193, -3536.6941734187812, -2496.4886899577014, -9624.23647931057, -14888.318167724392, 0.02, -0.10400000000000001, 0.988, 192.0, 0.0, 0.0, 0.0, 0.0, 0.0, 0.0, 0.0, 0.0, 0.0, 1.645921761831932E9, 0.0, 2022-02-27 11:29:21.831
24.0, -468.4031568054148, -3964.1489343820735, -1406.5282233391076, -9748.802751159996, 0.40233140019552716, 497.1475001749397, -5282.723043289548, -1464.2404275227104, -2564.9073797353963, -5665.161390919851, -3771.8121733441562, -2762.83207688714, -3082.104394686746, -2122.901633131699, -9533.51074856648, -14844.642859058722, 0.02, -0.10400000000000001, 0.988, 192.0, 0.0, 0.0, 0.0, 0.0, 0.0, 0.0, 0.0, 0.0, 0.0, 1.645921761838315E9, 0.0, 2022-02-27 11:29:21.838
26.0, -1215.1525873127684, -4558.548874682054, -1976.7659278829012, -10362.648709136094, -697.6426479390441, -41.39543073122868, -5648.531693045104, -1856.133563057609, -3517.1363970203874, -6482.318816461422, -4129.082456717784, -2996.944248312026, -3403.991866587623, -2491.4148439663463, -9872.631415442398, -15643.13657798011, 0.018000000000000002, -0.10600000000000001, 0.989, 192.0, 0.0, 64.0, 126.0, 80.0, 15.0, 120.0, 0.0, 0.0, 0.0, 1.645921761846254E9, 0.0, 2022-02-27 11:29:21.846
28.0, -637.8517315210977, -4090.5256975323796, -1501.992523907724, -9847.955089563739, -133.48461788709378, 419.0058015591862, -5243.875711426224, -1393.1395284103785, -1403.8907174933813, -5463.615711166348, -3920.0265908272972, -2760.7533646527963, -3319.1446446352775, -2260.946006887675, -9441.287450943883, -14469.535883609758, 0.018000000000000002, -0.10600000000000001, 0.989, 192.0, 0.0, 0.0, 0.0, 0.0, 0.0, 0.0, 0.0, 0.0, 0.0, 1.645921761854374E9, 0.0, 2022-02-27 11:29:21.854
30.0, -856.0718126382606, -4282.773051592476, -1723.945346348923, -10094.874810561516, -364.60165555496883, 183.01608360005423, -5541.779761526556, -1796.8343850176796, -3956.325823822716, -6289.847944956773, -3876.2171716948956, -2906.4867385013986, -3097.6835605720953, -2229.0724192944076, -9789.50527781311, -15579.523513260308, 0.018000000000000002, -0.10600000000000001, 0.989, 192.0, 0.0, 0.0, 0.0, 0.0, 0.0, 0.0, 0.0, 0.0, 0.0, 1.645921761861622E9, 0.0, 2022-02-27 11:29:21.861
32.0, -1049.7049748545855, -4414.715399112153, -1812.1229782251096, -10182.650111037507, -518.0687329851071, 122.06287647043187, -5448.7294493591135, -1602.3965600009633, -1867.331787029718, -5946.167522211972, -4162.386555956192, -2901.502299487865, -3545.2995950340746, -2503.0824545720166, -9635.613517238322, -14921.063473351416, 0.018000000000000002, -0.10600000000000001, 0.989, 192.0, 0.0, 0.0, 0.0, 0.0, 0.0, 0.0, 0.0, 0.0, 0.0, 1.645921761868938E9, 0.0, 2022-02-27 11:29:21.868
34.0, -475.0639766530963, -3965.557094282758, -1408.226955917711, -9753.004879117594, 0.08940697782122825, 492.7889100061548, -5279.772613021447, -1460.1947617762999, -2532.229129341737, -5671.330472389516, -3778.5176966807485, -2764.1508298100034, -3089.8157465238273, -2128.310755289883, -9526.894632207708, -14828.259030372981, 0.018000000000000002, -0.10600000000000001, 0.989, 192.0, 0.0, 0.0, 0.0, 0.0, 0.0, 0.0, 0.0, 0.0, 0.0, 1.64592176187703E9, 0.0, 2022-02-27 11:29:21.877
36.0, -1221.2322618046119, -4565.366156740923, -1980.9904075849543, -10366.314395226766, -692.8370228811531, -38.512055696494066, -5649.962204690243, -1859.1957520479862, -3554.933196894312, -6500.110805047847, -4131.384686396681, -2998.106539023702, -3402.0696165644667, -2496.0863585575057, -9870.977386352704, -15647.405761171076, 0.017, -0.10700000000000001, 0.9895, 192.0, 0.0, 64.0, 126.0, 80.0, 15.0, 120.0, 0.0, 0.0, 0.0, 1.645921761886452E9, 0.0, 2022-02-27 11:29:21.886
38.0, -648.1111822260835, -4090.8386219547538, -1508.4298263108524, -9852.604252410443, -147.1638854937417, 424.0796475505409, -5259.387822078207, -1403.9801244712025, -1390.5914295424736, -5466.364975734351, -3927.782646153289, -2759.8816466190397, -3326.766589494537, -2267.3609575463483, -9440.035753254384, -14461.33279339466, 0.017, -0.10700000000000001, 0.9895, 192.0, 0.0, 0.0, 0.0, 0.0, 0.0, 0.0, 0.0, 0.0, 0.0, 1.645921761892625E9, 0.0, 2022-02-27 11:29:21.892
40.0, -858.3963940616125, -4275.329920688859, -1718.558575935194, -10089.689205847884, -360.1983618972733, 200.02576113054292, -5537.041191702032, -1778.1259749085875, -3932.2082915554397, -6280.191991352081, -3863.4990290998257, -2904.028046611315, -3086.440633111076, -2216.3989801882485, -9779.156420130304, -15552.768475147304, 0.017, -0.10700000000000001, 0.9895, 192.0, 0.0, 0.0, 0.0, 0.0, 0.0, 0.0, 0.0, 0.0, 0.0, 1.645921761906626E9, 0.0, 2022-02-27 11:29:21.906
42.0, -1069.5756756753535, -4435.524873200045, -1817.26387944983, -10186.025224450257, -520.3486109195484, 130.3777254078061, -5450.986975549099, -1617.2604700637426, -1889.6611797405697, -5976.051804548718, -4168.890913592686, -2908.4983955023763, -3546.2607200456528, -2506.1222918179383, -9633.914784659719, -14919.923534384196, 0.017, -0.10700000000000001, 0.9895, 192.0, 0.0, 0.0, 0.0, 0.0, 0.0, 0.0, 0.0, 0.0, 0.0, 1.645921761914703E9, 0.0, 2022-02-27 11:29:21.914
44.0, -503.6965613003447, -3999.911725510565, -1415.08894146549, -9752.490788995123, -3.19629945710891, 498.5780118200793, -5279.727909532537, -1459.5018576981852, -2538.5323212781336, -5684.138021962407, -3791.079377064631, -2769.805821157196, -3096.521269860419, -2130.2330053130395, -9527.095797907807, -14821.374693080747, 0.017, -0.10700000000000001, 0.9895, 192.0, 0.0, 0.0, 0.0, 0.0, 0.0, 0.0, 0.0, 0.0, 0.0, 1.645921761921183E9, 0.0, 2022-02-27 11:29:21.921
46.0, -1269.199105405701, -4613.3330003420115, -1988.6123524442141, -10370.516523184362, -704.4375782534573, -47.69862266762527, -5644.262509854139, -1874.976083633433, -3583.8340024750237, -6526.463511760654, -4147.38853542668, -3018.714847411495, -3411.2338317911426, -2500.0873208150056, -9876.654729444354, -15650.512653650363, 0.0155, -0.10750000000000001, 0.98975, 192.0, 0.0, 56.0, 126.0, 80.0, 15.0, 120.0, 0.0, 0.0, 0.0, 1.645921761929227E9, 0.0, 2022-02-27 11:29:21.929
48.0, -714.6299737250774, -4169.4497072040685, -1508.0721983995675, -9857.76750537962, -144.34756569237302, 412.79201660061085, -5270.921322217146, -1414.7760170431159, -1409.679819307306, -5504.362941308373, -3943.451219016459, -2776.0196061157712, -3336.0425634434896, -2272.6806727267117, -9444.05906725634, -14463.232691673362, 0.0155, -0.10750000000000001, 0.98975, 192.0, 0.0, 0.0, 0.0, 0.0, 0.0, 0.0, 0.0, 0.0, 0.0, 1.64592176193727E9, 0.0, 2022-02-27 11:29:21.937
50.0, -953.3466045077569, -4387.714491810142, -1717.5080439457947, -10094.204258227857, -352.91169320484323, 194.19195582770777, -5549.357002896906, -1786.1949546569533, -3957.197541856473, -6304.354227108268, -3885.135517732563, -2925.6421834995967, -3090.888630257682, -2228.334811727382, -9777.837667207441, -15554.131931559079, 0.0155, -0.10750000000000001, 0.98975, 192.0, 0.0, 0.0, 0.0, 0.0, 0.0, 0.0, 0.0, 0.0, 0.0, 1.645921761943982E9, 0.0, 2022-02-27 11:29:21.943
52.0, -1213.2750407785227, -4580.721805181719, -1824.88582430909, -10192.149602431013, -513.1960526938501, 132.14351321977534, -5446.561330146948, -1613.371266528519, -1922.1382644341309, -6010.071159609694, -4197.679960451122, -2935.4545993154766, -3546.506589234661, -2515.7558936781757, -9633.132473603782, -14917.531897727478, 0.0155, -0.10750000000000001, 0.98975, 192.0, 0.0, 0.0, 0.0, 0.0, 0.0, 0.0, 0.0, 0.0, 0.0, 1.645921761951816E9, 0.0, 2022-02-27 11:29:21.951
54.0, -689.9312961019631, -4181.094966065284, -1421.190967701789, -9756.759972186086, 13.969840284566914, 509.2844974141714, -5252.995223163989, -1446.2025697472775, -2581.2241531877703, -5725.712266649279, -3838.554482287703, -2818.733789769863, -3107.250107198967, -2138.6596129726904, -9520.278515848937, -14806.779003951431, 0.0155, -0.10750000000000001, 0.98975, 192.0, 0.0, 0.0, 0.0, 0.0, 0.0, 0.0, 0.0, 0.0, 0.0, 1.645921761958878E9, 0.0, 2022-02-27 11:29:21.958
56.0, -1464.441593222808, -4805.75916835775, -1992.5015559794374, -10370.225950506443, -673.0780807826616, -15.579165885349022, -5618.44624500826, -1861.7662026603464, -3686.4061577804277, -6573.133954183335, -4193.120204582239, -3063.4406880665647, -3399.1415380408216, -2492.107748044461, -9867.848142128962, -15650.400894928087, 0.01375, -0.10675000000000001, 0.9898750000000001, 192.0, 0.0, 48.0, 126.0, 88.0, 15.0, 120.0, 0.0, 0.0, 0.0, 1.645921761967156E9, 0.0, 2022-02-27 11:29:21.967
58.0, -915.8403773117516, -4359.014851929528, -1527.5852713090505, -9868.183418295792, -134.40103940976138, 438.720040168767, -5248.65898473966, -1376.5545340245408, -1474.0975468275008, -5548.23941567414, -4005.4996616243916, -2824.5899468171533, -3339.5741390674284, -2269.5961319918792, -9430.312744416326, -14449.016982199786, 0.01375, -0.10675000000000001, 0.9898750000000001, 192.0, 0.0, 0.0, 0.0, 0.0, 0.0, 0.0, 0.0, 0.0, 0.0, 1.645921761973473E9, 0.0, 2022-02-27 11:29:21.973
60.0, -1109.4735395280766, -4530.072752245993, -1734.4283144984622, -10094.271313461222, -342.1381523773852, 219.0470956620092, -5517.952801937199, -1742.4525907579173, -4010.8864320381203, -6318.927564493128, -3933.772913667311, -2960.957939738982, -3090.8439267687713, -2221.159901757229, -9767.332347313446, -15520.470204409386, 0.01375, -0.10675000000000001, 0.9898750000000001, 192.0, 0.0, 0.0, 0.0, 0.0, 0.0, 0.0, 0.0, 0.0, 0.0, 1.645921761981506E9, 0.0, 2022-02-27 11:29:21.981
62.0, -1323.7597136211054, -4683.718643631773, -1840.5096936833495, -10198.92218100097, -509.9550497478306, 143.81112382544563, -5427.875271782312, -1588.1584987829326, -1987.360654754717, -6039.553110546245, -4246.786743019431, -2972.983178255937, -3559.3588422964626, -2514.9288791333292, -9628.170386334705, -14905.976045844085, 0.01375, -0.10675000000000001, 0.9898750000000001, 192.0, 0.0, 0.0, 0.0, 0.0, 0.0, 0.0, 0.0, 0.0, 0.0, 1.645921761989581E9, 0.0, 2022-02-27 11:29:21.989
64.0, -728.6221657540997, -4206.173623344138, -1424.9460607702806, -9757.207007075192, 12.94166003962279, 513.3972183939479, -5254.13516213121, -1435.2055114752666, -2622.641935663454, -5734.161226053385, -3864.5942645781356, -2834.3353073996673, -3109.5746886223187, -2145.633357242746, -9518.579783270334, -14805.817878939853, 0.01375, -0.10675000000000001, 0.9898750000000001, 192.0, 0.0, 0.0, 0.0, 0.0, 0.0, 0.0, 0.0, 0.0, 0.0, 1.645921761996748E9, 0.0, 2022-02-27 11:29:21.996
66.0, -1464.4862967117188, -4795.253848463756, -1996.8601461482224, -10369.711860383972, -675.8273453506644, -25.972727057066805, -5626.626983478902, -1852.1549525445644, -3718.3468006070616, -6570.898779737804, -4195.467137750046, -3063.7089090000286, -3395.677017650249, -2495.616971923944, -9868.496342718166, -15657.95578455398, 0.012875000000000001, -0.107375, 0.9899375, 192.0, 0.0, 48.0, 126.0, 80.0, 15.0, 120.0, 0.0, 0.0, 0.0, 1.645921762004103E9, 0.0, 2022-02-27 11:29:22.004
68.0, -872.4779930684559, -4303.202546024626, -1521.863224728492, -9861.097915303459, -128.768399807024, 432.43919997682576, -5251.698821985581, -1397.3863598568869, -1468.0178723356573, -5534.202520156207, -3994.256734163372, -2811.93885945545, -3336.131970421311, -2273.977073905119, -9431.76560780592, -14453.822607257678, 0.012875000000000001, -0.107375, 0.9899375, 192.0, 0.0, 0.0, 0.0, 0.0, 0.0, 0.0, 0.0, 0.0, 0.0, 1.645921762012079E9, 0.0, 2022-02-27 11:29:22.012
70.0, -1033.276442679935, -4451.461666996678, -1714.2893927442306, -10084.369490667521, -332.66101272833504, 222.66807826376896, -5512.051941400998, -1747.526436749272, -3982.3432543686936, -6289.512668789944, -3904.045093541753, -2940.729611006929, -3078.9975022074586, -2212.1297969972848, -9758.79398093152, -15524.605277133618, 0.012875000000000001, -0.107375, 0.9899375, 192.0, 0.0, 0.0, 0.0, 0.0, 0.0, 0.0, 0.0, 0.0, 0.0, 1.645921762020163E9, 0.0, 2022-02-27 11:29:22.020
72.0, -1234.486846266609, -4599.452567035266, -1820.683696351492, -10194.16125943199, -505.8199770235988, 144.52637964801548, -5431.853882295356, -1601.7036559228488, -1964.3607097102058, -6006.76310143031, -4208.140576856205, -2950.3632128671666, -3541.924481621323, -2506.882251129419, -9627.14220608976, -14916.23549654907, 0.012875000000000001, -0.107375, 0.9899375, 192.0, 0.0, 0.0, 0.0, 0.0, 0.0, 0.0, 0.0, 0.0, 0.0, 1.645921762033753E9, 0.0, 2022-02-27 11:29:22.033
74.0, -637.2482344208044, -4130.96000325203, -1405.1871186717892, -9750.054448849494, 22.284689221941143, 515.6100410950233, -5255.073935398333, -1439.027659777124, -2551.8539609734967, -5701.930010548832, -3823.2882408247283, -2811.916507710994, -3096.811842538338, -2134.6810024596457, -9508.677960476633, -14792.563294477857, 0.012875000000000001, -0.107375, 0.9899375, 192.0, 0.0, 0.0, 0.0, 0.0, 0.0, 0.0, 0.0, 0.0, 0.0, 1.645921762041846E9, 0.0, 2022-02-27 11:29:22.041
76.0, -1362.7188042067057, -4711.635972456453, -1979.4704889619934, -10364.548607414796, -677.4143192069912, -19.893052565223286, -5634.964184160732, -1855.2394932793968, -3728.941527478877, -6551.162189383768, -4154.317576207826, -3036.5515394868303, -3381.6401221323163, -2474.53927690259, -9870.530351463598, -15667.030592802836, 0.013437500000000002, -0.10668749999999999, 0.99096875, 192.0, 0.0, 56.0, 126.0, 88.0, 15.5, 0.0, 0.0, 0.0, 0.0, 1.645921762048789E9, 0.0, 2022-02-27 11:29:22.048
78.0, -807.993210314895, -4251.502961099501, -1522.220852639777, -9875.738307921685, -158.38446121030586, 407.27113572014997, -5251.587063263305, -1409.2998396515657, -1426.8683107934369, -5540.863340003889, -3984.220800902939, -2798.4607575488994, -3354.9074357637687, -2279.2297338521166, -9436.347715419259, -14459.321136393684, 0.013437500000000002, -0.10668749999999999, 0.99096875, 192.0, 0.0, 0.0, 0.0, 0.0, 0.0, 0.0, 0.0, 0.0, 0.0, 1.645921762056349E9, 0.0, 2022-02-27 11:29:22.056
80.0, -939.2873572453686, -4370.414241601735, -1691.9600000333787, -10068.32093814861, -331.29755631656127, 218.57770902844777, -5515.717627491668, -1738.0045936113113, -3927.3803147530934, -6259.293110286369, -3877.6029798511245, -2912.924040904527, -3080.6738830416066, -2221.6516401352455, -9754.07776285145, -15499.727785554862, 0.013437500000000002, -0.10668749999999999, 0.99096875, 192.0, 0.0, 0.0, 0.0, 0.0, 0.0, 0.0, 0.0, 0.0, 0.0, 1.645921762064444E9, 0.0, 2022-02-27 11:29:22.064
82.0, -1168.8621245458276, -4539.013450028116, -1816.8615480496346, -10203.101957214112, -527.1658929784171, 120.09592295836485, -5455.054993039965, -1613.7959496731698, -1999.6541142051358, -6013.647438722544, -4194.170736571638, -2932.750038236384, -3551.312214292552, -2524.9201089048515, -9642.721371975109, -14944.28693584048, 0.013437500000000002, -0.10668749999999999, 0.99096875, 192.0, 0.0, 0.0, 0.0, 0.0, 0.0, 0.0, 0.0, 0.0, 0.0, 1.64592176207243E9, 0.0, 2022-02-27 11:29:22.072
84.0, -562.6381114289894, -4062.8765896411646, -1383.193002127767, -9753.295451795513, 14.796854829413276, 506.95991599081947, -5270.116659416754, -1444.056802279568, -2473.175820490816, -5658.254701883162, -3797.4496242343935, -2783.59684748612, -3096.856546027249, -2149.924892178165, -9506.509841264467, -14777.92290185963, 0.013437500000000002, -0.10668749999999999, 0.99096875, 192.0, 0.0, 0.0, 0.0, 0.0, 0.0, 0.0, 0.0, 0.0, 0.0, 1.645921762079048E9, 0.0, 2022-02-27 11:29:22.079
86.0, -1305.744207590128, -4657.96943401926, -1961.9914247979434, -10370.807095862281, -688.031397823262, -39.562587685893504, -5651.660937268846, -1874.4619935109608, -3713.563527293626, -6546.714192237162, -4136.1679597101165, -3037.9373476430596, -3377.0580145189783, -2485.1563555188604, -9871.983214853193, -15675.211331273476, 0.014718750000000001, -0.10634374999999999, 0.989484375, 192.0, 0.0, 64.0, 126.0, 88.0, 15.0, 112.0, 0.0, 0.0, 0.0, 1.645921762086041E9, 0.0, 2022-02-27 11:29:22.086
88.0, -747.4646863299234, -4195.467137750046, -1515.0459426696234, -9874.71012767674, -164.77706012452367, 400.6103158724685, -5253.665775497649, -1391.7090167652389, -1407.9140314953365, -5513.124825134853, -3966.294701849783, -2789.3412458111343, -3350.1465141947883, -2299.011027695063, -9434.671334585111, -14457.220072414884, 0.014718750000000001, -0.10634374999999999, 0.989484375, 192.0, 0.0, 0.0, 0.0, 0.0, 0.0, 0.0, 0.0, 0.0, 0.0, 1.645921762094123E9, 0.0, 2022-02-27 11:29:22.094
90.0, -877.2389146374363, -4306.9799908375735, -1681.6111423505715, -10060.788400267173, -326.0225446251088, 216.27547934955115, -5519.9868106826325, -1756.4894862758501, -3909.5436226777583, -6231.018153550405, -3858.112258686097, -2898.95420061996, -3076.2258858950004, -2221.830454090888, -9749.540358727021, -15502.789974545238, 0.014718750000000001, -0.10634374999999999, 0.989484375, 192.0, 0.0, 0.0, 0.0, 0.0, 0.0, 0.0, 0.0, 0.0, 0.0, 1.645921762102169E9, 0.0, 2022-02-27 11:29:22.102
92.0, -1122.0799234008698, -4487.626789525365, -1814.8051875597464, -10201.805556035704, -530.9209860469086, 122.64402182626985, -5461.872275098834, -1637.600557518072, -2000.1905560720631, -6010.562897987712, -4175.752899140465, -2916.76854095084, -3546.0372026010996, -2526.8870624169185, -9643.14605511976, -14962.168331404726, 0.014718750000000001, -0.10634374999999999, 0.989484375, 192.0, 0.0, 0.0, 0.0, 0.0, 0.0, 0.0, 0.0, 0.0, 0.0, 1.645921762108627E9, 0.0, 2022-02-27 11:29:22.108
94.0, -513.8889567719647, -4013.523937883847, -1382.6565602608396, -9738.610355688377, 16.696753108114375, 510.1562154479284, -5263.500543057984, -1414.3736856429202, -2450.7346690576874, -5649.135190145396, -3783.4350804609157, -2771.1022223356035, -3094.889592515182, -2145.90157817621, -9500.474870261534, -14772.804352379366, 0.014718750000000001, -0.10634374999999999, 0.989484375, 192.0, 0.0, 0.0, 0.0, 0.0, 0.0, 0.0, 0.0, 0.0, 0.0, 1.645921762116648E9, 0.0, 2022-02-27 11:29:22.116
96.0, -1243.584006259919, -4600.5925060024865, -1953.1848374825524, -10352.702182853483, -677.0343395512509, -31.58301491534888, -5653.762001247645, -1864.135487572609, -3729.589728068081, -6493.874668344816, -4108.831776241276, -3002.2416117479343, -3358.416659643252, -2490.2749049991257, -9865.434153727789, -15680.642805176116, 0.016, -0.106, 0.988, 192.0, 0.0, 64.0, 126.0, 88.0, 15.0, 112.0, 0.0, 0.0, 0.0, 1.645921762124603E9, 0.0, 2022-02-27 11:29:22.124
98.0, -700.3695607625915, -4146.24859645946, -1505.8817274429475, -9867.825790384506, -165.64877815828063, 404.92420255234276, -5282.1418979337095, -1414.418389131831, -1376.4651270467195, -5502.977133152143, -3952.6601377320458, -2768.867047890073, -3345.385592625808, -2301.1344434183175, -9435.118369474218, -14462.025697472776, 0.016, -0.106, 0.988, 192.0, 0.0, 0.0, 0.0, 0.0, 0.0, 0.0, 0.0, 0.0, 0.0, 1.645921762131782E9, 0.0, 2022-02-27 11:29:22.131
100.0, -827.8192076467524, -4264.377565905758, -1664.310892142164, -10043.242280869757, -312.0303525960866, 226.19965388770748, -5503.044188385509, -1751.2144745843977, -3861.822648265678, -6205.134833471159, -3837.9956886763202, -2874.9260753305052, -3058.053917652836, -2202.630305603779, -9738.45389347719, -15487.031994704246, 0.016, -0.106, 0.988, 192.0, 0.0, 0.0, 0.0, 0.0, 0.0, 0.0, 0.0, 0.0, 0.0, 1.64592176213939E9, 0.0, 2022-02-27 11:29:22.139
102.0, -1071.9002570987054, -4441.716306414164, -1801.5282513532939, -10184.929988971948, -525.265994699716, 115.37970487829506, -5454.563254661948, -1634.6724789944267, -1970.3956807131387, -5988.077043065673, -4158.519704165424, -2894.1932790509795, -3534.6154611844377, -2512.9619256212623, -9636.99932539455, -14956.692154013177, 0.016, -0.106, 0.988, 192.0, 0.0, 0.0, 0.0, 0.0, 0.0, 0.0, 0.0, 0.0, 0.0, 1.645921762154464E9, 0.0, 2022-02-27 11:29:22.154
104.0, -462.3234823135713, -3960.8632279471435, -1369.2231618432, -9720.796015357497, 24.18458750064224, 517.0629044846182, -5260.259540111964, -1442.4698284232413, -2413.42960756178, -5607.628000691891, -3763.8326005736117, -2744.213073755869, -3088.139365689679, -2126.2990982889055, -9497.12210859324, -14765.741201131488, 0.016, -0.106, 0.988, 192.0, 0.0, 0.0, 0.0, 0.0, 0.0, 0.0, 0.0, 0.0, 0.0, 1.645921762161488E9, 0.0, 2022-02-27 11:29:22.161
106.0, -1194.588982413886, -4551.418668200811, -1942.3442414217284, -10338.486473379908, -666.41726093498, -28.632584647248347, -5647.659975011346, -1885.615513994159, -3724.0911989320757, -6488.554953164453, -4086.5917905082456, -2988.182364485546, -3343.262176902554, -2470.359500689447, -9868.317528762524, -15689.91877912507, 0.016, -0.10400000000000001, 0.99, 192.0, 0.0, 64.0, 126.0, 96.0, 15.0, 120.0, 0.0, 0.0, 0.0, 1.645921762168924E9, 0.0, 2022-02-27 11:29:22.168
108.0, -678.3754442185693, -4128.4789596174915, -1509.6144687669837, -9869.658633429843, -171.5496386944817, 393.3459989244937, -5260.840685467802, -1401.0073424586467, -1348.5254464775858, -5483.464060242661, -3940.0761056037077, -2756.931216350939, -3344.4691711031405, -2291.0314549245186, -9436.168901463616, -14465.803142285722, 0.016, -0.10400000000000001, 0.99, 192.0, 0.0, 0.0, 0.0, 0.0, 0.0, 0.0, 0.0, 0.0, 0.0, 1.645921762176947E9, 0.0, 2022-02-27 11:29:22.176
110.0, -777.1925064554819, -4217.014219404962, -1648.7764297457254, -10022.633972481963, -297.00998032212027, 239.99068021663194, -5516.455235058694, -1755.5730647531827, -3828.6750112384575, -6176.07756567926, -3819.399037289505, -2862.8561333246394, -3051.6836704830735, -2191.0297502314747, -9740.778474900542, -15474.939700953926, 0.016, -0.10400000000000001, 0.99, 192.0, 0.0, 0.0, 0.0, 0.0, 0.0, 0.0, 0.0, 0.0, 0.0, 1.645921762184128E9, 0.0, 2022-02-27 11:29:22.184
112.0, -1073.8895623552278, -4437.871806367852, -1818.4038184170508, -10194.071852454168, -544.779067609199, 100.24757388205218, -5473.450478726683, -1642.3167755981417, -2036.065105922831, -6008.573592731189, -4159.547884410368, -2902.0387413547924, -3535.1071995624543, -2523.9366321488183, -9656.780619237497, -14996.344148676892, 0.016, -0.10400000000000001, 0.99, 192.0, 0.0, 0.0, 0.0, 0.0, 0.0, 0.0, 0.0, 0.0, 0.0, 1.645921762191578E9, 0.0, 2022-02-27 11:29:22.191
114.0, -448.1301245844513, -3948.100381863163, -1370.5642665105186, -9714.40341644328, 20.831825832346183, 507.943392746853, -5266.7638977484585, -1454.3833082179199, -2358.757240624099, -5588.763128371612, -3770.1134407655527, -2733.73010560633, -3095.828365782305, -2131.4623512580815, -9494.417547514147, -14748.083323011795, 0.016, -0.10400000000000001, 0.99, 192.0, 0.0, 0.0, 0.0, 0.0, 0.0, 0.0, 0.0, 0.0, 0.0, 1.645921762199663E9, 0.0, 2022-02-27 11:29:22.199
116.0, -1195.9300870812044, -4555.732554880686, -1952.3354711932507, -10342.599194359684, -671.1111272705946, -37.68504115164771, -5657.897073971877, -1882.4639180259608, -3722.59363205357, -6490.14192702078, -4088.737557975955, -2978.079375991747, -3348.514836849551, -2472.01352977914, -9870.128020063403, -15689.538799469328, 0.014, -0.10200000000000001, 0.99, 192.0, 0.0, 56.0, 126.0, 104.0, 15.0, 120.0, 0.0, 0.0, 0.0, 1.645921762206513E9, 0.0, 2022-02-27 11:29:22.206
118.0, -675.000330805818, -4127.517834605913, -1517.2587653706987, -9871.491476475177, -165.5370194360041, 383.3324174085161, -5278.18563916512, -1427.2035869602666, -1346.4690859876976, -5478.859600884867, -3943.54062599428, -2755.612463428076, -3346.592586826395, -2307.1917661657058, -9434.693686329567, -14463.031525973265, 0.014, -0.10200000000000001, 0.99, 192.0, 0.0, 0.0, 0.0, 0.0, 0.0, 0.0, 0.0, 0.0, 0.0, 1.645921762213929E9, 0.0, 2022-02-27 11:29:22.213
120.0, -775.3373116656913, -4227.564242787867, -1655.1913804043986, -10028.445426040344, -297.00998032212027, 230.75940975659012, -5524.14423515132, -1753.7402217078475, -3834.8887961970327, -6178.849181991718, -3825.322249570161, -2869.85222933915, -3053.8070862063273, -2205.6254393607906, -9741.761951656576, -15476.951357954904, 0.014, -0.10200000000000001, 0.99, 192.0, 0.0, 0.0, 0.0, 0.0, 0.0, 0.0, 0.0, 0.0, 0.0, 1.645921762221328E9, 0.0, 2022-02-27 11:29:22.221
122.0, -1073.1296030437475, -4439.794056391008, -1825.7351905983915, -10207.371140405075, -544.0861635310845, 98.30297211444046, -5474.568065949448, -1639.1651796299434, -2046.481018839004, -6012.932182899975, -4167.080422291806, -2913.0134478823484, -3536.9400426077896, -2533.4137717978683, -9662.81559024043, -14999.674558600731, 0.014, -0.10200000000000001, 0.99, 192.0, 0.0, 0.0, 0.0, 0.0, 0.0, 0.0, 0.0, 0.0, 0.0, 1.645921762229294E9, 0.0, 2022-02-27 11:29:22.229
124.0, -453.9192263983758, -3957.219893600928, -1378.0297491585911, -9726.40630321578, 20.250680476508197, 511.31850615960434, -5260.572464534338, -1436.1442847423893, -2353.1246010213617, -5590.037177805564, -3775.9695978128434, -2748.1469807800036, -3097.6165053387294, -2142.124133363263, -9498.083233604817, -14744.7305613435, 0.014, -0.10200000000000001, 0.99, 192.0, 0.0, 0.0, 0.0, 0.0, 0.0, 0.0, 0.0, 0.0, 0.0, 1.645921762237298E9, 0.0, 2022-02-27 11:29:22.237
126.0, -1195.0136655585368, -4546.61304314292, -1954.5482938943262, -10346.868377550647, -672.5416389157342, -35.874549850767835, -5658.925254216821, -1885.816679694257, -3744.9900799977877, -6493.405281711255, -4089.8104417098098, -2994.9996465444146, -3342.4351623577077, -2477.042672281584, -9877.057060844549, -15695.707880938993, 0.014, -0.10400000000000001, 0.984, 192.0, 0.0, 56.0, 126.0, 96.0, 15.0, 96.0, 0.0, 0.0, 0.0, 1.645921762243947E9, 0.0, 2022-02-27 11:29:22.243
128.0, -675.2461999948264, -4115.425540855592, -1519.7174572607826, -9872.072621831016, -166.29697874748456, 392.47428089073674, -5268.306168115874, -1416.7206188107275, -1338.3330510059657, -5471.707042659169, -3938.1315038360963, -2756.8194576286623, -3336.266080888043, -2306.7447312765994, -9438.784055564887, -14463.836188773656, 0.014, -0.10400000000000001, 0.984, 192.0, 0.0, 0.0, 0.0, 0.0, 0.0, 0.0, 0.0, 0.0, 0.0, 1.645921762251858E9, 0.0, 2022-02-27 11:29:22.251
130.0, -787.9213437940292, -4228.368905588259, -1659.5723223176387, -10030.434731296866, -292.5172796866035, 243.65636630730228, -5496.9198104047555, -1737.0658203441883, -3819.2202233338626, -6183.6324553051545, -3824.4728832808596, -2861.9397118019715, -3047.995632647948, -2192.3932066432485, -9735.861091120374, -15466.15546538299, 0.014, -0.10400000000000001, 0.984, 192.0, 0.0, 0.0, 0.0, 0.0, 0.0, 0.0, 0.0, 0.0, 0.0, 1.645921762259887E9, 0.0, 2022-02-27 11:29:22.259
132.0, -1088.5523067179092, -4460.558826989988, -1833.5359494132936, -10211.796785807228, -535.8160180826209, 99.86759422631195, -5456.932539574211, -1649.46933382384, -2062.4625161245485, -6051.131314174094, -4183.6877684221, -2929.821959712739, -3543.7573246666584, -2528.943422906807, -9663.284976873992, -15003.340244691402, 0.014, -0.10400000000000001, 0.984, 192.0, 0.0, 0.0, 0.0, 0.0, 0.0, 0.0, 0.0, 0.0, 0.0, 1.645921762267166E9, 0.0, 2022-02-27 11:29:22.267
134.0, -453.5168949981803, -3948.815637685733, -1379.0579294035351, -9726.898041593795, 33.371154471773444, 521.846177798054, -5244.65802248216, -1425.2813369371102, -2350.509446920091, -5600.184869788274, -3779.9035048369774, -2757.1100303065814, -3093.4814326144974, -2145.476895031559, -9491.847096901787, -14741.86953805322, 0.014, -0.10400000000000001, 0.984, 192.0, 0.0, 0.0, 0.0, 0.0, 0.0, 0.0, 0.0, 0.0, 0.0, 1.645921762281499E9, 0.0, 2022-02-27 11:29:22.281
136.0, -1195.23718300309, -4541.695659362753, -1956.5375991508483, -10347.963613028958, -655.0849264961394, -26.17389275716457, -5631.991402148175, -1868.2482085523854, -3763.5867313846034, -6486.722110119118, -4087.061177141807, -3010.869385107683, -3328.8453017288807, -2463.206942463749, -9868.630453184898, -15694.187962316033, 0.012, -0.106, 0.984, 192.0, 0.0, 48.0, 126.0, 88.0, 15.0, 96.0, 0.0, 0.0, 0.0, 1.645921762289461E9, 0.0, 2022-02-27 11:29:22.289
138.0, -694.1557758040161, -4130.021229984907, -1531.2286056552657, -9879.783973668096, -174.88004861832246, 387.8027662995775, -5257.778496477425, -1417.2794124221102, -1340.5905771959517, -5467.571969934937, -3951.7213644649228, -2780.64641721802, -3346.7490490375817, -2320.7145715611664, -9434.671334585111, -14460.930461994465, 0.012, -0.106, 0.984, 192.0, 0.0, 0.0, 0.0, 0.0, 0.0, 0.0, 0.0, 0.0, 0.0, 1.645921762296114E9, 0.0, 2022-02-27 11:29:22.296
140.0, -776.4325471440014, -4231.162873645171, -1652.8444472365913, -10019.12474860248, -275.0605672670087, 251.77004954457874, -5506.732226220635, -1736.015288354789, -3813.207604075385, -6180.9949494594275, -3828.8314734496444, -2864.577217647698, -3047.369783803199, -2218.0306575334857, -9730.608431173378, -15457.192415856412, 0.012, -0.106, 0.984, 192.0, 0.0, 0.0, 0.0, 0.0, 0.0, 0.0, 0.0, 0.0, 0.0, 1.645921762304196E9, 0.0, 2022-02-27 11:29:22.304
142.0, -1091.010998607993, -4463.799829936008, -1837.5145599263383, -10211.439157895942, -541.068678029618, 107.66835304121412, -5456.150228518275, -1642.8979209539798, -2082.735548345512, -6068.029232982306, -4177.406928230158, -2918.6237357406303, -3536.0683245740324, -2543.36029808048, -9663.463790829634, -15010.336340705913, 0.012, -0.106, 0.984, 192.0, 0.0, 0.0, 0.0, 0.0, 0.0, 0.0, 0.0, 0.0, 0.0, 1.645921762312164E9, 0.0, 2022-02-27 11:29:22.312
144.0, -462.88227592495394, -3966.607626272157, -1385.4952318066637, -9728.68618115022, 27.716163124580756, 524.8189598106098, -5243.9874701485005, -1426.0636479930458, -2340.339403192926, -5607.672704180802, -3778.361234469561, -2754.1148965495704, -3102.2433164409777, -2153.6129300132907, -9489.723681178533, -14734.314648427326, 0.012, -0.106, 0.984, 192.0, 0.0, 0.0, 0.0, 0.0, 0.0, 0.0, 0.0, 0.0, 0.0, 1.645921762319369E9, 0.0, 2022-02-27 11:29:22.319
146.0, -1192.2196975016234, -4543.1261710078925, -1956.1799712395634, -10347.605985117672, -648.0888304816283, -18.462540920083633, -5624.905899155843, -1917.3773428651505, -3803.3281330261393, -6524.250689059579, -4079.8192119382875, -3000.766396613884, -3326.6324790278054, -2465.732689587199, -9869.14454330737, -15708.806003189804, 0.012, -0.10200000000000001, 0.986, 192.0, 0.0, 48.0, 126.0, 104.0, 15.0, 104.0, 0.0, 0.0, 0.0, 1.645921762326778E9, 0.0, 2022-02-27 11:29:22.326
148.0, -710.8525289121305, -4150.651890117156, -1549.892312275447, -9889.082299361504, -193.94608663869937, 382.41599588584853, -5273.022386195945, -1412.0491042195683, -1354.9403971362588, -5498.126804605342, -3965.1547628825624, -2789.5647632556875, -3362.7976015564923, -2340.697031104211, -9441.689782344078, -14479.974148270387, 0.012, -0.10200000000000001, 0.986, 192.0, 0.0, 0.0, 0.0, 0.0, 0.0, 0.0, 0.0, 0.0, 0.0, 1.645921762333752E9, 0.0, 2022-02-27 11:29:22.333
150.0, -781.2158204574372, -4230.246452122504, -1656.5548368161724, -10008.954704875316, -279.8214888359891, 258.72144207017925, -5488.2920370450065, -1715.3622764780853, -3794.1639177994634, -6159.671385249065, -3824.070551880664, -2864.5325141587873, -3056.0199089074026, -2217.225994733095, -9732.731846896631, -15437.031142357726, 0.012, -0.10200000000000001, 0.986, 192.0, 0.0, 0.0, 0.0, 0.0, 0.0, 0.0, 0.0, 0.0, 0.0, 1.645921762341832E9, 0.0, 2022-02-27 11:29:22.341
152.0, -1104.6679144701857, -4455.686146698731, -1846.6787751530142, -10213.987256763847, -554.2562072582492, 92.737387745069, -5462.118144287842, -1645.2001506328763, -2118.8559673852883, -6056.093401443172, -4178.770384641932, -2926.2009771109792, -3547.8476939019793, -2559.565312810578, -9671.264549644537, -15022.4956896896, 0.012, -0.10200000000000001, 0.986, 192.0, 0.0, 0.0, 0.0, 0.0, 0.0, 0.0, 0.0, 0.0, 0.0, 1.645921762350294E9, 0.0, 2022-02-27 11:29:22.350
154.0, -479.4672703107918, -3978.677568278023, -1386.411653329331, -9726.518061938055, 15.601517629804329, 513.8666050275094, -5251.698821985581, -1427.2482904491771, -2319.9993157385966, -5612.925364127799, -3782.1610310269634, -2760.485143719333, -3115.095569502779, -2168.3203778648826, -9493.098794591284, -14726.223316934505, 0.012, -0.10200000000000001, 0.986, 192.0, 0.0, 0.0, 0.0, 0.0, 0.0, 0.0, 0.0, 0.0, 0.0, 1.64592176235643E9, 0.0, 2022-02-27 11:29:22.356
156.0, -1221.9028141382712, -4583.940456383283, -1962.5278666648708, -10348.701220595984, -669.5465051587231, -33.97465157206673, -5634.941832416276, -1898.3113048447735, -3827.602127504603, -6521.568479724941, -4091.419767310592, -2997.145414012124, -3338.903586733769, -2487.3915299643913, -9880.208656812747, -15716.427948049064, 0.008, -0.10200000000000001, 0.99, 192.0, 0.0, 32.0, 126.0, 104.0, 15.0, 120.0, 0.0, 0.0, 0.0, 1.645921762364393E9, 0.0, 2022-02-27 11:29:22.364
158.0, -741.0273839267951, -4172.131916538706, -1545.824294784581, -9895.161973853346, -192.02383661554296, 379.73378655121167, -5265.981586692523, -1418.3075926670545, -1358.4943245046527, -5514.085950146431, -3973.424908331026, -2781.1381555960365, -3369.391366170808, -2337.6124903693785, -9443.857901556243, -14472.77688655578, 0.008, -0.10200000000000001, 0.99, 192.0, 0.0, 0.0, 0.0, 0.0, 0.0, 0.0, 0.0, 0.0, 0.0, 1.645921762372404E9, 0.0, 2022-02-27 11:29:22.372
160.0, -802.382922456613, -4253.380507633747, -1642.048554664678, -10008.530021730665, -269.11500324189706, 255.1004594684195, -5492.203592324686, -1726.7840178947472, -3814.7275226983456, -6160.36428932718, -3834.084133396642, -2893.008636594848, -3054.5446937733527, -2210.6769336076895, -9730.519024195555, -15444.138997094513, 0.008, -0.10200000000000001, 0.99, 192.0, 0.0, 0.0, 0.0, 0.0, 0.0, 0.0, 0.0, 0.0, 0.0, 1.645921762379138E9, 0.0, 2022-02-27 11:29:22.379
162.0, -1178.428671172699, -4547.551816410043, -1851.1714757885309, -10226.660695870007, -563.4204224849251, 77.8734776822898, -5484.492240487604, -1680.8958865280017, -2169.1697441541846, -6085.798869824275, -4193.388425515703, -2932.951203936482, -3552.0721736040323, -2565.779097769153, -9681.076965460416, -15052.514082493077, 0.008, -0.10200000000000001, 0.99, 192.0, 0.0, 0.0, 0.0, 0.0, 0.0, 0.0, 0.0, 0.0, 0.0, 1.645921762387065E9, 0.0, 2022-02-27 11:29:22.387
164.0, -565.0073963412519, -4059.099144828218, -1379.5943712704625, -9717.77852985603, 32.20886376009748, 519.6110033525233, -5255.342156331797, -1434.1326277414119, -2317.920603504253, -5604.29759076805, -3796.5779062006363, -2762.0050623422935, -3115.5873078807963, -2160.184342883151, -9490.34953002328, -14716.813232518822, 0.009000000000000001, -0.10400000000000001, 0.989, 192.0, 0.0, 40.0, 126.0, 88.0, 15.0, 112.0, 0.0, 0.0, 0.0, 1.645921762401053E9, 0.0, 2022-02-27 11:29:22.401
166.0, -1363.1434873513565, -4710.384274766955, -1969.456907446016, -10350.623470619139, -667.3783859465583, -27.15736951319808, -5666.50249558717, -1908.3695898496617, -3904.2909627307613, -6553.8443987184055, -4109.144700663651, -3011.8081583748053, -3333.1144849198445, -2467.3196634435253, -9888.411747027845, -15729.63782902215, 0.009000000000000001, -0.10400000000000001, 0.989, 192.0, 0.0, 0.0, 0.0, 0.0, 0.0, 0.0, 0.0, 0.0, 0.0, 1.64592176240879E9, 0.0, 2022-02-27 11:29:22.408
168.0, -936.0463542993492, -4365.899189221763, -1563.9739112822904, -9909.86942170494, -197.41060702927197, 375.21873417123965, -5258.47140055554, -1401.2979151365657, -1390.993760942669, -5554.408497143805, -4023.1128362551735, -2816.856243235617, -3389.6867501362267, -2343.5580543944902, -9446.406000424147, -14465.847845774633, 0.009000000000000001, -0.10400000000000001, 0.989, 192.0, 0.0, 0.0, 0.0, 0.0, 0.0, 0.0, 0.0, 0.0, 0.0, 1.645921762416699E9, 0.0, 2022-02-27 11:29:22.416
170.0, -1002.1181109092369, -4441.649251180798, -1657.2253891498315, -10013.581515977565, -258.05088973652005, 272.2889509545506, -5476.8926473728, -1718.268003257275, -3885.8954770440437, -6222.859766824218, -3893.740939347856, -2930.9618986799596, -3068.916865458115, -2214.7896545874664, -9722.338285724913, -15431.934944621915, 0.009000000000000001, -0.10400000000000001, 0.989, 192.0, 0.0, 0.0, 0.0, 0.0, 0.0, 0.0, 0.0, 0.0, 0.0, 1.64592176242467E9, 0.0, 2022-02-27 11:29:22.424
172.0, -1372.866496189415, -4724.734094707263, -1888.1636128620642, -10251.851111871138, -575.9373993798971, 80.98037016157748, -5473.9422171047, -1669.3847381335186, -2272.568914004435, -6159.447867804512, -4268.244417696526, -2996.3854547006435, -3581.509421051672, -2572.529324594656, -9688.743613808587, -15067.176826855759, 0.009000000000000001, -0.10400000000000001, 0.989, 192.0, 0.0, 0.0, 0.0, 0.0, 0.0, 0.0, 0.0, 0.0, 0.0, 1.645921762431287E9, 0.0, 2022-02-27 11:29:22.431
174.0, -695.3627700046027, -4179.150364297672, -1394.2794673775993, -9730.720189895654, 23.67049737817018, 531.4797796582914, -5236.499635755973, -1407.869328006426, -2353.1693045102725, -5639.501588285159, -3857.0170232077867, -2814.486958323355, -3141.33651749331, -2154.372889324771, -9488.87431488923, -14700.652921277633, 0.0105, -0.10500000000000001, 0.9864999999999999, 192.0, 0.0, 48.0, 126.0, 88.0, 15.0, 96.0, 0.0, 0.0, 0.0, 1.64592176243942E9, 0.0, 2022-02-27 11:29:22.439
176.0, -1422.4873688801968, -4761.614473058519, -1976.4082999716163, -10352.366906686653, -668.1159935135834, -28.744343369524884, -5641.714410986235, -1885.5037552718825, -3957.6892802344896, -6573.1563059277905, -4140.414791156625, -3049.8731791821933, -3339.9764704676236, -2469.353672188958, -9885.170744081825, -15732.364741845697, 0.0105, -0.10500000000000001, 0.9864999999999999, 192.0, 0.0, 0.0, 0.0, 0.0, 0.0, 0.0, 0.0, 0.0, 0.0, 1.645921762447483E9, 0.0, 2022-02-27 11:29:22.447
178.0, -919.8636913137069, -4345.112066878327, -1557.6930710903491, -9894.62553198642, -194.5942872279033, 390.2167547007507, -5253.0399266529, -1406.282354150099, -1392.51367956563, -5548.23941567414, -4027.3149642127714, -2813.2352606338577, -3391.3631309703746, -2335.600833368401, -9441.82389281081, -14452.14622642353, 0.0105, -0.10500000000000001, 0.9864999999999999, 192.0, 0.0, 0.0, 0.0, 0.0, 0.0, 0.0, 0.0, 0.0, 0.0, 1.645921762454392E9, 0.0, 2022-02-27 11:29:22.454
180.0, -928.6255751401873, -4366.77090725552, -1636.7511912287703, -9994.247257023724, -253.71465131219045, 285.4541284387265, -5467.706080401669, -1705.7063228733925, -3848.9256917149655, -6176.189324401537, -3863.1861046774516, -2907.2690495573343, -3055.5505222738416, -2178.5574768254137, -9720.147814768294, -15416.981627581315, 0.0105, -0.10500000000000001, 0.9864999999999999, 192.0, 0.0, 0.0, 0.0, 0.0, 0.0, 0.0, 0.0, 0.0, 0.0, 1.645921762461033E9, 0.0, 2022-02-27 11:29:22.461
182.0, -1281.9843032341366, -4646.3465269025, -1863.8002114057795, -10233.634440140062, -575.1103848350507, 90.72573074409136, -5477.1385165618085, -1656.823057749636, -2230.8158553619214, -6127.2837075333255, -4225.440827064613, -2962.656672317585, -3562.957473153767, -2567.7907547701307, -9688.67655857522, -15057.476169762156, 0.0105, -0.10500000000000001, 0.9864999999999999, 192.0, 0.0, 0.0, 0.0, 0.0, 0.0, 0.0, 0.0, 0.0, 0.0, 1.645921762469055E9, 0.0, 2022-02-27 11:29:22.469
184.0, -606.5145857947572, -4109.301162874837, -1380.3319788374877, -9717.242087989103, 28.520825924971813, 536.2183494828164, -5233.325688043319, -1403.1978134152669, -2287.0975479003846, -5609.818471648511, -3817.879118666544, -2779.3947195285227, -3127.6348981422066, -2160.832543472355, -9480.559465951857, -14680.536351267858, 0.01125, -0.10650000000000001, 0.98825, 192.0, 0.0, 48.0, 126.0, 80.0, 15.0, 120.0, 0.0, 0.0, 0.0, 1.645921762477005E9, 0.0, 2022-02-27 11:29:22.477
186.0, -1329.54881543503, -4688.971303578771, -1969.4122039571052, -10345.124941483135, -676.4084907065023, -22.91053806668974, -5651.392716335383, -1894.7573774763798, -3942.870073660621, -6568.77536401455, -4109.703494275033, -3024.5486527143303, -3333.4050575977635, -2472.237047223693, -9883.270845803125, -15732.655314523616, 0.01125, -0.10650000000000001, 0.98825, 192.0, 0.0, 0.0, 0.0, 0.0, 0.0, 0.0, 0.0, 0.0, 0.0, 1.645921762484205E9, 0.0, 2022-02-27 11:29:22.484
188.0, -839.3750595301461, -4271.552475875911, -1557.5813123680728, -9898.648845988375, -204.89844142179984, 374.88345800441004, -5271.658929784171, -1427.4271044048196, -1349.5536267225298, -5539.0081452140985, -4005.2090889464725, -2793.6551324910083, -3393.9559333271905, -2344.3850689393366, -9441.712134088533, -14463.612671329103, 0.01125, -0.10650000000000001, 0.98825, 192.0, 0.0, 0.0, 0.0, 0.0, 0.0, 0.0, 0.0, 0.0, 0.0, 1.645921762491652E9, 0.0, 2022-02-27 11:29:22.491
190.0, -842.9960421319058, -4293.904220331218, -1626.469388779329, -9984.50189644121, -242.1140959398861, 283.5542301600254, -5469.740089147102, -1705.1251775175547, -3794.5215457107483, -6154.9328154245395, -3839.8285317216555, -2875.373110219611, -3052.913016428115, -2194.6507328332345, -9709.866012318851, -15408.689130388395, 0.01125, -0.10650000000000001, 0.98825, 192.0, 0.0, 0.0, 0.0, 0.0, 0.0, 0.0, 0.0, 0.0, 0.0, 1.645921762499596E9, 0.0, 2022-02-27 11:29:22.499
192.0, -1220.9193373822377, -4575.580903956999, -1865.297778284285, -10241.815178610705, -572.3387685225927, 91.57509703339304, -5481.206534052674, -1665.4061276204739, -2230.1005995393516, -6131.2176145574595, -4214.980210659529, -2952.531332079331, -3555.9166736503453, -2561.040527944628, -9683.58036083941, -15074.351736825913, 0.01125, -0.10650000000000001, 0.98825, 192.0, 0.0, 0.0, 0.0, 0.0, 0.0, 0.0, 0.0, 0.0, 0.0, 1.645921762506729E9, 0.0, 2022-02-27 11:29:22.506
194.0, -549.1823612668945, -4042.2459295089166, -1378.1638596253229, -9719.812538601464, 34.37698297226226, 530.7421720912662, -5236.745504944981, -1411.9373454972917, -2265.081079611907, -5586.01386380361, -3810.7042086963907, -2767.3694810115676, -3126.0032207969693, -2152.2047701126066, -9472.132858292205, -14682.816229202299, 0.011625, -0.10625000000000001, 0.9901249999999999, 192.0, 0.0, 48.0, 126.0, 88.0, 15.5, 0.0, 0.0, 0.0, 0.0, 1.645921762514259E9, 0.0, 2022-02-27 11:29:22.514
196.0, -1276.6422363093182, -4626.878157481928, -1961.320872464284, -10338.419418146541, -663.7350516003432, -21.2118054880864, -5652.778524491611, -1889.7282349739355, -3940.389030026082, -6554.269081863056, -4098.617029025201, -3020.1677108010904, -3326.6995342611713, -2462.0670034965283, -9879.918084134828, -15736.365704103197, 0.011625, -0.10625000000000001, 0.9901249999999999, 192.0, 0.0, 0.0, 0.0, 0.0, 0.0, 0.0, 0.0, 0.0, 0.0, 1.645921762529254E9, 0.0, 2022-02-27 11:29:22.529
198.0, -811.8153586167525, -4244.149237173705, -1562.275178703687, -9910.517622294143, -218.77887472854553, 364.467545088237, -5284.108851445777, -1433.6855928523057, -1340.389411495854, -5541.869168504378, -4004.717350568456, -2792.0458068902262, -3405.7129509106817, -2354.599816155412, -9450.205796981549, -14470.966395254898, 0.011625, -0.10625000000000001, 0.9901249999999999, 192.0, 0.0, 0.0, 0.0, 0.0, 0.0, 0.0, 0.0, 0.0, 0.0, 1.645921762536464E9, 0.0, 2022-02-27 11:29:22.536
200.0, -794.8503845751744, -4246.093838941317, -1618.2886503086866, -9973.370727702466, -234.827427247456, 293.4113494648158, -5473.22696128213, -1712.0318665542445, -3759.2504929602737, -6150.730687466942, -3833.7041537409013, -2877.0718427982147, -3054.075307139791, -2192.236744432061, -9709.709550107664, -15394.898104059472, 0.011625, -0.10625000000000001, 0.9901249999999999, 192.0, 0.0, 0.0, 0.0, 0.0, 0.0, 0.0, 0.0, 0.0, 0.0, 1.645921762543846E9, 0.0, 2022-02-27 11:29:22.543
202.0, -1187.2799619770005, -4547.216540243214, -1876.496002256394, -10246.151417035035, -583.4028820279697, 72.84433517984571, -5496.696292960202, -1675.4197091364515, -2271.1384023592955, -6123.595669698199, -4213.057960636373, -2952.6877942905185, -3565.8855516774124, -2569.690653048832, -9701.081776747917, -15099.765670271598, 0.011625, -0.10625000000000001, 0.9901249999999999, 192.0, 0.0, 0.0, 0.0, 0.0, 0.0, 0.0, 0.0, 0.0, 0.0, 1.645921762551986E9, 0.0, 2022-02-27 11:29:22.551
204.0, -509.8209392810988, -4009.1206442261514, -1377.2027346137447, -9718.717303123154, 42.35655574280688, 532.0162215252187, -5222.105112326755, -1401.0073424586467, -2187.699340307634, -5574.525067153581, -3802.165842314463, -2766.050728088704, -3132.61933715574, -2167.7615842535, -9472.825762370321, -14661.179740569562, 0.012812500000000001, -0.10412500000000001, 0.9910625, 192.0, 0.0, 56.0, 126.0, 104.0, 15.5, 0.0, 0.0, 0.0, 0.0, 1.645921762559862E9, 0.0, 2022-02-27 11:29:22.559
206.0, -1234.4644945221537, -4591.33888379799, -1957.9234073070775, -10342.688601337506, -649.8769700380528, -25.771561356969045, -5645.536559288092, -1894.1538803760864, -3924.1393118070737, -6560.3487563549, -4080.8473921832315, -3009.3271147402666, -3313.5120050325404, -2454.400355148358, -9879.538104479088, -15736.321000614287, 0.012812500000000001, -0.10412500000000001, 0.9910625, 192.0, 0.0, 0.0, 0.0, 0.0, 0.0, 0.0, 0.0, 0.0, 0.0, 1.645921762566504E9, 0.0, 2022-02-27 11:29:22.566
208.0, -761.2780644033032, -4195.713006939055, -1554.7426408222486, -9909.489442049198, -203.892612921311, 361.2935973755834, -5286.701653802593, -1439.7205638552384, -1304.0231232670694, -5524.94889795171, -3984.489021836403, -2787.3966440435224, -3390.0220263030565, -2351.403516698303, -9443.992012022974, -14471.949872010931, 0.012812500000000001, -0.10412500000000001, 0.9910625, 192.0, 0.0, 0.0, 0.0, 0.0, 0.0, 0.0, 0.0, 0.0, 0.0, 1.64592176257451E9, 0.0, 2022-02-27 11:29:22.574
210.0, -740.9826804378845, -4198.372864529236, -1601.5471937116617, -9963.82653282005, -223.1374648973304, 299.7145414012124, -5496.8974586603, -1702.5770786496496, -3717.3633238510283, -6111.279858503325, -3803.842223148611, -2849.1321622290807, -3038.943176143548, -2187.7216920520896, -9709.240163474104, -15397.982644794303, 0.012812500000000001, -0.10412500000000001, 0.9910625, 192.0, 0.0, 0.0, 0.0, 0.0, 0.0, 0.0, 0.0, 0.0, 0.0, 1.645921762581435E9, 0.0, 2022-02-27 11:29:22.581
212.0, -1161.687214575674, -4519.2321561851695, -1875.2890080558072, -10245.637326912562, -581.2347628158049, 63.94834088663351, -5478.904304373777, -1688.3613691760743, -2282.1354606313066, -6141.6111757291765, -4198.596381973789, -2939.7014307619847, -3556.7436881951917, -2569.3106733930917, -9707.250858217581, -15119.457557136722, 0.012812500000000001, -0.10412500000000001, 0.9910625, 192.0, 0.0, 0.0, 0.0, 0.0, 0.0, 0.0, 0.0, 0.0, 0.0, 1.645921762589645E9, 0.0, 2022-02-27 11:29:22.589
214.0, -482.12712790097333, -3980.845687490188, -1377.8732869474038, -9717.175032755737, 27.202073002108694, 515.9229655173976, -5257.242054610498, -1430.3104794395542, -2211.794520830455, -5583.242247491151, -3798.231935290329, -2756.931216350939, -3132.306412733366, -2166.822810986377, -9478.950140351075, -14685.029051903375, 0.01440625, -0.1040625, 0.99153125, 192.0, 0.0, 64.0, 126.0, 96.0, 15.5, 0.0, 0.0, 0.0, 0.0, 1.64592176259628E9, 0.0, 2022-02-27 11:29:22.596
216.0, -1207.6647529202405, -4566.684909663786, -1952.357822937706, -10335.089008222702, -666.6854818684437, -28.744343369524884, -5653.40437333636, -1923.2558516568963, -3898.5018609168364, -6525.10005534888, -4074.7230142024773, -2993.725597110462, -3319.189348124188, -2462.2234657077156, -9889.730499950707, -15739.718465771493, 0.01440625, -0.1040625, 0.99153125, 192.0, 0.0, 0.0, 0.0, 0.0, 0.0, 0.0, 0.0, 0.0, 0.0, 1.64592176260597E9, 0.0, 2022-02-27 11:29:22.605
218.0, -755.8689422451189, -4191.086195836806, -1561.9175507924022, -9915.457357818766, -235.4756278366599, 357.78437349610016, -5277.202162409087, -1437.7759620876268, -1306.9288500462592, -5519.696238004713, -3987.5959143156906, -2781.0711003626707, -3403.544831698517, -2357.4608394456914, -9455.816084839831, -14476.420220901993, 0.01440625, -0.1040625, 0.99153125, 192.0, 0.0, 0.0, 0.0, 0.0, 0.0, 0.0, 0.0, 0.0, 0.0, 1.645921762612137E9, 0.0, 2022-02-27 11:29:22.612
220.0, -715.255822569826, -4173.271855505926, -1593.4111587299299, -9955.288166438124, -232.05581093499794, 304.1848902922738, -5472.824629881934, -1722.7830556372471, -3703.572297522104, -6108.195317768493, -3801.3164760251616, -2848.70747908443, -3044.4864087684646, -2190.6944740646454, -9714.381064698824, -15386.471496399821, 0.01440625, -0.1040625, 0.99153125, 192.0, 0.0, 0.0, 0.0, 0.0, 0.0, 0.0, 0.0, 0.0, 0.0, 1.645921762618697E9, 0.0, 2022-02-27 11:29:22.618
222.0, -1146.8233045128948, -4502.960086221706, -1873.9702551329442, -10250.442951970454, -605.0393706607068, 58.80743966191288, -5521.66319151678, -1702.8452995831133, -2298.5639928059572, -6130.770579668353, -4190.661512692155, -2938.3603260946666, -3557.3248335510298, -2574.6303885734546, -9722.025361302538, -15136.824862578496, 0.01440625, -0.1040625, 0.99153125, 192.0, 0.0, 0.0, 0.0, 0.0, 0.0, 0.0, 0.0, 0.0, 0.0, 1.645921762626725E9, 0.0, 2022-02-27 11:29:22.626
224.0, -470.3254068285712, -3965.0206524158307, -1372.352406066943, -9716.504480422078, 19.55777639839368, 523.7684278212104, -5232.297507798375, -1422.733238069205, -2143.4875897750367, -5556.286043678051, -3791.5711154426476, -2747.029393557238, -3141.3812209822204, -2171.2931598774385, -9481.341777007792, -14665.180702827061, 0.013203125, -0.10603125, 0.990765625, 192.0, 0.0, 48.0, 126.0, 80.0, 15.0, 120.0, 0.0, 0.0, 0.0, 1.645921762634793E9, 0.0, 2022-02-27 11:29:22.634
226.0, -1191.392682956777, -4551.217502500714, -1945.9875757679436, -10335.468987878441, -669.5018016698125, -26.062134034888036, -5651.862102968944, -1900.9264589460445, -3942.7806666828, -6534.510139764565, -4060.0826215842512, -2990.6187046311743, -3310.583926508895, -2460.01064300664, -9888.881133661405, -15751.363724632709, 0.013203125, -0.10603125, 0.990765625, 192.0, 0.0, 0.0, 0.0, 0.0, 0.0, 0.0, 0.0, 0.0, 0.0, 1.645921762648556E9, 0.0, 2022-02-27 11:29:22.648
228.0, -747.867017730119, -4183.821878888832, -1562.5210478926956, -9917.089035164003, -235.4756278366599, 355.5044955616588, -5303.443110399618, -1447.8789505814257, -1321.5021874311194, -5542.204444671207, -3988.6017428161795, -2781.6522457185088, -3404.48360496564, -2364.2557697601046, -9462.409849454147, -14489.652453619536, 0.013203125, -0.10603125, 0.990765625, 192.0, 0.0, 0.0, 0.0, 0.0, 0.0, 0.0, 0.0, 0.0, 0.0, 1.645921762656627E9, 0.0, 2022-02-27 11:29:22.656
230.0, -709.1537963335272, -4167.885085092197, -1589.7454726392596, -9951.242500691713, -227.00431668809853, 302.2849920135727, -5464.912112344756, -1697.8608605695797, -3685.333274046573, -6098.5393641638, -3802.165842314463, -2845.3100139272233, -3051.370746060699, -2198.7187503241003, -9712.078835019927, -15383.163438220436, 0.013203125, -0.10603125, 0.990765625, 192.0, 0.0, 0.0, 0.0, 0.0, 0.0, 0.0, 0.0, 0.0, 0.0, 1.645921762664526E9, 0.0, 2022-02-27 11:29:22.664
232.0, -1136.206225896624, -4494.712292517697, -1871.4445080094945, -10247.917204847003, -609.3979608294918, 56.6393204497481, -5524.345400851417, -1710.690761886926, -2343.535702650035, -6148.495513021411, -4183.4195474886355, -2940.528445306831, -3558.218903329242, -2578.161964197393, -9726.83098636043, -15156.025011065605, 0.013203125, -0.10603125, 0.990765625, 192.0, 0.0, 0.0, 0.0, 0.0, 0.0, 0.0, 0.0, 0.0, 0.0, 1.645921762671496E9, 0.0, 2022-02-27 11:29:22.671
234.0, -469.5877992615461, -3964.97594892692, -1376.934513680281, -9719.566669412456, 7.666648348170322, 518.4040091519367, -5232.230452565009, -1433.0373922631018, -2118.6548016851907, -5548.172360440774, -3793.336903254617, -2740.1003527760927, -3154.43463974412, -2184.927723995176, -9481.140611307694, -14661.04563010283, 0.012, -0.106, 0.992, 192.0, 0.0, 48.0, 126.0, 88.0, 15.5, 0.0, 0.0, 0.0, 0.0, 1.645921762679386E9, 0.0, 2022-02-27 11:29:22.679
236.0, -1177.8698775613163, -4538.320545950001, -1943.841808300234, -10330.193976186989, -661.6339876215444, -26.196244501619876, -5667.731841532212, -1908.4366450830275, -3942.557149238247, -6530.7773984405285, -4058.0262610943632, -2995.334922711244, -3308.2146415966326, -2455.942625515774, -9892.278598818613, -15750.73787578796, 0.012, -0.106, 0.992, 192.0, 0.0, 0.0, 0.0, 0.0, 0.0, 0.0, 0.0, 0.0, 0.0, 1.645921762687011E9, 0.0, 2022-02-27 11:29:22.687
238.0, -752.8067532547419, -4180.849096876275, -1569.8300683295809, -9924.308648623068, -250.18307568825196, 336.2149400967288, -5319.514014662983, -1456.0373373076127, -1330.8899201023485, -5533.129636422353, -3990.166364928051, -2776.667806704975, -3411.457349235696, -2365.1274877938617, -9470.367070480237, -14508.696139895457, 0.012, -0.106, 0.992, 192.0, 0.0, 0.0, 0.0, 0.0, 0.0, 0.0, 0.0, 0.0, 0.0, 1.645921762695198E9, 0.0, 2022-02-27 11:29:22.695
240.0, -709.2879068002591, -4160.620768144223, -1592.9641238408237, -9956.91984378336, -235.67679353675766, 295.08773029896383, -5464.867408855845, -1697.1009012580994, -3656.253654510219, -6087.2517332138705, -3801.875269636544, -2848.148685473047, -3055.3940600626543, -2199.076378235385, -9707.250858217581, -15377.419039895422, 0.012, -0.106, 0.992, 192.0, 0.0, 0.0, 0.0, 0.0, 0.0, 0.0, 0.0, 0.0, 0.0, 1.645921762701303E9, 0.0, 2022-02-27 11:29:22.701
242.0, -1134.9321764626714, -4492.812394238996, -1874.2384760664079, -10248.185425780466, -606.5369375392124, 50.60434944681519, -5519.249203115607, -1713.5741369216607, -2332.918624033764, -6143.421667030057, -4185.811184145354, -2940.0143551843594, -3560.7893539416023, -2582.1629264548933, -9721.06423629096, -15155.197996520757, 0.012, -0.106, 0.992, 192.0, 0.0, 0.0, 0.0, 0.0, 0.0, 0.0, 0.0, 0.0, 0.0, 1.645921762708753E9, 0.0, 2022-02-27 11:29:22.708
244.0, -473.27583709667175, -3965.5123907938473, -1386.903391707348, -9721.466567691155, 0.8270145448463613, 503.49539560024687, -5237.684278212104, -1422.4873688801968, -2135.239796071028, -5556.286043678051, -3789.9841415863207, -2745.9118063344727, -3152.62414844324, -2180.926761737676, -9484.247503786983, -14673.182627342061, 0.01, -0.10200000000000001, 0.986, 192.0, 0.0, 40.0, 126.0, 104.0, 15.0, 104.0, 0.0, 0.0, 0.0, 1.645921762716846E9, 0.0, 2022-02-27 11:29:22.716
246.0, -1175.366482182322, -4533.067886003004, -1948.647433358125, -10326.416531374041, -666.5737231461673, -33.52761668296059, -5667.284806643106, -1902.6922467580137, -3954.269463332828, -6527.111712349858, -4055.61227269319, -2991.5127744093866, -3315.769531222526, -2458.937759272785, -9894.066738375037, -15748.457997853518, 0.01, -0.10200000000000001, 0.986, 192.0, 0.0, 0.0, 0.0, 0.0, 0.0, 0.0, 0.0, 0.0, 0.0, 1.645921762723863E9, 0.0, 2022-02-27 11:29:22.723
248.0, -758.0370614572837, -4181.251428276471, -1582.3023417356424, -9928.957811469772, -258.1402967143413, 336.3937540523713, -5304.605401111294, -1449.6670901378502, -1339.1153620619014, -5541.511540593093, -3996.1119289531625, -2779.8417544176286, -3424.0190296195783, -2372.235342530649, -9481.5876461968, -14512.339474241671, 0.01, -0.10200000000000001, 0.986, 192.0, 0.0, 0.0, 0.0, 0.0, 0.0, 0.0, 0.0, 0.0, 0.0, 1.645921762731387E9, 0.0, 2022-02-27 11:29:22.731
250.0, -695.094549071139, -4152.037698273385, -1592.0924058070668, -9953.231805948235, -217.4824735501377, 297.0323320665756, -5462.386365221306, -1715.7646078782807, -3641.3897444474396, -6084.234247712404, -3802.501118481293, -2852.283758197279, -3060.311443842822, -2204.664314349212, -9713.866974576351, -15369.953557247349, 0.01, -0.10200000000000001, 0.986, 192.0, 0.0, 0.0, 0.0, 0.0, 0.0, 0.0, 0.0, 0.0, 0.0, 1.645921762739407E9, 0.0, 2022-02-27 11:29:22.739
252.0, -1129.5454060489424, -4483.4246615677675, -1874.327883044229, -10253.639251427561, -603.6759142489332, 44.68113716615882, -5531.8555869884, -1718.5138724462836, -2340.7417345931217, -6150.685983978032, -4181.564352698845, -2940.0367069288145, -3555.648452716882, -2582.028815988161, -9728.909698594773, -15166.038592581583, 0.01, -0.10200000000000001, 0.986, 192.0, 0.0, 0.0, 0.0, 0.0, 0.0, 0.0, 0.0, 0.0, 0.0, 1.645921762747436E9, 0.0, 2022-02-27 11:29:22.747
254.0, -466.1903341043394, -3956.3928790560817, -1382.902429449848, -9718.337323467413, 3.643334346215051, 515.1630062059172, -5239.092438112788, -1415.4689211212303, -2090.3351414603167, -5536.683563790746, -3788.5089264522708, -2741.1508847654923, -3154.836971144315, -2182.379625127271, -9481.699404919078, -14659.659821946601, 0.01, -0.10200000000000001, 0.986, 192.0, 0.0, 40.0, 126.0, 104.0, 15.0, 104.0, 0.0, 0.0, 0.0, 1.645921762753944E9, 0.0, 2022-02-27 11:29:22.753
0.0, -1149.7290312920848, -4510.827900269974, -1931.8165697832787, -10312.290228878288, -653.5203043842679, -27.24677649101931, -5662.300367629572, -1916.550328320304, -3961.042041902786, -6512.828947642916, -4037.2391387509274, -2978.1240794806577, -3303.945458405669, -2447.1583899448383, -9891.183363340302, -15753.420085122596, 0.01, -0.10200000000000001, 0.986, 192.0, 0.0, 0.0, 0.0, 0.0, 0.0, 0.0, 0.0, 0.0, 0.0, 1.645921762761812E9, 0.0, 2022-02-27 11:29:22.761
2.0, -759.2887591467809, -4179.865620120242, -1586.571524926606, -9933.003477216182, -270.5231631425814, 331.7669429501227, -5326.420703699673, -1478.411433507375, -1329.9958503241362, -5550.407534886305, -3989.9651992279532, -2778.1653735834807, -3429.986945389145, -2382.1595170688056, -9484.538076464902, -14531.137291328585, 0.01, -0.10200000000000001, 0.986, 192.0, 0.0, 0.0, 0.0, 0.0, 0.0, 0.0, 0.0, 0.0, 0.0, 1.645921762776893E9, 0.0, 2022-02-27 11:29:22.776
4.0, -676.9672843178851, -4131.608203841234, -1583.6881498918713, -9941.653602320386, -211.02281940255398, 301.41327397981576, -5466.096754800887, -1725.398209738518, -3596.2392206477193, -6047.130351916594, -3788.777147385734, -2833.9329759994716, -3056.5787025187856, -2197.7799770569777, -9703.92044829374, -15352.027458194192, 0.01, -0.10200000000000001, 0.986, 192.0, 0.0, 0.0, 0.0, 0.0, 0.0, 0.0, 0.0, 0.0, 0.0, 1.645921762783643E9, 0.0, 2022-02-27 11:29:22.783
6.0, -1142.5764730663864, -4488.2973418590245, -1894.1762321205417, -10257.640213685061, -616.7069812663772, 59.165067573197796, -5523.026647928554, -1693.8598983120798, -2371.654197174811, -6158.263225348381, -4191.01914060344, -2942.24952962989, -3568.411298800862, -2579.9501037538175, -9733.178881785738, -15174.353441518957, 0.01, -0.10200000000000001, 0.986, 192.0, 0.0, 0.0, 0.0, 0.0, 0.0, 0.0, 0.0, 0.0, 0.0, 1.645921762791882E9, 0.0, 2022-02-27 11:29:22.791
8.0, -454.8579996654987, -3940.321974792716, -1384.578810283996, -9721.555974668978, 4.224479702053035, 506.55758459062395, -5247.139066116699, -1408.3387146399873, -2080.6344843667134, -5546.473627862171, -3791.9063916094774, -2736.479370174333, -3166.4375265166195, -2180.792651270944, -9483.040509586395, -14648.930984608054, 0.012, -0.10400000000000001, 0.986, 192.0, 0.0, 48.0, 126.0, 96.0, 15.0, 104.0, 0.0, 0.0, 0.0, 1.645921762799608E9, 0.0, 2022-02-27 11:29:22.799
10.0, -1155.0487464724479, -4505.865813000895, -1942.3442414217284, -10319.912173737548, -649.0276037487512, -16.540290896927225, -5659.2828821281055, -1909.1742526500527, -3965.7582599828556, -6523.826005914928, -4034.378115460648, -2980.6498266041076, -3298.6257432253055, -2446.9572242447407, -9894.312607564045, -15756.638736324161, 0.012, -0.10400000000000001, 0.986, 192.0, 0.0, 0.0, 0.0, 0.0, 0.0, 0.0, 0.0, 0.0, 0.0, 1.64592176280673E9, 0.0, 2022-02-27 11:29:22.806
12.0, -752.8738084881078, -4168.242713003482, -1584.8504406035472, -9934.366933627956, -261.22483744917366, 332.8398266839775, -5312.115587248277, -1477.964398618269, -1318.9317368187592, -5553.201502943219, -3991.5745248287353, -2776.5560479826986, -3426.120093598377, -2374.0234820870737, -9472.311672247848, -14516.608657432636, 0.012, -0.10400000000000001, 0.986, 192.0, 0.0, 0.0, 0.0, 0.0, 0.0, 0.0, 0.0, 0.0, 0.0, 1.645921762814194E9, 0.0, 2022-02-27 11:29:22.814
14.0, -681.8399646091419, -4130.24474742946, -1592.047702318156, -9940.021924975148, -219.27061310656228, 307.80587289403354, -5466.744955390091, -1683.2875231847195, -3606.699837052803, -6071.940788261984, -3791.816984631656, -2836.0787434671815, -3057.696289741551, -2188.928686252676, -9700.478279647623, -15347.668868025408, 0.012, -0.10400000000000001, 0.986, 192.0, 0.0, 0.0, 0.0, 0.0, 0.0, 0.0, 0.0, 0.0, 0.0, 1.645921762822178E9, 0.0, 2022-02-27 11:29:22.822
16.0, -1147.1585806797243, -4490.59957153792, -1908.3472381052063, -10264.971585866402, -631.257966906782, 41.17191328667561, -5536.996488213121, -1718.111541046088, -2402.0525696340287, -6184.124193683171, -4195.891820894697, -2946.5410645653087, -3568.5901127565044, -2583.682845077854, -9738.319783010458, -15184.411726523844, 0.012, -0.10400000000000001, 0.986, 192.0, 0.0, 0.0, 0.0, 0.0, 0.0, 0.0, 0.0, 0.0, 0.0, 1.645921762829436E9, 0.0, 2022-02-27 11:29:22.829
18.0, -471.7559184737109, -3952.034288887297, -1401.1638046698338, -9719.767835112552, -4.962087269078168, 519.7898173081658, -5248.256653339464, -1408.0481419620685, -2073.3031121853724, -5540.930395237255, -3799.684798679924, -2735.9429283074055, -3169.209142829078, -2179.160973925707, -9479.039547328895, -14639.23032751445, 0.014, -0.10400000000000001, 0.994, 192.0, 0.0, 56.0, 126.0, 96.0, 15.5, 8.0, 0.0, 0.0, 0.0, 1.64592176283641E9, 0.0, 2022-02-27 11:29:22.836
20.0, -1169.689139090674, -4524.350705665434, -1954.034203771854, -10323.667266806038, -656.1578102299941, -12.919308295167482, -5663.59676880798, -1909.3083631167847, -3998.4141586320593, -6532.118503107847, -4043.676441154056, -2985.567210384275, -3297.441100769174, -2439.3799828743918, -9890.177534839813, -15754.716486301004, 0.014, -0.10400000000000001, 0.994, 192.0, 0.0, 0.0, 0.0, 0.0, 0.0, 0.0, 0.0, 0.0, 0.0, 1.645921762843968E9, 0.0, 2022-02-27 11:29:22.843
22.0, -789.9330007950069, -4206.911230911163, -1609.4597112488404, -9947.465055878765, -275.1052707559193, 334.9408906627763, -5309.656895358193, -1455.47854369623, -1342.0210888410913, -5576.760241599112, -4013.613344861668, -2795.4432720474333, -3434.4572942802065, -2382.6065519579115, -9474.435087971102, -14516.720416154913, 0.014, -0.10400000000000001, 0.994, 192.0, 0.0, 0.0, 0.0, 0.0, 0.0, 0.0, 0.0, 0.0, 0.0, 1.645921762852005E9, 0.0, 2022-02-27 11:29:22.852
24.0, -692.9487816034296, -4150.674241861611, -1590.0583970616337, -9935.05983770607, -206.75363621159033, 332.68336447279034, -5450.249367982075, -1671.016415478756, -3604.4199591183615, -6077.953407520462, -3799.304819024184, -2851.8814267970833, -3054.9693769180035, -2184.3242268948825, -9691.939913265696, -15328.312257327112, 0.014, -0.10400000000000001, 0.994, 192.0, 0.0, 0.0, 0.0, 0.0, 0.0, 0.0, 0.0, 0.0, 0.0, 1.645921762859091E9, 0.0, 2022-02-27 11:29:22.859
26.0, -1187.3917206992771, -4529.581013867976, -1911.2529648843963, -10271.855923158637, -620.1715016569498, 60.10384084032069, -5521.551432794504, -1705.3486949621076, -2444.9902707326737, -6212.913240541607, -4198.954009885074, -2964.1095357071804, -3559.18002834082, -2576.172658940871, -9738.699762666198, -15189.060889370548, 0.014, -0.10400000000000001, 0.994, 192.0, 0.0, 0.0, 0.0, 0.0, 0.0, 0.0, 0.0, 0.0, 0.0, 1.64592176286648E9, 0.0, 2022-02-27 11:29:22.866
28.0, -515.3865236504703, -4000.738740055411, -1397.676932534806, -9724.059370047971, 11.10881699428761, 536.9336053053862, -5230.688182197593, -1393.9441912107698, -2084.6354466242133, -5566.813715316501, -3808.2902202952173, -2763.614387943076, -3159.307320035377, -2173.2377616450503, -9471.261140258448, -14625.595763396714, 0.014, -0.10200000000000001, 0.994, 192.0, 0.0, 56.0, 126.0, 104.0, 15.5, 8.0, 0.0, 0.0, 0.0, 1.645921762874472E9, 0.0, 2022-02-27 11:29:22.874
30.0, -1232.5422444989974, -4593.037616376593, -1945.4511339010162, -10316.961743469446, -628.2851848942262, 13.16517748417586, -5645.447152310271, -1889.9964559073992, -4038.7590573738885, -6554.716116752162, -4051.99129009143, -3007.248402505923, -3279.4479464826522, -2424.8289972339867, -9883.963749881239, -15747.251003652931, 0.014, -0.10200000000000001, 0.994, 192.0, 0.0, 0.0, 0.0, 0.0, 0.0, 0.0, 0.0, 0.0, 0.0, 1.645921762882467E9, 0.0, 2022-02-27 11:29:22.882
32.0, -915.7733220783857, -4330.538729493467, -1627.8999004244686, -9965.34645144301, -272.2218957211847, 339.6571087428461, -5298.9280580196455, -1445.8896453249033, -1391.7313685096942, -5635.187701605285, -4045.3304702437486, -2836.4810748673767, -3435.865454180891, -2388.172136327283, -9477.072593816829, -14520.229640034395, 0.014, -0.10200000000000001, 0.994, 192.0, 0.0, 0.0, 0.0, 0.0, 0.0, 0.0, 0.0, 0.0, 0.0, 1.645921762896129E9, 0.0, 2022-02-27 11:29:22.896
34.0, -826.3886960016127, -4291.914915074696, -1593.0982343075557, -9929.784826014618, -183.2396010446073, 350.22948387020637, -5431.920937528723, -1649.7152030128484, -3622.9048517829006, -6094.024311783828, -3832.363049073583, -2886.5489824472647, -3050.253158837934, -2180.6138373153017, -9680.384061382301, -15296.55042845612, 0.014, -0.10200000000000001, 0.994, 192.0, 0.0, 0.0, 0.0, 0.0, 0.0, 0.0, 0.0, 0.0, 0.0, 1.645921762904194E9, 0.0, 2022-02-27 11:29:22.904
36.0, -1383.9753131837026, -4727.192786597346, -1942.7689245663794, -10296.17462112601, -626.6535075489888, 52.370137258784446, -5521.931412450244, -1710.7801688647473, -2580.8218217875747, -6290.67495950162, -4242.048173194906, -3022.335830013255, -3551.423973014829, -2581.93940901034, -9744.779437158042, -15221.850898486484, 0.014, -0.10200000000000001, 0.994, 192.0, 0.0, 0.0, 0.0, 0.0, 0.0, 0.0, 0.0, 0.0, 0.0, 1.645921762912182E9, 0.0, 2022-02-27 11:29:22.912
38.0, -744.2013316394487, -4221.193995618105, -1432.4115434183532, -9738.990335344117, 5.699694836103301, 537.2912332166711, -5224.764969916937, -1381.6954352492614, -2096.6159816522577, -5620.59201247597, -3878.9217327739875, -2824.902871239528, -3185.72708198155, -2185.2182966730948, -9466.92490183412, -14601.098251473697, 0.014, -0.106, 1.002, 192.0, 0.0, 56.0, 126.0, 88.0, 15.5, 40.0, 0.0, 0.0, 0.0, 1.645921762918649E9, 0.0, 2022-02-27 11:29:22.918
40.0, -1425.8401305484929, -4784.815583803128, -1970.7086051355132, -10323.75667378386, -623.9265947254413, 23.581090400348952, -5636.595861505969, -1878.8429354242012, -4123.919203748608, -6603.286457453544, -4100.092244159251, -3061.943121188059, -3287.226353553099, -2417.139997141361, -9885.662482459842, -15741.864233239203, 0.014, -0.106, 1.002, 192.0, 0.0, 0.0, 0.0, 0.0, 0.0, 0.0, 0.0, 0.0, 0.0, 1.645921762926784E9, 0.0, 2022-02-27 11:29:22.926
42.0, -1085.69128342763, -4476.517972531077, -1656.666595538449, -9976.522323670664, -272.84774456593334, 347.8154954690332, -5294.278895172942, -1442.8498080789816, -1463.413412977864, -5684.629760340424, -4097.432386569069, -2885.8784301136056, -3452.8751317113797, -2374.6716826762777, -9481.230018285516, -14524.007084847342, 0.014, -0.106, 1.002, 192.0, 0.0, 0.0, 0.0, 0.0, 0.0, 0.0, 0.0, 0.0, 0.0, 1.645921762934751E9, 0.0, 2022-02-27 11:29:22.934
44.0, -936.2698717439023, -4375.711605037643, -1605.056417591145, -9923.034599189115, -175.3047317629733, 359.9077892193543, -5435.0501817524655, -1647.211807633854, -3641.2332822362523, -6106.340122978702, -3861.777944776767, -2917.8414246846946, -3054.2988245843444, -2168.119212164785, -9675.377270624313, -15280.12189628147, 0.014, -0.106, 1.002, 192.0, 0.0, 0.0, 0.0, 0.0, 0.0, 0.0, 0.0, 0.0, 0.0, 1.645921762941752E9, 0.0, 2022-02-27 11:29:22.941
46.0, -1433.28326145211, -4774.556133098142, -1941.4054681546056, -10280.886027918581, -626.4076383599804, 54.27003553748555, -5525.842967729923, -1692.5858488781273, -2582.31938866608, -6283.857677442751, -4259.169609447671, -3014.2221467759787, -3561.9963481421887, -2578.1843159418486, -9743.728905168642, -15202.382529065912, 0.013000000000000001, -0.106, 0.999, 192.0, 0.0, 48.0, 126.0, 88.0, 15.5, 16.0, 0.0, 0.0, 0.0, 1.645921762948291E9, 0.0, 2022-02-27 11:29:22.948
48.0, -743.7319450058872, -4212.521518769446, -1425.6166131039397, -9737.582175443433, 5.811453558379836, 530.29513720216, -5214.0808360673, -1383.193002127767, -2116.017295839464, -5618.11096884143, -3875.43486063896, -2815.2916211237457, -3183.178983113645, -2176.5905233133462, -9465.941425078086, -14602.37230090765, 0.013000000000000001, -0.106, 0.999, 192.0, 0.0, 0.0, 0.0, 0.0, 0.0, 0.0, 0.0, 0.0, 0.0, 1.645921762956504E9, 0.0, 2022-02-27 11:29:22.956
50.0, -1364.8198681855044, -4709.5349084776535, -1952.871913060178, -10309.317446865733, -616.7069812663772, 12.40521817269542, -5646.184759877296, -1905.5756217927483, -4114.620878055201, -6587.9531607572035, -4088.089357386751, -3050.1190483712016, -3281.5937139503617, -2415.9330029407743, -9877.57115096702, -15746.625154808184, 0.013000000000000001, -0.106, 0.999, 192.0, 0.0, 0.0, 0.0, 0.0, 0.0, 0.0, 0.0, 0.0, 0.0, 1.645921762964516E9, 0.0, 2022-02-27 11:29:22.964
52.0, -996.1501951396699, -4396.945762270184, -1635.9018249394685, -9967.4028119329, -278.03334927956456, 339.5900535094802, -5303.465462144072, -1442.4698284232413, -1417.2570606776549, -5640.395658063371, -4056.3722320046704, -2843.1418947150582, -3437.385372803852, -2370.6483686743222, -9473.317500748337, -14528.723302927412, 0.013000000000000001, -0.106, 0.999, 192.0, 0.0, 0.0, 0.0, 0.0, 0.0, 0.0, 0.0, 0.0, 0.0, 1.645921762971006E9, 0.0, 2022-02-27 11:29:22.971
54.0, -821.8736436216407, -4274.100574743817, -1578.9048765784355, -9923.548689311587, -171.01319682755434, 360.466582830737, -5416.677047810203, -1648.0611739231556, -3585.37627284244, -6082.624922111621, -3821.1871768459296, -2889.030026081804, -3052.4212780500984, -2164.0511946739193, -9671.465715344633, -15283.899341094417, 0.013000000000000001, -0.106, 0.999, 192.0, 0.0, 0.0, 0.0, 0.0, 0.0, 0.0, 0.0, 0.0, 0.0, 1.645921762979122E9, 0.0, 2022-02-27 11:29:22.979
56.0, -1307.420588424276, -4635.103599441481, -1918.6737440435584, -10277.309748805732, -620.2162051458604, 55.18645706015314, -5544.663136561291, -1714.1999857664093, -2552.233940629237, -6247.156113047137, -4207.268858822448, -3000.855803591705, -3542.3938682548846, -2550.445801072812, -9744.533567969032, -15229.092863690003, 0.013500000000000002, -0.107, 0.9924999999999999, 192.0, 0.0, 56.0, 126.0, 80.0, 15.0, 104.0, 0.0, 0.0, 0.0, 1.645921762987015E9, 0.0, 2022-02-27 11:29:22.987
58.0, -615.7458562547989, -4093.5655347783013, -1404.0471797045684, -9723.232355503125, 6.951392525600497, 529.6692883574115, -5208.6493621646605, -1388.065682419024, -2034.5675390443255, -5549.5134651080925, -3822.237708835329, -2775.8184404156736, -3167.1527823391893, -2163.2018283846173, -9455.525512161912, -14603.199315452495, 0.013500000000000002, -0.107, 0.9924999999999999, 192.0, 0.0, 0.0, 0.0, 0.0, 0.0, 0.0, 0.0, 0.0, 0.0, 1.645921762994186E9, 0.0, 2022-02-27 11:29:22.994
60.0, -1259.453744823187, -4603.855860692962, -1940.9807850099546, -10302.835440973693, -624.775961014743, 11.242927461019452, -5648.285823856095, -1898.132490889131, -4064.1729908195725, -6543.272023591045, -4039.6307754076456, -3003.381550715155, -3265.6345684092726, -2392.2848573070596, -9871.491476475177, -15749.016791464901, 0.013500000000000002, -0.107, 0.9924999999999999, 192.0, 0.0, 0.0, 0.0, 0.0, 0.0, 0.0, 0.0, 0.0, 0.0, 1.64592176300159E9, 0.0, 2022-02-27 11:29:23.001
62.0, -894.1815369345591, -4299.179232022671, -1622.8931096664799, -9945.788675044618, -277.31809345699475, 330.4481900272596, -5307.108796490288, -1470.476564225741, -1386.1657841403228, -5604.498756468148, -4029.125455513651, -2806.1050541526147, -3440.358154816408, -2370.044871574029, -9469.316538490837, -14529.058579094242, 0.013500000000000002, -0.107, 0.9924999999999999, 192.0, 0.0, 0.0, 0.0, 0.0, 0.0, 0.0, 0.0, 0.0, 0.0, 1.645921763009646E9, 0.0, 2022-02-27 11:29:23.009
64.0, -727.705744231432, -4188.024006846429, -1567.5948938840502, -9894.200848841769, -170.29794100498452, 363.21584739873975, -5425.796559547968, -1647.1000489115775, -3547.6912316907924, -6054.014689208829, -3795.6391329335133, -2844.862979038117, -3049.0908681262576, -2155.736345736545, -9669.185837410192, -15281.820628860072, 0.013500000000000002, -0.107, 0.9924999999999999, 192.0, 0.0, 0.0, 0.0, 0.0, 0.0, 0.0, 0.0, 0.0, 0.0, 1.645921763023813E9, 0.0, 2022-02-27 11:29:23.023
66.0, -1229.0106688750589, -4571.043499832571, -1922.1159126896755, -10272.973510381402, -628.6875162944217, 38.377945229762226, -5540.259842903596, -1741.0667826016884, -2595.8868975504515, -6252.542883460866, -4185.744128911988, -2965.5176956078644, -3535.531882707105, -2542.8238562135525, -9753.697783195708, -15257.166654725868, 0.014750000000000001, -0.10550000000000001, 0.99125, 192.0, 0.0, 64.0, 126.0, 96.0, 15.0, 120.0, 0.0, 0.0, 0.0, 1.645921763031239E9, 0.0, 2022-02-27 11:29:23.031
68.0, -536.0618872716293, -4008.4500918924923, -1399.9568104692473, -9720.125463023838, 0.7823110559357472, 526.4953406447579, -5224.228528050009, -1394.5700400555183, -1945.00409901191, -5517.8186914704675, -3807.820833661656, -2758.5852454406318, -3178.9545034115918, -2158.3962033267267, -9452.843302827276, -14587.575446078235, 0.014750000000000001, -0.10550000000000001, 0.99125, 192.0, 0.0, 0.0, 0.0, 0.0, 0.0, 0.0, 0.0, 0.0, 0.0, 1.645921763039506E9, 0.0, 2022-02-27 11:29:23.039
70.0, -1181.8261363299057, -4538.856987816928, -1931.324831405262, -10288.597379755662, -617.5563475556788, 13.276936206452396, -5645.335393587994, -1885.5261070163378, -4029.5277869138467, -6502.234220771101, -4012.451054149992, -2983.890829550127, -3257.6102921498173, -2388.7756334275764, -9871.42442124181, -15738.332657615265, 0.014750000000000001, -0.10550000000000001, 0.99125, 192.0, 0.0, 0.0, 0.0, 0.0, 0.0, 0.0, 0.0, 0.0, 0.0, 1.645921763047433E9, 0.0, 2022-02-27 11:29:23.047
72.0, -840.313832797269, -4247.099667441806, -1626.759961457248, -9955.936367027327, -288.404558706827, 324.9273091467988, -5319.759883851992, -1463.3016542555874, -1360.1483535943453, -5592.741738884657, -4018.396618175104, -2799.3771790715673, -3439.933471671757, -2363.2275895151606, -9476.245579271983, -14534.981791374898, 0.014750000000000001, -0.10550000000000001, 0.99125, 192.0, 0.0, 0.0, 0.0, 0.0, 0.0, 0.0, 0.0, 0.0, 0.0, 1.645921763053938E9, 0.0, 2022-02-27 11:29:23.053
74.0, -671.4016999485135, -4125.997915982952, -1561.0011292697347, -9890.512811006643, -158.8985513327779, 361.9865014536979, -5406.350541871851, -1651.9280257139237, -3490.0013792516447, -6003.857374651119, -3777.780089113723, -2838.917415013005, -3046.498065769442, -2137.9220054056655, -9666.39186935328, -15263.872178062462, 0.014750000000000001, -0.10550000000000001, 0.99125, 192.0, 0.0, 0.0, 0.0, 0.0, 0.0, 0.0, 0.0, 0.0, 0.0, 1.645921763061922E9, 0.0, 2022-02-27 11:29:23.061
76.0, -1194.7007411361626, -4529.6257173568865, -1924.4404941130274, -10267.60909171213, -625.9158999819637, 52.19132330314199, -5515.7623309805795, -1743.2125500693978, -2568.1483826814156, -6231.0628570393155, -4183.084271321806, -2954.855913502683, -3544.2043595557643, -2547.1153911489714, -9746.299355781002, -15248.06949473256, 0.015375, -0.10475000000000001, 0.990625, 192.0, 0.0, 64.0, 126.0, 96.0, 15.0, 120.0, 0.0, 0.0, 0.0, 1.645921763070001E9, 0.0, 2022-02-27 11:29:23.070
78.0, -499.9638199763084, -3978.230533388917, -1407.3775896284092, -9713.419939687246, 1.7434360675139509, 521.6673638424115, -5225.681391439604, -1403.9577727267472, -1958.2139799849965, -5499.579667994937, -3800.5118132247703, -2732.9254428059394, -3179.3568348117874, -2152.383584068249, -9455.458456928547, -14592.962216491964, 0.015375, -0.10475000000000001, 0.990625, 192.0, 0.0, 0.0, 0.0, 0.0, 0.0, 0.0, 0.0, 0.0, 0.0, 1.645921763076244E9, 0.0, 2022-02-27 11:29:23.076
80.0, -1137.0555921859257, -4495.047568684527, -1935.0352209848431, -10283.545885508764, -607.2745451062376, 19.647183376214908, -5633.064285882031, -1905.8661944706673, -4032.075885781752, -6478.094336759369, -4000.068187721752, -2966.63528283063, -3258.392603205753, -2372.972950097674, -9873.57018870952, -15742.713599528504, 0.015375, -0.10475000000000001, 0.990625, 192.0, 0.0, 0.0, 0.0, 0.0, 0.0, 0.0, 0.0, 0.0, 0.0, 1.645921763083643E9, 0.0, 2022-02-27 11:29:23.083
82.0, -807.9708585704396, -4215.203728104082, -1632.7502289712704, -9953.54473037061, -280.4249859362824, 321.7980649230558, -5313.657857615693, -1478.0314538516348, -1346.8267138989825, -5585.164497514307, -4007.623077347646, -2796.158527870003, -3442.5486257730277, -2357.1926185122275, -9476.200875783072, -14538.558070487747, 0.015375, -0.10475000000000001, 0.990625, 192.0, 0.0, 0.0, 0.0, 0.0, 0.0, 0.0, 0.0, 0.0, 0.0, 1.645921763091682E9, 0.0, 2022-02-27 11:29:23.091
84.0, -630.0509727061955, -4087.9775986644745, -1558.2518647017318, -9880.76745042413, -152.39419369628357, 367.32856837851625, -5419.627478078303, -1644.797819232681, -3459.893579470346, -5992.212115789905, -3764.9278360519215, -2815.7163042683965, -3044.2181878350007, -2129.316583790372, -9663.776715252008, -15260.675878605352, 0.015375, -0.10475000000000001, 0.990625, 192.0, 0.0, 0.0, 0.0, 0.0, 0.0, 0.0, 0.0, 0.0, 0.0, 1.645921763099771E9, 0.0, 2022-02-27 11:29:23.099
86.0, -1159.720261063607, -4503.585935066454, -1919.4337033550387, -10272.280606303288, -629.9839174728296, 35.65103240621477, -5534.023706200565, -1732.6401749420377, -2572.7304902947535, -6230.906394828128, -4167.706271136555, -2945.3340703647223, -3542.349164765974, -2535.850111943497, -9752.133161083837, -15260.094733249514, 0.0166875, -0.10437500000000001, 0.9893125, 192.0, 0.0, 72.0, 126.0, 96.0, 15.0, 112.0, 0.0, 0.0, 0.0, 1.645921763106241E9, 0.0, 2022-02-27 11:29:23.106
88.0, -464.37984280345955, -3938.958518380942, -1396.5816970564958, -9708.368445440346, 1.9222500231564075, 517.5769946070903, -5237.594871234282, -1397.1181389234232, -1916.6620870425807, -5489.275513801041, -3778.8753245920334, -2717.9721257653387, -3175.713500465572, -2145.476895031559, -9454.139704005684, -14591.531704846824, 0.0166875, -0.10437500000000001, 0.9893125, 192.0, 0.0, 0.0, 0.0, 0.0, 0.0, 0.0, 0.0, 0.0, 0.0, 1.645921763114174E9, 0.0, 2022-02-27 11:29:23.114
90.0, -1097.7612254334958, -4455.037946109527, -1914.002229452399, -10265.038641099769, -597.3727223125366, 18.79781708691324, -5631.320849814517, -1896.7019792439914, -4023.068132766263, -6478.027281526003, -3974.0507571757744, -2944.127076164136, -3247.239082722555, -2362.2217610146718, -9869.748040407663, -15745.68638154106, 0.0166875, -0.10437500000000001, 0.9893125, 192.0, 0.0, 0.0, 0.0, 0.0, 0.0, 0.0, 0.0, 0.0, 0.0, 1.645921763122181E9, 0.0, 2022-02-27 11:29:23.122
92.0, -803.768730612842, -4207.201803589082, -1634.538368527695, -9961.59135837452, -289.566849418503, 308.61053569442464, -5307.555831379394, -1484.2005353212996, -1358.9860628826693, -5603.850555878944, -4004.292667423805, -2788.5589347551986, -3444.4261723072736, -2360.7018423917107, -9483.107564819762, -14560.798056220778, 0.0166875, -0.10437500000000001, 0.9893125, 192.0, 0.0, 0.0, 0.0, 0.0, 0.0, 0.0, 0.0, 0.0, 0.0, 1.645921763129408E9, 0.0, 2022-02-27 11:29:23.129
94.0, -618.4504173338911, -4072.420784523581, -1551.21106519831, -9872.318491020023, -152.12597276281986, 362.0535566870638, -5421.2591554235405, -1648.2623396232534, -3420.8227301624693, -5981.148002284527, -3758.0658505041424, -2813.637592034053, -3047.2133215920117, -2133.585766981336, -9654.85836921434, -15242.995648741204, 0.0166875, -0.10437500000000001, 0.9893125, 192.0, 0.0, 0.0, 0.0, 0.0, 0.0, 0.0, 0.0, 0.0, 0.0, 1.645921763143863E9, 0.0, 2022-02-27 11:29:23.143
96.0, -1166.939874522671, -4502.93773447725, -1926.3403923917285, -10272.504123747842, -628.8663302500642, 32.34297422682932, -5536.661212046291, -1746.6323669710598, -2593.9869992717504, -6239.8694443547065, -4166.767497869432, -2947.3904308546107, -3547.51241773515, -2539.582853267533, -9756.245882063613, -15271.963509555282, 0.01634375, -0.10318750000000002, 0.98965625, 192.0, 0.0, 64.0, 126.0, 104.0, 15.0, 120.0, 0.0, 0.0, 0.0, 1.645921763151917E9, 0.0, 2022-02-27 11:29:23.151
98.0, -489.9949419492414, -3958.739812223889, -1414.8877757653925, -9719.521965923544, -3.978610513044657, 514.7830265501769, -5227.89421414068, -1405.61180181644, -1926.4297993695498, -5513.124825134853, -3796.8237753896447, -2741.597919654598, -3192.4549570625973, -2154.9540346806093, -9452.217453982526, -14586.055527455275, 0.01634375, -0.10318750000000002, 0.98965625, 192.0, 0.0, 0.0, 0.0, 0.0, 0.0, 0.0, 0.0, 0.0, 0.0, 1.645921763159281E9, 0.0, 2022-02-27 11:29:23.159
100.0, -1124.0245251684817, -4482.798812723018, -1931.9283285055553, -10277.130934850089, -608.2803736067264, 16.160311241187006, -5648.464637811737, -1913.8234154967565, -4054.874665126165, -6499.216735269634, -3996.3354463977157, -2970.479782876943, -3259.7337078730716, -2370.8271826299647, -9873.547836965065, -15745.060532696312, 0.01634375, -0.10318750000000002, 0.98965625, 192.0, 0.0, 0.0, 0.0, 0.0, 0.0, 0.0, 0.0, 0.0, 0.0, 1.645921763166473E9, 0.0, 2022-02-27 11:29:23.166
102.0, -809.8707568491408, -4213.952030414585, -1639.947490685879, -9960.406715918389, -298.64165766735766, 310.2198612952067, -5321.168043752676, -1484.2675905546655, -1361.7129757062169, -5602.375340744894, -4012.451054149992, -2792.001103401316, -3462.6204922938937, -2366.110964549895, -9484.672186931633, -14555.701858484968, 0.01634375, -0.10318750000000002, 0.98965625, 192.0, 0.0, 0.0, 0.0, 0.0, 0.0, 0.0, 0.0, 0.0, 0.0, 1.645921763174436E9, 0.0, 2022-02-27 11:29:23.174
104.0, -618.2045481448828, -4074.164220591095, -1551.4569343873186, -9868.697508418263, -138.98314702309932, 376.96217023875363, -5406.551707571949, -1637.4217435624296, -3432.0433058790336, -5985.126612797572, -3769.2864262207063, -2826.6910107959525, -3056.5787025187856, -2144.0687351308748, -9654.299575602958, -15240.58166034003, 0.01634375, -0.10318750000000002, 0.98965625, 192.0, 0.0, 0.0, 0.0, 0.0, 0.0, 0.0, 0.0, 0.0, 0.0, 1.645921763182643E9, 0.0, 2022-02-27 11:29:23.182
106.0, -1166.939874522671, -4501.4625193432, -1940.4443431430273, -10275.990995882868, -630.5650628286676, 40.09902955282087, -5549.0440784745315, -1759.596378755138, -2670.675834497909, -6271.139534847682, -4171.081384549307, -2959.214503671468, -3536.180083296309, -2534.129027620438, -9761.78911468853, -15297.824477890073, 0.014171875, -0.10359375000000001, 0.992828125, 192.0, 0.0, 48.0, 126.0, 96.0, 15.5, 16.0, 0.0, 0.0, 0.0, 1.645921763189144E9, 0.0, 2022-02-27 11:29:23.189
108.0, -471.44299405133654, -3946.8263324292107, -1412.7867117865935, -9709.217811729648, 5.543232624916151, 533.9831750372857, -5203.977847573501, -1384.9140864508256, -1850.9032548550672, -5496.517479004559, -3800.7129789248684, -2729.997364282294, -3194.1536896412003, -2150.1707613671733, -9440.795712565865, -14555.41128580705, 0.014171875, -0.10359375000000001, 0.992828125, 192.0, 0.0, 0.0, 0.0, 0.0, 0.0, 0.0, 0.0, 0.0, 0.0, 1.645921763196124E9, 0.0, 2022-02-27 11:29:23.196
110.0, -1074.2248385220573, -4432.932070843229, -1908.4142933385724, -10250.420600225998, -576.0715098466289, 40.5237126974717, -5609.863175137422, -1880.720481958447, -4024.833920578232, -6458.268339427512, -3969.6698152625345, -2955.146486180602, -3228.9553557581135, -2353.079897532451, -9851.71018263223, -15720.071282395278, 0.014171875, -0.10359375000000001, 0.992828125, 192.0, 0.0, 0.0, 0.0, 0.0, 0.0, 0.0, 0.0, 0.0, 0.0, 1.645921763204139E9, 0.0, 2022-02-27 11:29:23.204
112.0, -825.3381640122133, -4222.579803774333, -1659.2817496397197, -9975.136515514436, -311.24804154015084, 301.39092223536045, -5310.461558158584, -1483.3735207764532, -1383.7294439946943, -5622.715428199223, -4023.7610368443775, -2795.353865069612, -3458.373660847385, -2374.336406509448, -9482.481715975013, -14567.727097001924, 0.014171875, -0.10359375000000001, 0.992828125, 192.0, 0.0, 0.0, 0.0, 0.0, 0.0, 0.0, 0.0, 0.0, 0.0, 1.645921763211291E9, 0.0, 2022-02-27 11:29:23.211
114.0, -605.3746468275365, -4060.5520082178127, -1547.3889168964527, -9867.646976428865, -136.05506849945408, 388.272152933139, -5393.967675443611, -1637.3770400735189, -3372.7888313280146, -5958.170408984472, -3763.497324406782, -2817.437388591455, -3045.1569611021237, -2125.807359910889, -9638.273374828503, -15205.24355235619, 0.014171875, -0.10359375000000001, 0.992828125, 192.0, 0.0, 0.0, 0.0, 0.0, 0.0, 0.0, 0.0, 0.0, 0.0, 1.645921763218732E9, 0.0, 2022-02-27 11:29:23.218
116.0, -1161.0613657309254, -4497.640371041342, -1936.0857529742425, -10275.968644138413, -635.9294814979412, 31.672421893170107, -5532.056752688498, -1744.7771721812694, -2637.1929213038593, -6236.919014086606, -4172.44484096108, -2962.030823472837, -3541.276281032119, -2546.6683562598655, -9759.062201864983, -15282.133553282447, 0.0130859375, -0.10379687500000001, 0.9934140625, 192.0, 0.0, 48.0, 126.0, 96.0, 15.5, 8.0, 0.0, 0.0, 0.0, 1.645921763226871E9, 0.0, 2022-02-27 11:29:23.226
118.0, -481.90361045642027, -3944.9711376394202, -1420.3863049013978, -9720.751311868586, -8.158386726187079, 513.3078114161267, -5223.602679205261, -1396.1346621673897, -1887.6048192506814, -5487.241505055607, -3802.0317318477314, -2733.9759747953385, -3190.689169250628, -2169.214447643095, -9449.222320225515, -14570.766934247844, 0.0130859375, -0.10379687500000001, 0.9934140625, 192.0, 0.0, 0.0, 0.0, 0.0, 0.0, 0.0, 0.0, 0.0, 0.0, 1.645921763234879E9, 0.0, 2022-02-27 11:29:23.234
120.0, -1103.3715132917778, -4460.402364778801, -1929.6931540600247, -10272.392365025564, -600.7478357252879, 24.58691890083777, -5645.4248005658155, -1902.714598502469, -4046.51511269988, -6489.292560731478, -3992.5580015847686, -2963.1260589511467, -3247.3731931892867, -2367.9438075952303, -9869.882150874395, -15735.1140064137, 0.0130859375, -0.10379687500000001, 0.9934140625, 192.0, 0.0, 0.0, 0.0, 0.0, 0.0, 0.0, 0.0, 0.0, 0.0, 1.645921763241379E9, 0.0, 2022-02-27 11:29:23.241
122.0, -827.5286349688333, -4224.524405541945, -1663.3050636416751, -9980.478582439255, -310.1528060618408, 306.4200647378045, -5317.256488472997, -1488.7826429346376, -1374.4087665568313, -5620.502605498148, -4040.524845185858, -2805.635667519053, -3467.090841184955, -2382.763014169099, -9490.617750956744, -14558.562881775248, 0.0130859375, -0.10379687500000001, 0.9934140625, 192.0, 0.0, 0.0, 0.0, 0.0, 0.0, 0.0, 0.0, 0.0, 0.0, 1.645921763249431E9, 0.0, 2022-02-27 11:29:23.249
124.0, -602.6030305150784, -4067.8163251657875, -1548.3276901635754, -9862.371964737411, -131.56236786393737, 386.4393098878038, -5410.999704718555, -1625.2847463231979, -3383.8976483223023, -5971.536752168746, -3779.5235251812373, -2822.4665310938994, -3056.444592052054, -2142.124133363263, -9648.331659833391, -15214.474822816233, 0.0130859375, -0.10379687500000001, 0.9934140625, 192.0, 0.0, 0.0, 0.0, 0.0, 0.0, 0.0, 0.0, 0.0, 0.0, 1.645921763257362E9, 0.0, 2022-02-27 11:29:23.257
126.0, -1161.1731244532018, -4496.656894285309, -1939.1032384757088, -10281.534228507786, -631.1238564400502, 33.32645098286283, -5546.674793562269, -1756.847114187135, -2684.355102104557, -6264.657528955642, -4180.200896287071, -2960.1979804275015, -3536.3365455074963, -2547.3389085935246, -9766.79590544652, -15300.149059313424, 0.01, -0.11, 0.992, 192.0, 0.0, 40.0, 126.0, 72.0, 15.5, 0.0, 0.0, 0.0, 0.0, 1.645921763271045E9, 0.0, 2022-02-27 11:29:23.271
128.0, -468.6937294833338, -3940.3666782816267, -1412.2949734085767, -9720.058407790471, 5.520880880460845, 526.9200237894087, -5203.039074306378, -1401.901412236859, -1838.74390587138, -5477.093813072898, -3801.785862658723, -2725.8846433025174, -3188.364587827276, -2158.7761829824667, -9439.700477087556, -14557.132370130108, 0.01, -0.11, 0.992, 192.0, 0.0, 0.0, 0.0, 0.0, 0.0, 0.0, 0.0, 0.0, 0.0, 1.645921763279011E9, 0.0, 2022-02-27 11:29:23.279
130.0, -1074.6942251556188, -4435.368410988857, -1909.1742526500527, -10253.12516130509, -572.808155156154, 38.57911092985999, -5618.580355474992, -1882.262752325863, -4045.7551533884, -6471.053537255948, -3975.973007198931, -2958.5886548267194, -3228.5306726134627, -2354.376298710859, -9856.873435601407, -15727.82733772127, 0.01, -0.11, 0.992, 192.0, 0.0, 0.0, 0.0, 0.0, 0.0, 0.0, 0.0, 0.0, 0.0, 1.645921763286954E9, 0.0, 2022-02-27 11:29:23.286
132.0, -822.6783064220317, -4213.504995525479, -1655.1243251710328, -9982.669053395874, -314.3325822749832, 298.1052158004303, -5319.871642574268, -1504.3618088199864, -1382.8577259609374, -5631.365553303427, -4028.7231241134555, -2802.0370366617485, -3459.1783236477763, -2378.0020926001184, -9488.315521277847, -14580.758164019368, 0.01, -0.11, 0.992, 192.0, 0.0, 0.0, 0.0, 0.0, 0.0, 0.0, 0.0, 0.0, 0.0, 1.645921763294188E9, 0.0, 2022-02-27 11:29:23.294
134.0, -590.6448472314892, -4044.6152144211787, -1531.697992288827, -9859.71210714723, -125.25917592754078, 395.6482286033903, -5407.468129094616, -1613.0359903616895, -3324.2855458599984, -5946.145170467516, -3755.4506964028715, -2809.5025193098213, -3037.6467749651406, -2116.866662128766, -9629.735008446576, -15191.698395216275, 0.01, -0.11, 0.992, 192.0, 0.0, 0.0, 0.0, 0.0, 0.0, 0.0, 0.0, 0.0, 0.0, 1.645921763301674E9, 0.0, 2022-02-27 11:29:23.301
136.0, -1181.2449909740676, -4520.9979439971385, -1937.873892530667, -10284.104679120146, -642.8138187901758, 27.135017768742774, -5510.196746611207, -1758.8811229325681, -2683.1704596484255, -6273.821744182318, -4178.0774805638175, -2961.673195561552, -3534.436647228795, -2543.4273533138457, -9758.861036164884, -15300.283169780156, 0.01, -0.108, 0.988, 192.0, 0.0, 40.0, 126.0, 80.0, 15.0, 112.0, 0.0, 0.0, 0.0, 1.645921763309855E9, 0.0, 2022-02-27 11:29:23.309
138.0, -491.3360466165598, -3957.4434110454813, -1410.8197582745265, -9725.288715993014, -6.169081469664749, 518.2251951962943, -5202.569687672816, -1404.7624355271382, -1845.8741123526231, -5503.178298852241, -3812.3135342971727, -2739.54155916471, -3198.7357972545383, -2176.9705029690867, -9430.53626186088, -14553.220814850429, 0.01, -0.108, 0.988, 192.0, 0.0, 0.0, 0.0, 0.0, 0.0, 0.0, 0.0, 0.0, 0.0, 1.645921763316738E9, 0.0, 2022-02-27 11:29:23.316
140.0, -1101.9186499021828, -4471.399423050812, -1906.8273194822455, -10257.528454962785, -574.5962947125787, 50.20201804661966, -5626.604631734447, -1892.455147797483, -4042.9611853314864, -6484.106956017847, -3977.649388033079, -2978.4593556474874, -3224.3732481447755, -2357.662005145789, -9850.302022731546, -15723.960485930502, 0.01, -0.108, 0.988, 192.0, 0.0, 0.0, 0.0, 0.0, 0.0, 0.0, 0.0, 0.0, 0.0, 1.645921763323296E9, 0.0, 2022-02-27 11:29:23.323
142.0, -861.4138795630789, -4230.715838756066, -1654.9008077264796, -9980.947969072815, -313.2820502855838, 310.2198612952067, -5318.687000118137, -1489.4308435238415, -1372.2406473446665, -5631.58907074798, -4036.054496294796, -2826.4227898624886, -3457.278425369075, -2382.5394967245456, -9483.44284098659, -14560.55218703177, 0.01, -0.108, 0.988, 192.0, 0.0, 0.0, 0.0, 0.0, 0.0, 0.0, 0.0, 0.0, 0.0, 1.645921763331954E9, 0.0, 2022-02-27 11:29:23.331
144.0, -650.8380950496311, -4096.270095857393, -1527.4958643312293, -9849.318545975513, -119.24655666906318, 411.38385669992647, -5377.561495013416, -1606.4869292362846, -3339.6635460452494, -5950.79433331422, -3776.1931152573966, -2849.646252351553, -3049.917882671104, -2134.27867105945, -9631.187871836171, -15188.166819592336, 0.01, -0.108, 0.988, 192.0, 0.0, 0.0, 0.0, 0.0, 0.0, 0.0, 0.0, 0.0, 0.0, 1.645921763342855E9, 0.0, 2022-02-27 11:29:23.342
144.0, -1268.707367027684, -4619.144453900391, -1940.6902123320358, -10294.118260636124, -637.6952693099105, 41.39543073122868, -5532.682601533246, -1752.9355589074564, -3339.6635460452494, -5950.79433331422, -3776.1931152573966, -2849.646252351553, -3049.917882671104, -2134.27867105945, -9631.187871836171, -15188.166819592336, 0.01, -0.108, 0.988, 192.0, 0.0, 0.0, 0.0, 0.0, 0.0, 0.0, 0.0, 0.0, 0.0, 1.645921763350837E9, 0.0, 2022-02-27 11:29:23.350
148.0, -627.5699290716564, -4118.286564145871, -1423.448493891775, -9729.69200965071, 2.0563604898882497, 537.9170820614198, -5201.74267312797, -1382.902429449848, -1846.2093885194527, -5528.23460438664, -3844.0530114237085, -2796.1361761255475, -3205.1507479132115, -2176.7916890134443, -9426.20002343655, -14541.150872844562, 0.01, -0.108, 0.988, 192.0, 0.0, 0.0, 0.0, 0.0, 0.0, 0.0, 0.0, 0.0, 0.0, 1.645921763357879E9, 0.0, 2022-02-27 11:29:23.357
150.0, -1262.493582069109, -4649.58752984852, -1913.0634561852762, -10258.467228229909, -563.4651259738357, 63.188381575153066, -5599.469613965704, -1869.008167863866, -4111.178709409083, -6528.72103795064, -4019.380094931137, -2992.920934310071, -3231.97284125958, -2348.0507550300067, -9841.80835983853, -15720.406558562108, 0.01, -0.108, 0.988, 192.0, 0.0, 0.0, 0.0, 0.0, 0.0, 0.0, 0.0, 0.0, 0.0, 1.645921763365432E9, 0.0, 2022-02-27 11:29:23.365
152.0, -1067.2957977409123, -4468.091364871427, -1681.7229010728481, -10002.919733872382, -321.4851405006815, 313.12558807439666, -5314.998962283011, -1474.2540090386879, -1453.3551279729759, -5714.871670588454, -4096.583020279768, -2855.4353541654773, -3479.7195768022034, -2396.732854453666, -9484.046338086884, -14580.042908196798, 0.01, -0.108, 0.988, 192.0, 0.0, 0.0, 0.0, 0.0, 0.0, 0.0, 0.0, 0.0, 0.0, 1.645921763374237E9, 0.0, 2022-02-27 11:29:23.374
154.0, -835.9328908840289, -4299.2909907449475, -1545.4219633843857, -9854.168874522315, -106.55076581844877, 426.3595254849822, -5386.993931173555, -1596.1604232979325, -3380.2319622316318, -5993.3967582460355, -3831.267813595273, -2869.181677005491, -3058.8809321976823, -2129.003659367998, -9621.487214742567, -15167.491455971178, 0.01, -0.108, 0.988, 192.0, 0.0, 0.0, 0.0, 0.0, 0.0, 0.0, 0.0, 0.0, 0.0, 1.645921763381412E9, 0.0, 2022-02-27 11:29:23.381
156.0, -1441.3969446893866, -4788.2801041937, -1969.836887101756, -10298.789775227282, -639.6398710775222, 35.65103240621477, -5524.680677018247, -1748.4205065274843, -2835.899929511539, -6373.801097130907, -4249.670118054166, -3026.0015161039255, -3543.086772332999, -2558.224208143259, -9765.767725201575, -15327.529946271176, 0.012, -0.10400000000000001, 0.994, 192.0, 0.0, 48.0, 126.0, 96.0, 15.5, 8.0, 0.0, 0.0, 0.0, 1.645921763387417E9, 0.0, 2022-02-27 11:29:23.387
158.0, -743.8213519837084, -4209.682847223621, -1440.4358196778082, -9734.274117264047, 2.838671545823997, 534.9666517933192, -5191.729091611993, -1357.5108477486192, -1870.5280864868269, -5557.537741367548, -3895.1267475040854, -2805.345094841134, -3223.7026958111164, -2183.832488516866, -9426.982334492486, -14519.380273745093, 0.012, -0.10400000000000001, 0.994, 192.0, 0.0, 0.0, 0.0, 0.0, 0.0, 0.0, 0.0, 0.0, 0.0, 1.645921763395165E9, 0.0, 2022-02-27 11:29:23.395
160.0, -1318.6188123963848, -4692.2793617581565, -1928.262642414885, -10266.715021933916, -567.0861085755955, 50.69375642463642, -5600.25192502164, -1874.551400488782, -4142.717020835522, -6545.395439314299, -4045.3751737326593, -3032.1258940846797, -3235.4150099056974, -2336.785475824532, -9848.580938408488, -15712.516392769385, 0.012, -0.10400000000000001, 0.994, 192.0, 0.0, 0.0, 0.0, 0.0, 0.0, 0.0, 0.0, 0.0, 0.0, 1.645921763403182E9, 0.0, 2022-02-27 11:29:23.403
162.0, -1080.3939199917222, -4475.199219608214, -1691.2223924663535, -10004.797280406628, -325.9554893917429, 305.2577740261286, -5311.981476781545, -1463.0557850665791, -1449.7117936267607, -5707.2944292181055, -4109.703494275033, -2877.049491053759, -3490.0460827405554, -2409.138072626361, -9485.700367176578, -14565.26840511184, 0.012, -0.10400000000000001, 0.994, 192.0, 0.0, 0.0, 0.0, 0.0, 0.0, 0.0, 0.0, 0.0, 0.0, 1.645921763411077E9, 0.0, 2022-02-27 11:29:23.411
164.0, -795.8338613312079, -4256.532103601945, -1538.537626092151, -9846.748095363153, -101.07458842689854, 419.4751881927476, -5355.075640091377, -1576.9826265552792, -3362.328214922931, -5992.681502423466, -3829.0996943831083, -2873.2049910074466, -3067.3298916017884, -2142.5041130190034, -9618.492080985556, -15153.007525564139, 0.012, -0.10400000000000001, 0.994, 192.0, 0.0, 0.0, 0.0, 0.0, 0.0, 0.0, 0.0, 0.0, 0.0, 1.645921763417651E9, 0.0, 2022-02-27 11:29:23.417
166.0, -1387.3280748519987, -4723.348286551033, -1965.8582765887115, -10304.623580530117, -640.1763129444496, 26.486817179538868, -5541.3550783819055, -1754.0531461302216, -2864.443107180966, -6371.521219196466, -4238.583652804334, -3024.816873647794, -3541.5668537100382, -2554.3797080969466, -9768.137010113836, -15342.863242967516, 0.014, -0.106, 0.994, 192.0, 0.0, 56.0, 126.0, 88.0, 15.5, 8.0, 0.0, 0.0, 0.0, 1.645921763425829E9, 0.0, 2022-02-27 11:29:23.425
168.0, -679.0907000411391, -4149.713116850033, -1433.2385579631996, -9733.514157952566, 2.838671545823997, 519.1192649745066, -5201.407396961141, -1371.7489089666497, -1820.2366614623859, -5524.3901043403275, -3870.0257384807755, -2785.764966698285, -3220.4840446095523, -2185.1065379508186, -9423.696628057556, -14520.050826078752, 0.014, -0.106, 0.994, 192.0, 0.0, 0.0, 0.0, 0.0, 0.0, 0.0, 0.0, 0.0, 0.0, 1.645921763433898E9, 0.0, 2022-02-27 11:29:23.433
170.0, -1243.427544048732, -4601.173651358325, -1916.8185492537677, -10261.46236198692, -558.2795212602045, 39.42847721916166, -5620.167329331319, -1866.258903295863, -4126.7802270388875, -6504.536450449998, -4014.261545450872, -3014.6021264317187, -3220.1264166982673, -2353.4822289326466, -9846.301060474047, -15718.283142838854, 0.014, -0.106, 0.994, 192.0, 0.0, 0.0, 0.0, 0.0, 0.0, 0.0, 0.0, 0.0, 0.0, 1.645921763440786E9, 0.0, 2022-02-27 11:29:23.440
172.0, -999.078273663315, -4387.468622621134, -1683.108709229077, -10000.282228026656, -321.7757131786005, 284.3588929604164, -5318.552889651405, -1476.9809218622354, -1426.6894968377944, -5675.93493174731, -4087.3964533086364, -2866.8123920932285, -3478.5572860905277, -2428.2264623911933, -9489.030777100417, -14578.970024462942, 0.014, -0.106, 0.994, 192.0, 0.0, 0.0, 0.0, 0.0, 0.0, 0.0, 0.0, 0.0, 0.0, 1.645921763447669E9, 0.0, 2022-02-27 11:29:23.447
174.0, -706.8515666546306, -4182.681939921611, -1525.7747800081706, -9836.823920824996, -92.82679472289023, 413.2166997452617, -5350.649994689226, -1590.5054319507399, -3324.7325807491043, -5966.105278266105, -3805.3174382826614, -2845.779400560785, -3053.9859001619698, -2141.833560685344, -9615.608705950823, -15155.913252343327, 0.014, -0.106, 0.994, 192.0, 0.0, 0.0, 0.0, 0.0, 0.0, 0.0, 0.0, 0.0, 0.0, 1.645921763463524E9, 0.0, 2022-02-27 11:29:23.463
176.0, -1319.6246408968736, -4662.931521288338, -1966.8641050892004, -10305.785871241793, -654.5261328847567, 11.7123140945809, -5544.260805161096, -1772.850963217135, -2877.921209087516, -6358.601910901298, -4215.561356015367, -2999.045312290825, -3523.9760308237114, -2551.786905740131, -9777.033004407049, -15365.773781034206, 0.014, -0.11, 0.994, 192.0, 0.0, 56.0, 126.0, 72.0, 15.5, 8.0, 0.0, 0.0, 0.0, 1.645921763470352E9, 0.0, 2022-02-27 11:29:23.470
178.0, -633.7613622857765, -4110.709322775522, -1440.6146336334507, -9740.532605711533, -17.59082288632666, 511.6984858153446, -5203.508460939939, -1379.4602608037308, -1787.625466302093, -5517.125787392353, -3869.6681105694906, -2788.6036382441093, -3224.0603237224013, -2198.8752125352876, -9427.71994205951, -14517.793299888766, 0.014, -0.11, 0.994, 192.0, 0.0, 0.0, 0.0, 0.0, 0.0, 0.0, 0.0, 0.0, 0.0, 1.645921763478092E9, 0.0, 2022-02-27 11:29:23.478
180.0, -1195.4383487031876, -4566.081412563492, -1921.5571190782928, -10265.1727515665, -572.6069894560563, 49.21854129058615, -5624.2353468221845, -1881.2122203364636, -4119.471206602002, -6512.091340075892, -4013.5015861393913, -3012.16578628609, -3224.552062100418, -2354.7115748776882, -9852.157217521337, -15715.600933504216, 0.014, -0.11, 0.994, 192.0, 0.0, 0.0, 0.0, 0.0, 0.0, 0.0, 0.0, 0.0, 0.0, 1.64592176348601E9, 0.0, 2022-02-27 11:29:23.486
182.0, -968.1658110816254, -4367.374404355813, -1695.7821483352363, -10020.689370714352, -340.4841232876925, 285.52118367209243, -5334.19911077012, -1492.0012941362018, -1433.4397236632972, -5703.31581870506, -4096.828889468777, -2880.4246044665106, -3491.0742629854994, -2420.9844971876737, -9500.608980728268, -14585.675547799534, 0.014, -0.11, 0.994, 192.0, 0.0, 0.0, 0.0, 0.0, 0.0, 0.0, 0.0, 0.0, 0.0, 1.64592176349316E9, 0.0, 2022-02-27 11:29:23.493
184.0, -670.1052987701057, -4134.536282364879, -1529.1275416764668, -9847.530406419088, -95.68781801316953, 417.9999730586974, -5352.795762156936, -1584.3587022255306, -3290.3779495212975, -5949.050897246707, -3805.362141771572, -2863.1690577470135, -3057.182199619079, -2140.3359938068384, -9621.978953120584, -15143.172758003802, 0.014, -0.11, 0.994, 192.0, 0.0, 0.0, 0.0, 0.0, 0.0, 0.0, 0.0, 0.0, 0.0, 1.645921763500733E9, 0.0, 2022-02-27 11:29:23.500
186.0, -1277.3351403874326, -4624.3077068695675, -1967.3334917227617, -10317.431130103008, -650.4804671383462, 22.016468288477455, -5530.670944532269, -1760.6469107445373, -2856.3070721992344, -6356.769067855963, -4218.176510116638, -3024.2580800364117, -3530.301574504563, -2559.9676442107734, -9778.865847452385, -15359.627051308997, 0.014, -0.108, 0.992, 192.0, 0.0, 56.0, 126.0, 80.0, 15.5, 0.0, 0.0, 0.0, 0.0, 1.645921763508698E9, 0.0, 2022-02-27 11:29:23.508
188.0, -576.7420621802881, -4053.7794296478546, -1434.2667382081436, -9747.50634998159, -11.26527920547476, 512.3466864045484, -5198.971056815512, -1384.9811416841915, -1788.4971843358499, -5498.7973569390015, -3852.4796190833595, -2773.5832659701427, -3212.236250905544, -2181.6196658157905, -9431.34092466127, -14528.723302927412, 0.014, -0.108, 0.992, 192.0, 0.0, 0.0, 0.0, 0.0, 0.0, 0.0, 0.0, 0.0, 0.0, 1.645921763515704E9, 0.0, 2022-02-27 11:29:23.515
190.0, -1131.8699874722943, -4501.2166501541915, -1902.2452118689075, -10256.589681695663, -550.5905211675789, 54.895884382234144, -5606.0410268355645, -1878.5300110018268, -4103.445005827547, -6479.413089682233, -3985.2489811478836, -2999.492347179931, -3206.5365560694404, -2353.9963190551184, -9848.938566319772, -15728.45318656602, 0.014, -0.108, 0.992, 192.0, 0.0, 0.0, 0.0, 0.0, 0.0, 0.0, 0.0, 0.0, 0.0, 1.645921763522877E9, 0.0, 2022-02-27 11:29:23.522
192.0, -920.3777814361789, -4318.848767143341, -1678.0348632377224, -10021.069350370091, -321.887471900877, 290.5726779189918, -5310.059226758388, -1488.7602911901822, -1416.0500664770684, -5691.581152866024, -4071.571418234279, -2845.6005866051423, -3475.83037326698, -2419.822206475998, -9491.243599801493, -14599.734795061922, 0.014, -0.108, 0.992, 192.0, 0.0, 0.0, 0.0, 0.0, 0.0, 0.0, 0.0, 0.0, 0.0, 1.645921763530394E9, 0.0, 2022-02-27 11:29:23.530
194.0, -616.7293330108324, -4090.8162702102986, -1509.055675155601, -9845.831673840485, -80.22041085009705, 424.43727546182583, -5345.397334742229, -1581.1624027684215, -3255.5092281710185, -5906.2249548703385, -3781.2222577598404, -2858.385784433578, -3044.531112257375, -2146.1697991096735, -9604.14226104525, -15143.843310337463, 0.015, -0.108, 0.992, 192.0, 0.0, 64.0, 126.0, 80.0, 15.5, 0.0, 0.0, 0.0, 0.0, 1.645921763538449E9, 0.0, 2022-02-27 11:29:23.538
196.0, -1243.807523704472, -4595.473956522222, -1963.8019160988233, -10312.42433934502, -656.0460515077176, 11.846424561312743, -5536.929432979755, -1779.5564865537272, -2899.512994231343, -6347.8730735627505, -4195.757710427965, -2982.7061870939956, -3514.3647807079296, -2563.1192401789713, -9776.474210795666, -15390.204237723858, 0.015, -0.108, 0.992, 192.0, 0.0, 0.0, 0.0, 0.0, 0.0, 0.0, 0.0, 0.0, 0.0, 1.645921763546439E9, 0.0, 2022-02-27 11:29:23.546
198.0, -542.3874309524812, -4026.13032175664, -1426.7789038156156, -9737.82804463244, -19.781293842946752, 515.5206341172021, -5190.142117755666, -1383.6176852724177, -1725.4429132274288, -5492.315351046962, -3842.242520122829, -2736.747591107797, -3225.2896696674434, -2202.026808503486, -9419.069816955307, -14519.067349322719, 0.015, -0.108, 0.992, 192.0, 0.0, 0.0, 0.0, 0.0, 0.0, 0.0, 0.0, 0.0, 0.0, 1.645921763552832E9, 0.0, 2022-02-27 11:29:23.552
200.0, -1088.4852514845434, -4459.821219422963, -1893.8409559537122, -10237.993030308848, -551.2834252456934, 65.37885253177316, -5594.798099374545, -1882.5756767482374, -4080.0874328717514, -6463.7445168190625, -3961.802001214266, -2966.3670618971664, -3196.455919320097, -2336.3160891909706, -9835.3710574354, -15714.036311392345, 0.015, -0.108, 0.992, 192.0, 0.0, 0.0, 0.0, 0.0, 0.0, 0.0, 0.0, 0.0, 0.0, 1.645921763561052E9, 0.0, 2022-02-27 11:29:23.561
202.0, -892.79572877833, -4292.5407639194445, -1684.4274621519403, -10007.859469397006, -346.2955768460723, 285.1412040163522, -5321.458616430595, -1488.6038289789951, -1408.8081012735488, -5670.615216566946, -4058.830923894754, -2827.7415427853516, -3484.346387904452, -2413.071979650495, -9495.982169626019, -14603.534591619326, 0.015, -0.108, 0.992, 192.0, 0.0, 0.0, 0.0, 0.0, 0.0, 0.0, 0.0, 0.0, 0.0, 1.645921763568944E9, 0.0, 2022-02-27 11:29:23.568
204.0, -586.3086088071595, -4066.542275731835, -1500.897288429414, -9822.451749140233, -91.93272494467794, 429.53347319763583, -5347.1184190652875, -1587.4879464492735, -3218.1147596972896, -5899.9441146783965, -3763.5420278956926, -2804.406321574011, -3049.5155512709084, -2128.8471971568106, -9605.729234901577, -15129.985228775173, 0.0155, -0.11, 0.992, 192.0, 0.0, 64.0, 126.0, 64.0, 15.5, 0.0, 0.0, 0.0, 0.0, 1.645921763582611E9, 0.0, 2022-02-27 11:29:23.582
206.0, -1217.454816991665, -4563.153334039847, -1953.5871688827478, -10305.22707763041, -668.5630284026895, 18.239023475530562, -5558.655328590314, -1770.4146230715064, -2873.3391014741783, -6332.942108266605, -4183.084271321806, -2978.3028934363, -3520.3997517108623, -2546.7577632376865, -9781.279835853558, -15389.265464456734, 0.0155, -0.11, 0.992, 192.0, 0.0, 0.0, 0.0, 0.0, 0.0, 0.0, 0.0, 0.0, 0.0, 1.645921763590747E9, 0.0, 2022-02-27 11:29:23.590
208.0, -519.00750625223, -3990.83691726171, -1418.2405374336884, -9731.681314907231, -25.659802634692507, 520.3709626640037, -5209.096397053766, -1375.9286851797922, -1726.1358173055432, -5454.429144195216, -3821.813025690678, -2747.6328906575313, -3214.2255561620664, -2186.5146978515027, -9423.71897980201, -14520.386102245582, 0.0155, -0.11, 0.992, 192.0, 0.0, 0.0, 0.0, 0.0, 0.0, 0.0, 0.0, 0.0, 0.0, 1.645921763598728E9, 0.0, 2022-02-27 11:29:23.598
210.0, -1055.3823179462336, -4433.5355679435215, -1873.4114615215615, -10225.118425502591, -544.8014193536543, 68.19517233314185, -5604.319942512506, -1890.711711729969, -4074.2089240800055, -6440.766923519007, -3944.0547161167524, -2962.9695967399593, -3187.5599250268847, -2322.882690773331, -9835.907499302328, -15718.238439349943, 0.0155, -0.11, 0.992, 192.0, 0.0, 0.0, 0.0, 0.0, 0.0, 0.0, 0.0, 0.0, 0.0, 1.645921763605387E9, 0.0, 2022-02-27 11:29:23.605
212.0, -877.6859495265425, -4275.352272433313, -1671.7763747902363, -10006.540716474143, -348.7095652472455, 273.89827655533276, -5312.964953537578, -1505.2111751092882, -1391.5972580429625, -5659.349937361471, -4040.2119207634832, -2844.6171098491086, -3473.4834400991726, -2409.473348793191, -9492.987035869008, -14615.090443502719, 0.0155, -0.11, 0.992, 192.0, 0.0, 0.0, 0.0, 0.0, 0.0, 0.0, 0.0, 0.0, 0.0, 1.645921763613359E9, 0.0, 2022-02-27 11:29:23.613
214.0, -590.2201640868383, -4086.3012178303266, -1484.602866721495, -9810.873545512384, -78.43227129367249, 425.6666214068677, -5336.233119515553, -1576.4908881772624, -3178.261599333477, -5885.549591249179, -3754.243702202285, -2786.6366847320423, -3041.848902922738, -2135.8209414268663, -9592.362891717303, -15117.4682518802, 0.017750000000000002, -0.112, 0.991, 192.0, 0.0, 80.0, 126.0, 56.0, 15.0, 120.0, 0.0, 0.0, 0.0, 1.645921763621201E9, 0.0, 2022-02-27 11:29:23.621
216.0, -1243.293433582, -4582.733462182697, -1950.256758958907, -10305.85292647516, -666.8642958240862, 7.040799503421725, -5557.627148345369, -1787.4243006019951, -2906.5537937347644, -6344.252090960991, -4178.122184052728, -2967.7752217978505, -3513.046027785066, -2551.4963330622118, -9782.620940520876, -15402.85532508556, 0.017750000000000002, -0.112, 0.991, 192.0, 0.0, 0.0, 0.0, 0.0, 0.0, 0.0, 0.0, 0.0, 0.0, 1.645921763628267E9, 0.0, 2022-02-27 11:29:23.628
218.0, -575.0433296016848, -4072.197267079028, -1420.4310083903085, -9734.274117264047, -25.078657278854525, 515.8335585395764, -5200.401568460652, -1385.0481969175573, -1712.6130119100824, -5478.770193907046, -3839.984993932843, -2742.4025824549894, -3225.9378702566473, -2193.510793866014, -9422.10965420123, -14510.439575962972, 0.017750000000000002, -0.112, 0.991, 192.0, 0.0, 0.0, 0.0, 0.0, 0.0, 0.0, 0.0, 0.0, 0.0, 1.645921763634878E9, 0.0, 2022-02-27 11:29:23.634
220.0, -1151.3383568928668, -4545.048421031049, -1872.0033016208772, -10221.676256856474, -526.4282854113919, 80.7121492281138, -5572.312244452506, -1873.5008684993827, -4101.9474389490415, -6458.447153383155, -3966.4064605720596, -2965.987082241426, -3187.8057942158935, -2328.4259233982475, -9830.677191099787, -15710.325921812764, 0.017750000000000002, -0.112, 0.991, 192.0, 0.0, 0.0, 0.0, 0.0, 0.0, 0.0, 0.0, 0.0, 0.0, 1.645921763642857E9, 0.0, 2022-02-27 11:29:23.642
222.0, -1038.9314340271276, -4442.6327279368315, -1697.6149913805714, -10028.423074295888, -355.88447521739903, 276.4463754232377, -5333.550910180916, -1526.154759663911, -1476.3774247619422, -5720.727827635745, -4095.8454127127425, -2853.3566419311337, -3484.1899256932647, -2415.3518575849366, -9501.793623184398, -14633.41887395607, 0.017750000000000002, -0.112, 0.991, 192.0, 0.0, 0.0, 0.0, 0.0, 0.0, 0.0, 0.0, 0.0, 0.0, 1.645921763650833E9, 0.0, 2022-02-27 11:29:23.650
224.0, -738.5686920367112, -4217.885937438719, -1500.405550051397, -9811.298228657035, -75.92887591467809, 454.4780200097585, -5331.360439224296, -1546.2266261847767, -3190.040968661424, -5911.723484006344, -3795.2591532777733, -2836.637537078564, -3044.821684935294, -2120.0182580969645, -9591.066490538895, -15091.540228312044, 0.014875000000000001, -0.10700000000000001, 0.9915, 192.0, 0.0, 48.0, 126.0, 104.0, 15.5, 0.0, 0.0, 0.0, 0.0, 1.645921763657931E9, 0.0, 2022-02-27 11:29:23.657
226.0, -1440.3687644444424, -4774.131449953491, -1975.6036371712253, -10313.720740523428, -665.903170812508, 20.98828804353333, -5540.013973714587, -1785.3455883676515, -3033.3552400297217, -6402.07605386687, -4228.234795121526, -3027.6331934491627, -3512.7554551071476, -2538.5099695336785, -9789.41587083529, -15414.724101391328, 0.014875000000000001, -0.10700000000000001, 0.9915, 192.0, 0.0, 0.0, 0.0, 0.0, 0.0, 0.0, 0.0, 0.0, 0.0, 1.645921763665456E9, 0.0, 2022-02-27 11:29:23.665
228.0, -775.8290500437081, -4246.451466852602, -1443.8556365794702, -9748.333364526436, -35.31575623938516, 515.2524131837384, -5191.483222422984, -1375.9510369242475, -1756.333024064663, -5524.0995316624085, -3905.430901697982, -2799.533641282754, -3245.4062396772197, -2200.372779413793, -9418.242802410461, -14500.336587469172, 0.014875000000000001, -0.10700000000000001, 0.9915, 192.0, 0.0, 0.0, 0.0, 0.0, 0.0, 0.0, 0.0, 0.0, 0.0, 1.645921763673556E9, 0.0, 2022-02-27 11:29:23.673
230.0, -1284.6218090798627, -4657.92473053035, -1877.6359412236145, -10232.583908150662, -534.6090238820343, 81.58386726187078, -5592.58527667347, -1877.9041621570782, -4162.721832123021, -6494.276999745011, -4010.349990171193, -3018.0666468222917, -3191.96321868458, -2324.536719863024, -9832.308868445023, -15704.290950809831, 0.014875000000000001, -0.10700000000000001, 0.9915, 192.0, 0.0, 0.0, 0.0, 0.0, 0.0, 0.0, 0.0, 0.0, 0.0, 1.645921763681477E9, 0.0, 2022-02-27 11:29:23.681
232.0, -1127.8243217258837, -4520.975592252683, -1706.8462618406131, -10042.370562836, -376.626894071924, 261.9177415272882, -5342.849235874323, -1518.4881113157405, -1530.9827364662572, -5752.132028595452, -4130.512968362924, -2903.1339768331027, -3497.1315857328877, -2420.3586483429253, -9509.057940132374, -14640.034990314842, 0.014875000000000001, -0.10700000000000001, 0.9915, 192.0, 0.0, 0.0, 0.0, 0.0, 0.0, 0.0, 0.0, 0.0, 0.0, 1.645921763688113E9, 0.0, 2022-02-27 11:29:23.688
234.0, -765.5248958498116, -4244.9986034630065, -1494.05765462609, -9815.522708359089, -78.834602693868, 445.5149704831804, -5338.9600323391005, -1577.563771911117, -3214.3149631398874, -5913.399864840492, -3814.168729086963, -2851.1438192300584, -3054.0976588842464, -2128.511920989981, -9591.066490538895, -15092.255484134614, 0.013437500000000002, -0.10650000000000001, 0.99275, 192.0, 0.0, 48.0, 126.0, 88.0, 15.5, 8.0, 0.0, 0.0, 0.0, 1.645921763695113E9, 0.0, 2022-02-27 11:29:23.695
236.0, -1395.3747028559094, -4737.563996024608, -1968.652244645625, -10316.693522535983, -667.5124964132901, 3.3304099238407523, -5551.8603982759005, -1796.2755914062968, -3027.275565537878, -6395.325827041367, -4221.015181662462, -3028.12493182718, -3513.001324296156, -2567.321368136569, -9791.338120858445, -15424.24594452929, 0.013437500000000002, -0.10650000000000001, 0.99275, 192.0, 0.0, 0.0, 0.0, 0.0, 0.0, 0.0, 0.0, 0.0, 0.0, 1.64592176371012E9, 0.0, 2022-02-27 11:29:23.710
238.0, -695.7203979158876, -4173.338910739292, -1438.3571074434649, -9745.897024380807, -35.69573589512538, 507.0940264575513, -5205.1848417740875, -1391.284333620588, -1740.0386023567441, -5505.99461865361, -3880.2181339523954, -2779.5958852286203, -3233.7609808160046, -2213.9179365537093, -9417.326380887793, -14506.103337538641, 0.013437500000000002, -0.10650000000000001, 0.99275, 192.0, 0.0, 0.0, 0.0, 0.0, 0.0, 0.0, 0.0, 0.0, 0.0, 1.645921763717788E9, 0.0, 2022-02-27 11:29:23.717
240.0, -1181.6473223742632, -4568.76362189813, -1868.0246911078325, -10208.958114261402, -518.2028434518389, 94.23495462357458, -5594.753395885635, -1872.2268190654302, -4148.372012182715, -6463.364537163322, -3975.481268820914, -2978.280541691845, -3180.7426429680163, -2327.2859844310265, -9832.353571933934, -15706.43671827754, 0.013437500000000002, -0.10650000000000001, 0.99275, 192.0, 0.0, 0.0, 0.0, 0.0, 0.0, 0.0, 0.0, 0.0, 0.0, 1.645921763725818E9, 0.0, 2022-02-27 11:29:23.725
242.0, -1050.6213963772532, -4447.795980906008, -1720.9055091030014, -10044.717496003806, -383.15360345287365, 264.018805506087, -5352.594596456837, -1530.2004254103215, -1535.92247199088, -5755.037755374641, -4109.122348919195, -2872.75795611834, -3503.5912398804717, -2437.949471229252, -9518.803300714886, -14654.273051532871, 0.013437500000000002, -0.10650000000000001, 0.99275, 192.0, 0.0, 0.0, 0.0, 0.0, 0.0, 0.0, 0.0, 0.0, 0.0, 1.64592176373426E9, 0.0, 2022-02-27 11:29:23.734
