%OpenBCI Raw EEG Data
%Number of channels = 16
%Sample Rate = 125 Hz
%Board = OpenBCI_GUI$BoardCytonSerialDaisy
Sample Index, EXG Channel 0, EXG Channel 1, EXG Channel 2, EXG Channel 3, EXG Channel 4, EXG Channel 5, EXG Channel 6, EXG Channel 7, EXG Channel 8, EXG Channel 9, EXG Channel 10, EXG Channel 11, EXG Channel 12, EXG Channel 13, EXG Channel 14, EXG Channel 15, Accel Channel 0, Accel Channel 1, Accel Channel 2, Other, Other, Other, Other, Other, Other, Other, Analog Channel 0, Analog Channel 1, Analog Channel 2, Timestamp, Other, Timestamp (Formatted)
64.0, -950.0608980728267, -4229.285327110926, -1753.4496490299284, -10089.219819214322, -274.3453114444389, 124.58862359388156, -5516.924621692255, -1772.627445772582, -4212.2980013248925, -6378.852591377806, -3837.8615782095885, -2951.927834979038, -3070.436784081076, -2229.027715805497, -9812.66168506881, -15714.975084659469, 0.0, 0.0, 0.0, 192.0, 0.0, 0.0, 0.0, 0.0, 0.0, 0.0, 0.0, 0.0, 0.0, 1.645921797025913E9, 0.0, 2022-02-27 11:29:57.025
66.0, -951.9160928626172, -4213.773216458942, -1681.6781975839374, -10013.55916423311, -244.39397387432743, 224.09858990890862, -5290.657912571181, -1462.608750177473, -1480.020759108157, -5717.576231667546, -4069.4256507665696, -2868.4217176940106, -3461.1452771598433, -2387.970970627185, -9488.06965208884, -14699.6694445216, 0.0, 0.0, 0.0, 192.0, 0.0, 0.0, 0.0, 0.0, 0.0, 0.0, 0.0, 0.0, 0.0, 1.645921797025916E9, 0.0, 2022-02-27 11:29:57.025
0.0, -183.75369116707935, -1882.5309732593266, -656.8507143081086, -4822.746494143784, 119.20185318015257, 274.3900149333495, -2628.565147944111, -731.4608372999236, -1961.9914247979434, -3019.6089171897074, -1834.2735569803187, -1426.7118485822498, -1452.3716512169424, -1029.7001635670858, -4838.392715262498, -7704.512203277613, 0.02, -0.106, 0.984, 192.0, 0.0, 80.0, 126.0, 88.0, 15.0, 96.0, 0.0, 0.0, 0.0, 1.645921797131277E9, 0.0, 2022-02-27 11:29:57.131
2.0, -1188.3751974553106, -4410.356808943368, -1910.2918398728182, -10285.311673320732, -508.1222067024955, 21.07769502135456, -5590.037177805564, -1804.5010333658497, -3733.6800973034024, -6488.443194442177, -4039.384906218637, -2998.9782570574594, -3309.220470097121, -2429.724029269699, -9860.226197269702, -15692.042194848324, 0.02, -0.106, 0.984, 192.0, 0.0, 0.0, 0.0, 0.0, 0.0, 0.0, 0.0, 0.0, 0.0, 1.645921797139566E9, 0.0, 2022-02-27 11:29:57.139
4.0, -579.7818994262099, -3914.6398204135685, -1417.4582263777527, -9756.581158230443, 61.31083504090727, 463.4187177918813, -5178.78743157237, -1316.8530245844156, -1270.8978379843043, -5378.500268280539, -3864.303691900217, -2761.6250826865535, -3272.429498723686, -2215.0355237764747, -9389.230238107471, -14404.827583411645, 0.02, -0.106, 0.984, 192.0, 0.0, 0.0, 0.0, 0.0, 0.0, 0.0, 0.0, 0.0, 0.0, 1.645921797147396E9, 0.0, 2022-02-27 11:29:57.147
6.0, -767.2906836617808, -4077.4722787704804, -1624.4577317783514, -9981.640873150931, -143.11821974733112, 261.22483744917366, -5488.2920370450065, -1713.171805521465, -4082.970807906486, -6220.7363511009635, -3758.468181904338, -2908.654857713563, -3011.763454885895, -2163.5594562959022, -9779.357585830401, -15574.136742846578, 0.02, -0.106, 0.984, 192.0, 0.0, 0.0, 0.0, 0.0, 0.0, 0.0, 0.0, 0.0, 0.0, 1.645921797153839E9, 0.0, 2022-02-27 11:29:57.153
8.0, -1022.9722884860383, -4270.993682264529, -1742.5867012246492, -10108.911706079449, -338.87479768691037, 176.13174630781964, -5379.237875847563, -1540.4151726263967, -1834.5417779137824, -5924.93336497943, -4113.033904198874, -2899.2671250423346, -3492.504774630639, -2448.0077562341403, -9594.396900462736, -14910.424042990691, 0.012, -0.10400000000000001, 0.98, 192.0, 0.0, 48.0, 126.0, 96.0, 15.0, 80.0, 0.0, 0.0, 0.0, 1.645921797163267E9, 0.0, 2022-02-27 11:29:57.163
10.0, -368.9602457237537, -3764.2125802293517, -1293.7636725620835, -9623.901203143741, 236.95084297071017, 561.1181928060284, -5218.305315769353, -1362.4729350176974, -2532.78792295312, -5605.705750668735, -3690.9435619048554, -2765.4695827328665, -3027.141455071146, -2066.9105132711547, -9505.369902297247, -14795.089041601306, 0.012, -0.10400000000000001, 0.98, 192.0, 0.0, 0.0, 0.0, 0.0, 0.0, 0.0, 0.0, 0.0, 0.0, 1.645921797169613E9, 0.0, 2022-02-27 11:29:57.169
12.0, -1189.8504125893608, -4408.993352531595, -1907.944906705011, -10288.105641377646, -508.81511078061, 10.013581515977563, -5569.428869417771, -1809.239603190375, -3748.40989689945, -6503.463566716143, -4050.225502279461, -3008.3883414731436, -3321.156301636255, -2442.1292474423944, -9873.659595687343, -15715.39976780412, 0.012, -0.10400000000000001, 0.98, 192.0, 0.0, 0.0, 0.0, 0.0, 0.0, 0.0, 0.0, 0.0, 0.0, 1.645921797176611E9, 0.0, 2022-02-27 11:29:57.176
14.0, -578.5749052256233, -3914.5057099468363, -1414.2172234317331, -9757.54228324202, 64.99887287603293, 456.44497352182555, -5175.747594326448, -1322.2174432536892, -1261.2865878685222, -5393.811213232424, -3866.4047558790157, -2765.223713543858, -3270.775469633993, -2207.6817998506785, -9380.803630447821, -14407.688606701924, 0.012, -0.10400000000000001, 0.98, 192.0, 0.0, 0.0, 0.0, 0.0, 0.0, 0.0, 0.0, 0.0, 0.0, 1.645921797184487E9, 0.0, 2022-02-27 11:29:57.184
16.0, -747.6882037744765, -4057.5345227163466, -1610.0408566046783, -9965.704079354296, -126.22030093911899, 272.5795236324696, -5467.706080401669, -1677.0960899705995, -4065.4023367646146, -6202.318513669791, -3748.9463387663773, -2892.315732516734, -3003.5156611818866, -2154.8422759583327, -9774.12727762786, -15561.351545018142, 0.011, -0.10400000000000001, 0.98, 192.0, 0.0, 40.0, 126.0, 96.0, 15.0, 80.0, 0.0, 0.0, 0.0, 1.645921797198805E9, 0.0, 2022-02-27 11:29:57.198
18.0, -1019.7983407733848, -4259.683699570143, -1742.1173145910877, -10097.42290942942, -335.7679052076227, 190.30275229248434, -5393.990027188066, -1525.5289108191623, -1858.3687375031398, -5900.055873400674, -4108.362389607714, -2908.0066571243597, -3486.335693160974, -2446.1525614443494, -9593.32401672888, -14916.503717482534, 0.011, -0.10400000000000001, 0.98, 192.0, 0.0, 0.0, 0.0, 0.0, 0.0, 0.0, 0.0, 0.0, 0.0, 1.645921797206133E9, 0.0, 2022-02-27 11:29:57.206
20.0, -361.047728186575, -3750.4886091337935, -1286.9463905032148, -9611.160708804216, 249.7136890546905, 575.1997918128719, -5201.005065560945, -1354.4039552693314, -2493.8735358564304, -5577.34138695495, -3690.049492126643, -2759.16639079647, -3024.1239695696795, -2057.5898358332915, -9493.344663780292, -14767.73050638801, 0.011, -0.10400000000000001, 0.98, 192.0, 0.0, 0.0, 0.0, 0.0, 0.0, 0.0, 0.0, 0.0, 0.0, 1.645921797214195E9, 0.0, 2022-02-27 11:29:57.214
22.0, -1175.4558891601432, -4389.793204044486, -1895.4055780655835, -10278.27087381731, -498.60036356453463, 31.605366659804186, -5582.616398646403, -1799.5389460967717, -3771.298083221684, -6471.589979122875, -4039.250795751905, -3005.5496699273194, -3307.879365429803, -2405.517090024601, -9866.864665372928, -15714.796270703826, 0.011, -0.10400000000000001, 0.98, 192.0, 0.0, 0.0, 0.0, 0.0, 0.0, 0.0, 0.0, 0.0, 0.0, 1.645921797222168E9, 0.0, 2022-02-27 11:29:57.222
24.0, -580.4748035043244, -3920.8536053721436, -1407.6234588174175, -9751.395553516812, 65.73648044305807, 473.1193748854846, -5183.593056630261, -1298.6587045977956, -1249.3507563293883, -5393.7888614879685, -3858.425183108471, -2751.611501170576, -3267.6462254102503, -2205.7819015719774, -9377.42851703507, -14394.858705384579, 0.011, -0.10400000000000001, 0.98, 192.0, 0.0, 0.0, 0.0, 0.0, 0.0, 0.0, 0.0, 0.0, 0.0, 1.64592179722888E9, 0.0, 2022-02-27 11:29:57.228
26.0, -734.6124332681219, -4055.187589548539, -1598.4626529768293, -9953.432971648333, -115.5361670894822, 277.94394230174333, -5475.015100838555, -1692.988180278323, -4048.1691417895727, -6200.642132835643, -3737.457542116349, -2872.154459018047, -2996.0054750449035, -2129.048362856908, -9772.674414238265, -15550.890928613058, 0.010499999999999999, -0.10400000000000001, 0.982, 192.0, 0.0, 40.0, 126.0, 96.0, 15.0, 96.0, 0.0, 0.0, 0.0, 1.645921797238168E9, 0.0, 2022-02-27 11:29:57.238
28.0, -1011.7517127694742, -4255.302757656903, -1736.2835092882526, -10096.037101273192, -330.1576173493406, 187.6652464467581, -5386.301027095441, -1533.5531870786176, -1860.8050776487682, -5885.124908104528, -4097.767662735899, -2887.2865900142897, -3477.2385331676646, -2431.467465337213, -9597.794365619942, -14922.829261163386, 0.010499999999999999, -0.10400000000000001, 0.982, 192.0, 0.0, 0.0, 0.0, 0.0, 0.0, 0.0, 0.0, 0.0, 0.0, 1.64592179724541E9, 0.0, 2022-02-27 11:29:57.245
30.0, -362.21001889825095, -3755.942434780888, -1281.291399156022, -9611.5183367155, 258.02853799206474, 579.8266029151205, -5189.136289255177, -1336.4331527272645, -2492.554782933567, -5577.386090443861, -3683.701596701336, -2757.6911756624195, -3017.8654811221936, -2041.094248425275, -9490.885971890208, -14767.39523022118, 0.010499999999999999, -0.10400000000000001, 0.982, 192.0, 0.0, 0.0, 0.0, 0.0, 0.0, 0.0, 0.0, 0.0, 0.0, 1.645921797251549E9, 0.0, 2022-02-27 11:29:57.251
32.0, -1181.714377607629, -4408.166337986749, -1886.0401971388098, -10274.851056915648, -482.17183138988395, 36.27688125096336, -5586.863230092911, -1794.3533413831403, -3783.36802522755, -6504.827023127917, -4032.8581968376875, -3006.9354780835483, -3297.329342046898, -2402.5443080120453, -9866.082354316994, -15715.757395715404, 0.010499999999999999, -0.10400000000000001, 0.982, 192.0, 0.0, 0.0, 0.0, 0.0, 0.0, 0.0, 0.0, 0.0, 0.0, 1.645921797258426E9, 0.0, 2022-02-27 11:29:57.258
34.0, -609.2862021072152, -3961.064393647241, -1408.7186942957276, -9759.553940242999, 67.61402697730387, 465.6091887485014, -5172.350129169242, -1289.8968207713153, -1245.5956632608966, -5406.462300594128, -3870.0257384807755, -2768.4200130009667, -3266.4168794652082, -2191.208564187117, -9373.740479199943, -14394.255208284285, 0.010499999999999999, -0.10400000000000001, 0.982, 192.0, 0.0, 0.0, 0.0, 0.0, 0.0, 0.0, 0.0, 0.0, 0.0, 1.645921797266504E9, 0.0, 2022-02-27 11:29:57.266
36.0, -765.5248958498116, -4113.883270488175, -1584.0234260587008, -9951.287204180624, -91.26217261101874, 288.98570406266504, -5451.679879627214, -1670.144697444999, -4034.4898741829247, -6208.666409095098, -3742.8443125300782, -2885.0290638243036, -2987.176535985057, -2129.5401012349253, -9754.949480885207, -15528.494480668842, 0.010249999999999999, -0.10400000000000001, 0.985, 192.0, 0.0, 40.0, 126.0, 96.0, 15.0, 112.0, 0.0, 0.0, 0.0, 1.64592179727473E9, 0.0, 2022-02-27 11:29:57.274
38.0, -1096.1966033216243, -4336.0372586294725, -1737.0211168552778, -10109.112871779547, -323.00505912364235, 179.79743239849, -5387.888000951767, -1531.2733091441762, -1912.035275940332, -5967.491086422335, -4113.391532110159, -2920.009543896859, -3472.052928454033, -2435.4460758502573, -9596.207391763615, -14935.994438647562, 0.010249999999999999, -0.10400000000000001, 0.985, 192.0, 0.0, 0.0, 0.0, 0.0, 0.0, 0.0, 0.0, 0.0, 0.0, 1.645921797281082E9, 0.0, 2022-02-27 11:29:57.281
40.0, -493.61592455100117, -3896.3784451935826, -1273.1777159187457, -9604.544592445445, 280.24617198063993, 590.4436815313913, -5176.149925726643, -1315.422512939276, -2475.7686228476314, -5579.017767789098, -3712.8482714710563, -2773.963245625883, -3016.658486921607, -2030.8795012091998, -9475.396212982681, -14734.985200760986, 0.010249999999999999, -0.10400000000000001, 0.985, 192.0, 0.0, 0.0, 0.0, 0.0, 0.0, 0.0, 0.0, 0.0, 0.0, 1.645921797289087E9, 0.0, 2022-02-27 11:29:57.289
42.0, -1378.9238189368034, -4602.738273470196, -1887.6048192506814, -10272.79469642576, -459.3283485565601, 48.97267210157777, -5571.909913052311, -1788.944219224956, -3881.0898519861526, -6542.936747424215, -4056.5286942158577, -3037.6691267095957, -3265.4334027091745, -2378.113851322395, -9852.783066366084, -15708.850706678715, 0.010249999999999999, -0.10400000000000001, 0.985, 192.0, 0.0, 0.0, 0.0, 0.0, 0.0, 0.0, 0.0, 0.0, 0.0, 1.645921797297011E9, 0.0, 2022-02-27 11:29:57.297
44.0, -889.4206153655787, -4228.88299571073, -1436.9936510316911, -9778.59762651892, 66.7870124324575, 470.3924620619371, -5154.424030116085, -1266.9862827046256, -1333.2145015257004, -5491.600095224392, -3952.995413898875, -2844.862979038117, -3281.526658716996, -2204.8207765603993, -9380.624816492178, -14401.22895255434, 0.010249999999999999, -0.10400000000000001, 0.985, 192.0, 0.0, 0.0, 0.0, 0.0, 0.0, 0.0, 0.0, 0.0, 0.0, 1.645921797304297E9, 0.0, 2022-02-27 11:29:57.304
46.0, -1042.3288991843342, -4371.15184916876, -1604.3635135130303, -9961.390192674422, -74.85599218082335, 311.69507642925697, -5437.195949220175, -1637.958185429357, -4119.8511862577425, -6279.655549485154, -3825.1434356145187, -2974.2572276898895, -2989.657579619596, -2125.673249444157, -9748.489826737623, -15504.756928057306, 0.013125, -0.10400000000000001, 0.9875, 192.0, 0.0, 64.0, 126.0, 96.0, 15.0, 120.0, 0.0, 0.0, 0.0, 1.645921797320262E9, 0.0, 2022-02-27 11:29:57.320
48.0, -1352.3475947794432, -4605.91222118285, -1761.20570435592, -10130.145863311991, -321.4180852673156, 192.22500231564075, -5348.593634199337, -1498.7291692172491, -2017.0437713913645, -6040.737753002376, -4202.329123297825, -3012.4116554750985, -3477.3949953788515, -2436.0942764394613, -9589.926551571674, -14922.985723374573, 0.013125, -0.10400000000000001, 0.9875, 192.0, 0.0, 0.0, 0.0, 0.0, 0.0, 0.0, 0.0, 0.0, 0.0, 1.645921797326657E9, 0.0, 2022-02-27 11:29:57.326
50.0, -679.9177145859856, -4065.0447088533297, -1294.7024458292062, -9633.020714881506, 276.8934103123439, 590.3766262980255, -5149.372535869185, -1303.6654953557845, -2543.4497050583013, -5655.326623359517, -3780.5293536817258, -2858.832819322684, -3022.402885246621, -2036.1545129006522, -9468.221303012528, -14725.48570936748, 0.013125, -0.10400000000000001, 0.9875, 192.0, 0.0, 0.0, 0.0, 0.0, 0.0, 0.0, 0.0, 0.0, 0.0, 1.645921797333911E9, 0.0, 2022-02-27 11:29:57.333
52.0, -1484.0664248545677, -4706.584478209553, -1910.3365433617287, -10288.016234399824, -479.44491856633647, 40.5237126974717, -5566.657253105313, -1786.8431552461573, -3940.1431608370735, -6576.620826318363, -4119.828834513287, -3098.488223372486, -3293.931876889691, -2416.4470930632465, -9866.708203161741, -15716.249134093421, 0.013125, -0.10400000000000001, 0.9875, 192.0, 0.0, 0.0, 0.0, 0.0, 0.0, 0.0, 0.0, 0.0, 0.0, 1.645921797341393E9, 0.0, 2022-02-27 11:29:57.341
54.0, -902.5634411052991, -4234.381524846736, -1439.8546743219704, -9781.190428875736, 64.14950658673126, 479.80254647762143, -5176.9545885270345, -1282.3419311454215, -1339.0259550840801, -5479.641911940803, -3958.2480738458726, -2860.509200156832, -3271.9601120901243, -2206.251288205539, -9376.266226323394, -14389.807211137679, 0.013125, -0.10400000000000001, 0.9875, 192.0, 0.0, 0.0, 0.0, 0.0, 0.0, 0.0, 0.0, 0.0, 0.0, 1.645921797349268E9, 0.0, 2022-02-27 11:29:57.349
56.0, -1001.4922620644883, -4337.400715041246, -1603.2906297791756, -9950.996631502705, -73.02314913548817, 304.36370424791625, -5434.066704996432, -1657.0689269386444, -4126.646116572156, -6273.844095926774, -3823.779979202745, -2981.92387603806, -2990.9316290535485, -2144.5604735088914, -9756.827027419451, -15510.926009526971, 0.0135625, -0.10500000000000001, 0.98975, 192.0, 0.0, 56.0, 126.0, 88.0, 15.5, 0.0, 0.0, 0.0, 0.0, 1.645921797358344E9, 0.0, 2022-02-27 11:29:57.358
58.0, -1300.2680301985777, -4553.09504903496, -1773.4991638063389, -10134.750322669785, -333.823303440011, 193.43199651622731, -5371.3030065659295, -1515.8729572144696, -2043.575292059814, -6040.804808235742, -4190.214477803049, -2980.985102770937, -3481.3959576363513, -2445.7278782996987, -9608.254982025026, -14958.592052291877, 0.0135625, -0.10500000000000001, 0.98975, 192.0, 0.0, 0.0, 0.0, 0.0, 0.0, 0.0, 0.0, 0.0, 0.0, 1.645921797363943E9, 0.0, 2022-02-27 11:29:57.363
60.0, -604.6370392605113, -4011.3334669272267, -1301.5644313769856, -9620.593144964356, 270.2102387202071, 590.6895507203998, -5170.114954723711, -1299.9774575206588, -2491.6607131553546, -5634.9194806718215, -3766.5148099082485, -2824.7911125172513, -3033.377591774177, -2053.477114853515, -9472.848114114775, -14709.414805104114, 0.0135625, -0.10500000000000001, 0.98975, 192.0, 0.0, 0.0, 0.0, 0.0, 0.0, 0.0, 0.0, 0.0, 0.0, 1.645921797371108E9, 0.0, 2022-02-27 11:29:57.371
62.0, -1380.2649236041218, -4604.660523493352, -1908.7942729943125, -10287.882123933092, -482.55181104562416, 45.39639298872864, -5588.986645816165, -1780.942294709956, -3967.591103028191, -6592.535268370541, -4091.6879882440558, -3071.979054448492, -3295.071815856912, -2385.8475549039313, -9877.437040500288, -15725.860384209203, 0.0135625, -0.10500000000000001, 0.98975, 192.0, 0.0, 0.0, 0.0, 0.0, 0.0, 0.0, 0.0, 0.0, 0.0, 1.645921797378986E9, 0.0, 2022-02-27 11:29:57.378
64.0, -811.7483033833865, -4154.921073308119, -1440.2793574666211, -9786.733661500653, 48.1009540678208, 466.23503759325, -5169.198533201044, -1285.7170445581728, -1303.7325505891504, -5460.732336131613, -3939.897291648065, -2831.6530980650305, -3285.907600630236, -2209.9840295295753, -9383.105860126718, -14397.786783908223, 0.0135625, -0.10500000000000001, 0.98975, 192.0, 0.0, 0.0, 0.0, 0.0, 0.0, 0.0, 0.0, 0.0, 0.0, 1.645921797386129E9, 0.0, 2022-02-27 11:29:57.386
66.0, -886.6713507975759, -4235.610870791777, -1586.1915452708656, -9945.162826199869, -76.01828289249931, 300.4297972237822, -5442.9179958007335, -1654.7443455152925, -4063.1895140635393, -6251.71586891602, -3789.6041619305806, -2946.5410645653087, -2988.8082133302946, -2142.8393891858327, -9743.281870279536, -15498.587846587641, 0.01378125, -0.10450000000000001, 0.990875, 192.0, 0.0, 56.0, 126.0, 96.0, 15.5, 0.0, 0.0, 0.0, 0.0, 1.645921797393598E9, 0.0, 2022-02-27 11:29:57.393
68.0, -1206.033075575003, -4463.5316090025435, -1766.6595300030149, -10129.095331322591, -353.8057629830555, 183.03843534450954, -5396.739291756069, -1535.698954546327, -2009.868861421211, -6033.696953498955, -4158.743221609977, -2970.0103962433814, -3479.3619488909185, -2450.3099859130366, -9607.025636079983, -14961.386020348791, 0.01378125, -0.10450000000000001, 0.990875, 192.0, 0.0, 0.0, 0.0, 0.0, 0.0, 0.0, 0.0, 0.0, 0.0, 1.645921797401619E9, 0.0, 2022-02-27 11:29:57.401
70.0, -493.1018344285291, -3897.205459738429, -1277.9833409766366, -9597.190868519649, 275.082919011464, 601.7536642257768, -5176.97694027149, -1305.6100971233961, -2457.2166749497264, -5611.807776905033, -3738.239853172285, -2816.185690901958, -3031.1647690731015, -2046.8833502391997, -9475.195047282583, -14720.7247877985, 0.01378125, -0.10450000000000001, 0.990875, 192.0, 0.0, 0.0, 0.0, 0.0, 0.0, 0.0, 0.0, 0.0, 0.0, 1.64592179740967E9, 0.0, 2022-02-27 11:29:57.409
72.0, -1329.4594084572088, -4550.323432722501, -1924.4181423685723, -10298.767423482826, -502.73543628876644, 19.848349076312672, -5586.751471370634, -1808.7702165568135, -3907.5990209101465, -6533.973697897637, -4045.9116155995866, -3032.2153010625007, -3273.7706033910044, -2379.209086800705, -9852.492493688165, -15707.219029333477, 0.01378125, -0.10450000000000001, 0.990875, 192.0, 0.0, 0.0, 0.0, 0.0, 0.0, 0.0, 0.0, 0.0, 0.0, 1.64592179741617E9, 0.0, 2022-02-27 11:29:57.416
74.0, -743.6425380280659, -4083.931932918064, -1447.8565988369703, -9791.315769113991, 37.90855859620078, 461.7646887021886, -5185.962341542523, -1303.9337162892482, -1304.8277860674605, -5463.213379766153, -3952.0566406317525, -2833.150664943536, -3311.813272453937, -2228.021887305008, -9402.708340014022, -14418.66331322948, 0.01378125, -0.10450000000000001, 0.990875, 192.0, 0.0, 0.0, 0.0, 0.0, 0.0, 0.0, 0.0, 0.0, 0.0, 1.645921797424201E9, 0.0, 2022-02-27 11:29:57.424
76.0, -817.4927017084005, -4149.824875572309, -1582.3023417356424, -9940.781884286629, -74.25249508053007, 310.93511711777654, -5448.662394125748, -1657.9406449724013, -4040.0554585522964, -6206.185365460559, -3771.0745657771313, -2929.8443114571946, -2989.3893586861323, -2123.0357435984306, -9751.462608750178, -15502.834678034149, 0.013890625, -0.10225000000000001, 0.9894375, 192.0, 0.0, 56.0, 126.0, 112.0, 15.0, 112.0, 0.0, 0.0, 0.0, 1.645921797432263E9, 0.0, 2022-02-27 11:29:57.432
78.0, -1133.2110921396127, -4380.807802773453, -1761.6303875005708, -10127.553060955175, -353.7610594941449, 172.53311545051523, -5416.878213510301, -1542.1139052050003, -2009.8912131656664, -6005.891383396553, -4136.43618064358, -2957.404012370588, -3478.6243413238935, -2432.4509420932463, -9621.777787420486, -14974.864122255341, 0.013890625, -0.10225000000000001, 0.9894375, 192.0, 0.0, 0.0, 0.0, 0.0, 0.0, 0.0, 0.0, 0.0, 0.0, 1.645921797445922E9, 0.0, 2022-02-27 11:29:57.445
80.0, -439.83762739153235, -3841.23669162234, -1280.553791588997, -9606.153918046228, 258.31911066998373, 576.6079517135563, -5181.559047884828, -1312.002696037614, -2385.624037459378, -5551.815694786989, -3706.6791900013914, -2767.280074033746, -3024.6157079476966, -2042.8153327483337, -9470.30001524687, -14709.705377782033, 0.013890625, -0.10225000000000001, 0.9894375, 192.0, 0.0, 0.0, 0.0, 0.0, 0.0, 0.0, 0.0, 0.0, 0.0, 1.645921797453878E9, 0.0, 2022-02-27 11:29:57.453
82.0, -1238.6442707352962, -4463.710422958186, -1896.3219995882512, -10272.504123747842, -490.6431425384453, 30.465427692583525, -5586.483250437171, -1814.5369666262827, -3928.497901975859, -6540.0533723894805, -4037.842635851221, -3031.0306586063693, -3283.448908740152, -2389.490889250146, -9877.079412589004, -15737.796215748336, 0.013890625, -0.10225000000000001, 0.9894375, 192.0, 0.0, 0.0, 0.0, 0.0, 0.0, 0.0, 0.0, 0.0, 0.0, 1.645921797461913E9, 0.0, 2022-02-27 11:29:57.461
84.0, -683.1140140430945, -4023.738685099922, -1432.836226563004, -9776.429507306757, 29.034916047443875, 456.2885113106384, -5189.762138099925, -1290.1873934492344, -1244.1204481268464, -5421.862652523834, -3900.0217795397975, -2769.4034897570004, -3283.448908740152, -2199.121081724296, -9381.362424059203, -14401.206600809885, 0.013890625, -0.10225000000000001, 0.9894375, 192.0, 0.0, 0.0, 0.0, 0.0, 0.0, 0.0, 0.0, 0.0, 0.0, 1.64592179746909E9, 0.0, 2022-02-27 11:29:57.469
86.0, -759.2440556578703, -4094.8842877011643, -1564.9797397827792, -9926.610878301964, -72.39730029073958, 306.24125078216207, -5428.568175860426, -1637.533502284706, -3993.1391469406067, -6172.210713888492, -3743.7830857972012, -2894.662665684541, -2979.0405010033255, -2111.9269266041433, -9735.659925420276, -15485.914407481481, 0.016, -0.106, 0.984, 192.0, 0.0, 64.0, 126.0, 88.0, 15.0, 96.0, 0.0, 0.0, 0.0, 1.645921797476465E9, 0.0, 2022-02-27 11:29:57.476
88.0, -1085.3113037718897, -4334.584395239877, -1752.1308961070654, -10131.95635461287, -353.02345192711977, 185.0947958343978, -5404.920030226712, -1532.8602830005032, -2008.036018375876, -5990.446327977936, -4122.265174658915, -2937.6897737610075, -3471.360024375919, -2428.941718213763, -9610.04312158145, -14982.843695025886, 0.016, -0.106, 0.984, 192.0, 0.0, 0.0, 0.0, 0.0, 0.0, 0.0, 0.0, 0.0, 0.0, 1.645921797484449E9, 0.0, 2022-02-27 11:29:57.484
90.0, -396.36348442596017, -3795.0579875776757, -1269.4449745947093, -9612.255944282526, 255.16751470178542, 588.5661349971456, -5165.175219199088, -1308.9181553027815, -2356.142086522828, -5548.127656951864, -3694.2963235731513, -2774.0750043481594, -3018.088998566747, -2034.5451872998701, -9457.96185230754, -14705.883229480176, 0.016, -0.106, 0.984, 192.0, 0.0, 0.0, 0.0, 0.0, 0.0, 0.0, 0.0, 0.0, 0.0, 1.645921797491658E9, 0.0, 2022-02-27 11:29:57.491
92.0, -1201.4956714505759, -4431.278041753536, -1887.6718744840473, -10270.89479814706, -500.43320660986984, 34.958128328100244, -5616.032256607086, -1807.004428744844, -3922.909965862032, -6510.90669761976, -4022.5987461327013, -3001.9063355811045, -3278.7326906600824, -2399.1915463437495, -9876.922950377817, -15744.099407684733, 0.016, -0.106, 0.984, 192.0, 0.0, 0.0, 0.0, 0.0, 0.0, 0.0, 0.0, 0.0, 0.0, 1.645921797498207E9, 0.0, 2022-02-27 11:29:57.498
94.0, -656.873066052564, -3997.4306818760256, -1431.830398062515, -9783.291492854536, 18.462540920083633, 447.95131062880887, -5205.050731307356, -1306.0571320125023, -1231.3576020428661, -5421.370914145818, -3892.6680556140013, -2760.7533646527963, -3284.1418128182668, -2212.8450528198546, -9387.196229362038, -14404.246438055807, 0.016, -0.106, 0.984, 192.0, 0.0, 0.0, 0.0, 0.0, 0.0, 0.0, 0.0, 0.0, 0.0, 1.645921797506099E9, 0.0, 2022-02-27 11:29:57.506
96.0, -715.032305125273, -4047.2303685224497, -1558.4977338907402, -9909.24357286019, -72.1514311017312, 317.21595730971785, -5433.887891040789, -1662.6121595635605, -3975.973007198931, -6153.971690412962, -3736.205844426852, -2869.0699182832145, -2980.7615853263837, -2118.028952840442, -9740.800826644996, -15483.276901635756, 0.008, -0.106, 0.984, 192.0, 0.0, 32.0, 126.0, 88.0, 15.0, 96.0, 0.0, 0.0, 0.0, 1.645921797514129E9, 0.0, 2022-02-27 11:29:57.514
98.0, -1073.8448588663173, -4305.840051870353, -1762.4797537898726, -10131.688133679407, -369.9884259686978, 157.17746700971927, -5410.26209715153, -1557.246036201243, -2043.1506089151633, -5980.633912162056, -4114.486767588469, -2911.158253092558, -3478.2890651570638, -2444.1632561878273, -9630.494967758057, -15010.78337559502, 0.008, -0.106, 0.984, 192.0, 0.0, 0.0, 0.0, 0.0, 0.0, 0.0, 0.0, 0.0, 0.0, 1.645921797521354E9, 0.0, 2022-02-27 11:29:57.521
100.0, -377.43155687231507, -3765.1290017520196, -1271.747204273606, -9605.595124434843, 243.34344188492798, 576.227972057816, -5182.5872281297725, -1311.645068126329, -2306.834138254421, -5512.163700123275, -3691.1894310938637, -2747.5881871686206, -3028.3931527606433, -2027.7502569854566, -9470.322366991326, -14691.6675200066, 0.008, -0.106, 0.984, 192.0, 0.0, 0.0, 0.0, 0.0, 0.0, 0.0, 0.0, 0.0, 0.0, 1.645921797528732E9, 0.0, 2022-02-27 11:29:57.528
102.0, -1168.7727175680063, -4397.2586866925585, -1879.1558598465754, -10256.276757273288, -494.6664565404006, 31.51595968198296, -5611.8524803939445, -1810.1783764574977, -3950.5590737532466, -6494.902848589761, -4004.1138534681627, -2978.2358382029342, -3263.8911323417583, -2388.529764238568, -9887.42827027181, -15760.125608459188, 0.008, -0.106, 0.984, 192.0, 0.0, 0.0, 0.0, 0.0, 0.0, 0.0, 0.0, 0.0, 0.0, 1.645921797536681E9, 0.0, 2022-02-27 11:29:57.536
104.0, -650.0781357381506, -3978.8116787447548, -1436.479560909219, -9781.615112020387, 2.0563604898882497, 441.93869137033124, -5218.305315769353, -1312.673248371273, -1222.327497282922, -5414.665390809226, -3899.4182824395043, -2750.963300581372, -3293.864821656325, -2223.9985733030526, -9400.070834168297, -14417.523374262259, 0.008, -0.106, 0.984, 192.0, 0.0, 0.0, 0.0, 0.0, 0.0, 0.0, 0.0, 0.0, 0.0, 1.645921797544926E9, 0.0, 2022-02-27 11:29:57.544
106.0, -702.1800520634714, -4032.120589270662, -1547.8359517855588, -9901.062834389548, -76.21944859259709, 319.87581489989935, -5441.353373688862, -1655.5490083156835, -3933.750561922856, -6134.9727076259505, -3722.9065564759444, -2862.029118779793, -2967.9987392424036, -2096.548926418892, -9742.141931312315, -15465.037878160225, 0.012, -0.1, 0.988, 192.0, 0.0, 48.0, 126.0, 112.0, 15.0, 112.0, 0.0, 0.0, 0.0, 1.645921797551459E9, 0.0, 2022-02-27 11:29:57.551
108.0, -1078.851649624306, -4321.530976477978, -1763.9996724128334, -10132.24692729079, -394.0165512581529, 163.70417639066892, -5408.250440150552, -1569.8300683295809, -2047.7550682729566, -5990.379272744569, -4123.405113626136, -2912.7228752044293, -3476.478573856184, -2437.6141950624224, -9635.76997944951, -15006.178916237226, 0.012, -0.1, 0.988, 192.0, 0.0, 0.0, 0.0, 0.0, 0.0, 0.0, 0.0, 0.0, 0.0, 1.645921797566577E9, 0.0, 2022-02-27 11:29:57.566
110.0, -380.82902202952175, -3783.2562665052733, -1275.7258147866505, -9603.270543011493, 229.9994504451097, 563.4874777182911, -5195.6182951472165, -1323.4467891987313, -2315.0595802139737, -5534.873072489867, -3698.051416641643, -2744.6824603894306, -3033.087019096258, -2046.2351496499957, -9473.719832148532, -14693.723880496489, 0.012, -0.1, 0.988, 192.0, 0.0, 0.0, 0.0, 0.0, 0.0, 0.0, 0.0, 0.0, 0.0, 1.645921797574727E9, 0.0, 2022-02-27 11:29:57.574
112.0, -1184.5083456645425, -4408.63572462031, -1893.32686583124, -10269.173713824, -504.0988927005402, 16.652049619203762, -5617.842747907966, -1810.5360043687826, -3948.614471985635, -6517.634572700807, -4015.356780929182, -2988.2941232078224, -3271.356614989831, -2386.8310316599645, -9898.090052376992, -15756.638736324161, 0.012, -0.1, 0.988, 192.0, 0.0, 0.0, 0.0, 0.0, 0.0, 0.0, 0.0, 0.0, 0.0, 1.645921797581257E9, 0.0, 2022-02-27 11:29:57.581
114.0, -661.3434149436254, -3987.841783504699, -1449.1306482709228, -9788.968835946183, 0.715255822569826, 431.63453717643466, -5218.618240191727, -1308.9181553027815, -1230.0612008644582, -5420.610954834337, -3908.4707389439036, -2761.222751286358, -3297.1505280912556, -2207.257116706028, -9399.869668468198, -14411.935438148432, 0.012, -0.1, 0.988, 192.0, 0.0, 0.0, 0.0, 0.0, 0.0, 0.0, 0.0, 0.0, 0.0, 1.645921797589075E9, 0.0, 2022-02-27 11:29:57.589
116.0, -708.4832439998679, -4040.860121352687, -1556.3296146785754, -9913.222183373235, -73.85016368033453, 314.824320653, -5452.4845424276045, -1662.6568630524712, -3957.9575011679535, -6137.699620449498, -3743.1348852079973, -2877.5859329206864, -2981.2309719599452, -2102.1145107882635, -9757.229358819648, -15480.371174856566, 0.008, -0.106, 0.984, 192.0, 0.0, 32.0, 126.0, 88.0, 15.0, 96.0, 0.0, 0.0, 0.0, 1.645921797597154E9, 0.0, 2022-02-27 11:29:57.597
118.0, -1086.339484016834, -4317.28414503147, -1772.6721492614925, -10143.333392540622, -398.3974931713931, 153.89176057478912, -5421.370914145818, -1592.762958140726, -2096.7947956079, -6019.324781814192, -4139.408962656136, -2926.24568059989, -3485.665140827315, -2452.8357330364865, -9649.561005778432, -15041.181748054238, 0.008, -0.106, 0.984, 192.0, 0.0, 0.0, 0.0, 0.0, 0.0, 0.0, 0.0, 0.0, 0.0, 1.645921797603732E9, 0.0, 2022-02-27 11:29:57.603
120.0, -373.4305946148151, -3768.4147081869496, -1277.8939339988153, -9600.096595298839, 243.7234215406682, 559.4865154607911, -5196.691178881071, -1332.9909840811472, -2280.8837629418094, -5498.573839494448, -3705.695713245358, -2743.900149333495, -3033.377591774177, -2042.7259257705125, -9473.429259470613, -14691.28754035086, 0.008, -0.106, 0.984, 192.0, 0.0, 0.0, 0.0, 0.0, 0.0, 0.0, 0.0, 0.0, 0.0, 1.645921797611766E9, 0.0, 2022-02-27 11:29:57.611
122.0, -1164.7047000771404, -4391.849564534374, -1891.6057815081815, -10258.60133869664, -504.009485722719, 26.62092764627071, -5625.040009622576, -1809.463120634928, -3986.5006788373807, -6514.1029970768695, -4014.574469873246, -2990.7751668423616, -3268.0262050659903, -2384.32763628097, -9900.146412866881, -15768.060477740823, 0.008, -0.106, 0.984, 192.0, 0.0, 0.0, 0.0, 0.0, 0.0, 0.0, 0.0, 0.0, 0.0, 1.645921797618812E9, 0.0, 2022-02-27 11:29:57.618
124.0, -657.0742317526617, -3986.903010237576, -1455.5903024185066, -9794.288551126547, -11.757017583491516, 414.15547301238456, -5221.836891393291, -1348.1454668218455, -1228.161302585757, -5430.64688809477, -3917.2996780037497, -2763.9273123654502, -3308.236993341088, -2227.2619279935275, -9409.615029050712, -14426.866403444577, 0.008, -0.106, 0.984, 192.0, 0.0, 0.0, 0.0, 0.0, 0.0, 0.0, 0.0, 0.0, 0.0, 1.645921797626924E9, 0.0, 2022-02-27 11:29:57.626
126.0, -685.5056506998123, -4026.934984557031, -1546.3830883959638, -9901.040482645092, -72.1514311017312, 309.99634385065366, -5444.952004546167, -1645.5801302886166, -3924.8545676296435, -6126.322582521747, -3735.2000159263634, -2868.444069438466, -2985.3436929397217, -2116.374923750749, -9745.382934258334, -15459.718162979862, 0.008, -0.108, 0.99, 192.0, 0.0, 32.0, 126.0, 80.0, 15.0, 120.0, 0.0, 0.0, 0.0, 1.645921797633307E9, 0.0, 2022-02-27 11:29:57.633
128.0, -1074.4707077110659, -4314.71369441911, -1771.5098585498165, -10150.48595076632, -388.9427052667982, 140.2348447125965, -5445.644908624281, -1588.627885416494, -2104.863775356266, -6016.016723634806, -4131.049410229852, -2930.179587624024, -3488.481460628684, -2471.1418117453827, -9652.824360468909, -15042.969887610661, 0.008, -0.108, 0.99, 192.0, 0.0, 0.0, 0.0, 0.0, 0.0, 0.0, 0.0, 0.0, 0.0, 1.645921797641328E9, 0.0, 2022-02-27 11:29:57.641
130.0, -331.3422598054719, -3733.6800973034024, -1241.7064597256733, -9574.347385686326, 270.8360875649557, 608.1015596510839, -5152.412373115108, -1281.6490270673069, -2265.125783100818, -5514.33181933544, -3699.0572451421317, -2742.246120243802, -3039.166693588101, -2048.35856537325, -9466.500218689469, -14673.003813386418, 0.008, -0.108, 0.99, 192.0, 0.0, 0.0, 0.0, 0.0, 0.0, 0.0, 0.0, 0.0, 0.0, 1.645921797649691E9, 0.0, 2022-02-27 11:29:57.649
132.0, -1156.8592377733275, -4385.836945275896, -1884.140298860109, -10261.618824198107, -500.299096143138, 27.582052657848916, -5590.797137117045, -1825.399914431562, -3960.684413991501, -6488.107918275347, -3983.0808619357185, -2967.1717246975572, -3245.428591421675, -2355.8738655893644, -9862.774296137608, -15740.92545997208, 0.008, -0.108, 0.99, 192.0, 0.0, 0.0, 0.0, 0.0, 0.0, 0.0, 0.0, 0.0, 0.0, 1.6459217976566E9, 0.0, 2022-02-27 11:29:57.656
134.0, -654.7496503293098, -3978.610513044657, -1456.059689052068, -9803.229248908669, -20.362439198784735, 418.17878701433983, -5235.739676444492, -1320.3846002083542, -1226.842549662894, -5432.345620673374, -3919.736018149378, -2769.8505246461064, -3314.7637027220376, -2232.4698844516142, -9401.344883602249, -14418.417444040471, 0.008, -0.108, 0.99, 192.0, 0.0, 0.0, 0.0, 0.0, 0.0, 0.0, 0.0, 0.0, 0.0, 1.645921797664039E9, 0.0, 2022-02-27 11:29:57.664
136.0, -669.4347464364465, -3999.5988010881906, -1545.0419837286454, -9900.951075667272, -72.73257645756918, 318.57941372149156, -5465.783830378513, -1649.983423946312, -3924.1169600626185, -6113.760902137864, -3735.9599752378435, -2868.7346421163847, -2987.824736574261, -2118.319525518361, -9749.853283149396, -15463.719125237361, 0.014, -0.10400000000000001, 0.992, 192.0, 0.0, 56.0, 126.0, 96.0, 15.5, 0.0, 0.0, 0.0, 0.0, 1.645921797672114E9, 0.0, 2022-02-27 11:29:57.672
138.0, -1082.8302601373507, -4322.290935789459, -1785.2785331342857, -10152.430552533931, -407.89698456489856, 129.21543469613013, -5411.066759951921, -1572.8699055755028, -2132.356421036294, -6036.557976789234, -4140.191273712072, -2927.2962125892896, -3499.053835756044, -2475.7239193587207, -9659.865159972329, -15056.671506961764, 0.014, -0.10400000000000001, 0.992, 192.0, 0.0, 0.0, 0.0, 0.0, 0.0, 0.0, 0.0, 0.0, 0.0, 1.645921797680067E9, 0.0, 2022-02-27 11:29:57.680
140.0, -357.73967000718955, -3760.859818561056, -1280.3749776333545, -9610.221935537093, 233.12869466885266, 573.456355745358, -5180.7096815955265, -1320.965745564192, -2253.793448661977, -5520.9255839497555, -3715.262259872229, -2741.7543818657855, -3063.2171706220115, -2065.0106149924536, -9464.287395988393, -14667.840560417244, 0.014, -0.10400000000000001, 0.992, 192.0, 0.0, 0.0, 0.0, 0.0, 0.0, 0.0, 0.0, 0.0, 0.0, 1.6459217976937E9, 0.0, 2022-02-27 11:29:57.693
142.0, -1140.6318712987747, -4367.374404355813, -1886.6660459835584, -10268.726678934894, -479.6684360108896, 39.13790454124267, -5602.688265167269, -1836.5534349147601, -4005.4326063910257, -6511.733712164607, -4004.4714813794476, -2997.145414012124, -3261.1195160293005, -2373.308226264504, -9892.166840096335, -15777.537617389873, 0.014, -0.10400000000000001, 0.992, 192.0, 0.0, 0.0, 0.0, 0.0, 0.0, 0.0, 0.0, 0.0, 0.0, 1.645921797701755E9, 0.0, 2022-02-27 11:29:57.701
144.0, -649.3181764266702, -3962.718422736934, -1463.3463577444982, -9806.939638488251, -18.19431998661995, 422.4479702053035, -5230.822292664325, -1327.0677718004908, -1219.6899914371959, -5438.69351609868, -3922.909965862032, -2781.316969551679, -3314.7860544664927, -2221.8751575797987, -9407.581020305279, -14431.627325013558, 0.014, -0.10400000000000001, 0.992, 192.0, 0.0, 0.0, 0.0, 0.0, 0.0, 0.0, 0.0, 0.0, 0.0, 1.645921797708801E9, 0.0, 2022-02-27 11:29:57.708
146.0, -668.451269680413, -4001.4092923890703, -1554.2285506997766, -9892.032729629604, -64.8647624093011, 322.5356724900809, -5418.934574000189, -1622.8484061775694, -3905.095625531152, -6122.16515805306, -3739.2233299283184, -2870.2322089948907, -2986.3048179513003, -2117.5595662068804, -9734.54233819751, -15439.86981390355, 0.014, -0.10400000000000001, 0.99, 192.0, 0.0, 56.0, 126.0, 96.0, 15.0, 120.0, 0.0, 0.0, 0.0, 1.645921797716251E9, 0.0, 2022-02-27 11:29:57.716
148.0, -1082.427928737155, -4316.524185719989, -1798.5331175962829, -10151.983517644825, -409.819234588055, 128.4554753846497, -5427.383533404295, -1573.9204375649022, -2156.1610288811958, -6053.612357808633, -4145.220416214516, -2923.183491609513, -3497.9809520221893, -2479.5460676605785, -9654.701907003155, -15057.498521506612, 0.014, -0.10400000000000001, 0.99, 192.0, 0.0, 0.0, 0.0, 0.0, 0.0, 0.0, 0.0, 0.0, 0.0, 1.645921797724406E9, 0.0, 2022-02-27 11:29:57.724
150.0, -361.1371351643962, -3751.114457978542, -1284.6665125687734, -9605.885697112763, 236.12382842586382, 562.3475387510704, -5183.660111863627, -1300.4021406653096, -2224.020925047508, -5500.764310451068, -3716.2904401171736, -2746.537655179221, -3053.6059205062297, -2073.12429822973, -9455.503160417456, -14655.681211433555, 0.014, -0.10400000000000001, 0.99, 192.0, 0.0, 0.0, 0.0, 0.0, 0.0, 0.0, 0.0, 0.0, 0.0, 1.645921797732227E9, 0.0, 2022-02-27 11:29:57.732
152.0, -1157.462734873621, -4376.404509115757, -1896.9031449440893, -10265.440972499964, -492.20776465031685, 38.22148301857508, -5614.624096706402, -1799.3824838855844, -4012.607516361179, -6518.439235501199, -4005.5890686022126, -3007.248402505923, -3256.6268153937835, -2382.5618484690012, -9887.875305160916, -15766.540559117862, 0.014, -0.10400000000000001, 0.99, 192.0, 0.0, 0.0, 0.0, 0.0, 0.0, 0.0, 0.0, 0.0, 0.0, 1.645921797738841E9, 0.0, 2022-02-27 11:29:57.738
154.0, -671.6922726264326, -3981.315074123749, -1474.1646020608666, -9803.832746008962, -11.019410016466383, 441.8045809035994, -5179.390928672663, -1301.452672654709, -1229.3459450418884, -5431.07157123942, -3926.5085967193363, -2786.569629498676, -3315.4342550556967, -2219.952907556642, -9390.504287541424, -14411.264885814773, 0.014, -0.10400000000000001, 0.988, 192.0, 0.0, 56.0, 126.0, 96.0, 15.0, 104.0, 0.0, 0.0, 0.0, 1.645921797745803E9, 0.0, 2022-02-27 11:29:57.745
156.0, -673.3463017161253, -3996.961295242464, -1549.4229256418855, -9879.694566690274, -46.961015100600136, 340.12649537640755, -5406.842280249868, -1607.2021850588544, -3911.0858930451745, -6112.464500959457, -3741.1902834403854, -2881.899819600561, -2986.3271696957554, -2108.484757958026, -9721.533622924522, -15425.3411800076, 0.014, -0.10400000000000001, 0.988, 192.0, 0.0, 0.0, 0.0, 0.0, 0.0, 0.0, 0.0, 0.0, 0.0, 1.645921797754041E9, 0.0, 2022-02-27 11:29:57.754
158.0, -1128.9642606931045, -4362.613482786833, -1835.1452750140759, -10187.656901795495, -439.882330880443, 108.2047949081415, -5454.630309895314, -1609.1914903153768, -2209.179366729184, -6071.046718483773, -4152.037698273385, -2957.8957507486048, -3496.6621990993262, -2480.4401374387908, -9661.541540806478, -15076.408097315802, 0.014, -0.10400000000000001, 0.988, 192.0, 0.0, 0.0, 0.0, 0.0, 0.0, 0.0, 0.0, 0.0, 0.0, 1.645921797761889E9, 0.0, 2022-02-27 11:29:57.761
160.0, -383.13125170841835, -3777.713033880357, -1287.9522190037035, -9601.23653426606, 249.02078497657598, 589.3037425641708, -5146.0197742008895, -1280.9784747336478, -2242.1705415452175, -5530.38037185435, -3759.0046237712654, -2793.8562981911064, -3092.2520866694554, -2089.1952024930956, -9485.49920147648, -14674.076697120274, 0.014, -0.10400000000000001, 0.988, 192.0, 0.0, 0.0, 0.0, 0.0, 0.0, 0.0, 0.0, 0.0, 0.0, 1.645921797768514E9, 0.0, 2022-02-27 11:29:57.768
162.0, -1164.4811826325874, -4391.670750578732, -1885.9507901609886, -10243.893890845047, -470.07953763956283, 60.081489095865386, -5571.440526418749, -1775.3096551072188, -4023.872795566654, -6508.984447596604, -3984.198449158484, -2981.275675448856, -3225.6249458342727, -2348.6989556192107, -9849.787932609073, -15728.564945288295, 0.014, -0.10400000000000001, 0.988, 192.0, 0.0, 0.0, 0.0, 0.0, 0.0, 0.0, 0.0, 0.0, 0.0, 1.645921797776567E9, 0.0, 2022-02-27 11:29:57.776
164.0, -698.9614008619071, -4018.5977838752015, -1490.8390034245258, -9823.122301473893, -16.026200774455162, 438.22830179075027, -5188.532792154884, -1296.1106057298907, -1240.745334714095, -5468.242522268596, -3938.6679457030236, -2801.6794087504636, -3319.815196968937, -2229.899433839254, -9388.716147985, -14407.934475890932, 0.013000000000000001, -0.10600000000000001, 0.988, 192.0, 0.0, 48.0, 126.0, 80.0, 15.0, 112.0, 0.0, 0.0, 0.0, 1.645921797784455E9, 0.0, 2022-02-27 11:29:57.784
166.0, -671.871086582075, -3997.967123742953, -1543.857341272514, -9874.978348610204, -28.23025324705282, 339.16537036482936, -5403.713036026124, -1609.146786826466, -3894.4785469148815, -6094.359587950657, -3738.9998124837653, -2899.6918081869853, -2978.3252451807557, -2110.094083558808, -9714.11284376536, -15412.019540312236, 0.013000000000000001, -0.10600000000000001, 0.988, 192.0, 0.0, 0.0, 0.0, 0.0, 0.0, 0.0, 0.0, 0.0, 0.0, 1.645921797791596E9, 0.0, 2022-02-27 11:29:57.791
168.0, -1120.4705978000877, -4355.282110605492, -1812.7041235809475, -10156.878549680538, -413.3731619564488, 129.28248992949605, -5435.6983823416695, -1584.8057371146367, -2249.121934070818, -6080.9708930219285, -4150.383669183692, -2962.1872856840237, -3494.9187630318124, -2483.5693816625335, -9663.10616291835, -15089.237998633147, 0.013000000000000001, -0.10600000000000001, 0.988, 192.0, 0.0, 0.0, 0.0, 0.0, 0.0, 0.0, 0.0, 0.0, 0.0, 1.645921797799127E9, 0.0, 2022-02-27 11:29:57.799
170.0, -391.9378390238093, -3785.245571761796, -1292.5343266170414, -9611.920668115696, 243.20933141819614, 584.4087105284584, -5154.289919649354, -1288.9803992486477, -2209.179366729184, -5500.987827895621, -3726.952222222355, -2774.11970783707, -3061.026699665392, -2050.6607950521466, -9448.305898702849, -14632.569507666769, 0.013000000000000001, -0.10600000000000001, 0.988, 192.0, 0.0, 0.0, 0.0, 0.0, 0.0, 0.0, 0.0, 0.0, 0.0, 1.645921797814357E9, 0.0, 2022-02-27 11:29:57.814
172.0, -1159.8096680414283, -4382.774756285519, -1891.650484997092, -10256.969661351402, -470.7053864843114, 46.513980211493994, -5587.779651615579, -1800.365960641618, -4059.9708628619746, -6519.757988424062, -4000.2693534218497, -3038.496141254442, -3243.7969140764376, -2383.8135461584984, -9882.354424280456, -15767.233463195977, 0.013000000000000001, -0.10600000000000001, 0.988, 192.0, 0.0, 0.0, 0.0, 0.0, 0.0, 0.0, 0.0, 0.0, 0.0, 1.645921797820708E9, 0.0, 2022-02-27 11:29:57.820
174.0, -685.8632786110973, -3991.2392486619055, -1480.3560352749867, -9813.712217058208, -8.806587315390983, 428.97467958625316, -5194.992446302467, -1303.8219575669716, -1222.7298286831176, -5445.2649289685405, -3924.7204571629118, -2798.348998826623, -3314.070798643923, -2236.5826054313907, -9390.928970686075, -14417.501022517805, 0.013500000000000002, -0.10700000000000001, 0.988, 192.0, 0.0, 56.0, 126.0, 80.0, 15.0, 112.0, 0.0, 0.0, 0.0, 1.645921797828789E9, 0.0, 2022-02-27 11:29:57.828
176.0, -653.1850282174383, -4000.001132488386, -1527.5629195645952, -9856.404048967845, -13.656915862192616, 361.628873542413, -5402.9754284591, -1607.6492199479605, -3861.1520959320187, -6078.579256365211, -3716.9386407063776, -2873.9425985744715, -2962.2319891729344, -2066.3740714042274, -9708.34609369589, -15399.301397717167, 0.013500000000000002, -0.10700000000000001, 0.988, 192.0, 0.0, 0.0, 0.0, 0.0, 0.0, 0.0, 0.0, 0.0, 0.0, 1.645921797836808E9, 0.0, 2022-02-27 11:29:57.836
178.0, -1125.2762228579788, -4343.636851744277, -1814.134635226087, -10156.431514791431, -409.39455144340417, 137.10560048885353, -5426.333001414896, -1570.1876962408658, -2248.339623014882, -6075.561770863745, -4141.420619657114, -2938.9414714505047, -3490.3590071629296, -2475.7686228476314, -9665.900130975262, -15091.026138189573, 0.013500000000000002, -0.10700000000000001, 0.988, 192.0, 0.0, 0.0, 0.0, 0.0, 0.0, 0.0, 0.0, 0.0, 0.0, 1.645921797843886E9, 0.0, 2022-02-27 11:29:57.843
180.0, -402.71137985126734, -3782.7645281272567, -1292.2437539391226, -9601.6165139218, 241.73411628414587, 580.228934315316, -5167.0304139888785, -1288.7345300596394, -2195.209526444617, -5491.890667902311, -3726.9075187334442, -2775.729033437852, -3067.4192985796094, -2072.7890220629006, -9452.083343515795, -14631.340161721726, 0.013500000000000002, -0.10700000000000001, 0.988, 192.0, 0.0, 0.0, 0.0, 0.0, 0.0, 0.0, 0.0, 0.0, 0.0, 1.645921797851453E9, 0.0, 2022-02-27 11:29:57.851
182.0, -1163.1847814541795, -4375.532791082, -1887.1801361060307, -10247.2690042578, -464.9386364148422, 43.652956921214695, -5581.789384101557, -1794.8450797611572, -4096.962999935508, -6531.425599029732, -3995.1508039415844, -3042.5865104897634, -3239.3265651853762, -2356.9020458343084, -9890.199886584269, -15778.968129035013, 0.013500000000000002, -0.10700000000000001, 0.988, 192.0, 0.0, 0.0, 0.0, 0.0, 0.0, 0.0, 0.0, 0.0, 0.0, 1.645921797859731E9, 0.0, 2022-02-27 11:29:57.859
184.0, -715.0993603586388, -4023.738685099922, -1491.1966313358107, -9818.428435138278, -26.665631135181325, 417.1282550249404, -5215.93603085709, -1317.1435972623347, -1244.098096382391, -5456.530208174016, -3942.8253701717103, -2802.640533762042, -3332.0863046749005, -2245.29978576896, -9408.676255783588, -14440.90329896251, 0.012750000000000001, -0.10750000000000001, 0.989, 192.0, 0.0, 48.0, 126.0, 80.0, 15.0, 120.0, 0.0, 0.0, 0.0, 1.645921797866612E9, 0.0, 2022-02-27 11:29:57.866
186.0, -680.2082872639045, -4003.5327081123246, -1529.7086870323049, -9861.656708914841, -21.502378166005393, 351.14590539287394, -5404.383588359784, -1601.2342692892873, -3835.8722729530664, -6062.843628268675, -3722.7724460092127, -2864.4878106698766, -2972.2008672000015, -2088.2340774815175, -9717.800881600486, -15390.673624357418, 0.012750000000000001, -0.10750000000000001, 0.989, 192.0, 0.0, 0.0, 0.0, 0.0, 0.0, 0.0, 0.0, 0.0, 0.0, 1.645921797873579E9, 0.0, 2022-02-27 11:29:57.873
188.0, -1140.7436300210513, -4378.974959728117, -1807.4514636339504, -10167.227407363345, -407.7405223537114, 126.84614978386757, -5424.164882202731, -1584.5151644367177, -2255.9168643852313, -6102.182698510015, -4150.003689527952, -2977.431175402543, -3491.186021707776, -2456.657881338344, -9672.24802640057, -15100.033891205061, 0.012750000000000001, -0.10750000000000001, 0.989, 192.0, 0.0, 0.0, 0.0, 0.0, 0.0, 0.0, 0.0, 0.0, 0.0, 1.645921797881077E9, 0.0, 2022-02-27 11:29:57.881
190.0, -439.7035169248005, -3843.717735256879, -1281.5596200894856, -9600.051891809928, 251.3006629110173, 582.7099779498551, -5163.87881802068, -1292.5566783614968, -2187.7887472854554, -5523.227813628651, -3726.3487251220618, -2771.9739403693607, -3061.317272343311, -2049.4314491071045, -9453.267985971926, -14634.916440834575, 0.012750000000000001, -0.10750000000000001, 0.989, 192.0, 0.0, 0.0, 0.0, 0.0, 0.0, 0.0, 0.0, 0.0, 0.0, 1.645921797889065E9, 0.0, 2022-02-27 11:29:57.889
192.0, -1239.9630236581593, -4472.181734106748, -1875.5795807337263, -10250.688821159461, -453.4498397648144, 54.69471868213638, -5581.722328868191, -1798.9578007409336, -4099.086415658762, -6532.565537996953, -3995.843708019699, -3012.2551932639117, -3239.3042134409206, -2344.6756416172557, -9892.256247074158, -15781.471524414006, 0.012750000000000001, -0.10750000000000001, 0.989, 192.0, 0.0, 0.0, 0.0, 0.0, 0.0, 0.0, 0.0, 0.0, 0.0, 1.645921797897156E9, 0.0, 2022-02-27 11:29:57.897
194.0, -829.1826640585261, -4150.182503483594, -1481.3842155199309, -9823.591688107454, -13.679267606647922, 428.7958656306107, -5200.379216716196, -1310.7733500925722, -1261.48775356862, -5489.499031245593, -3953.554207510258, -2811.93885945545, -3328.5547290509617, -2225.3620297148263, -9401.277828368882, -14437.885813461044, 0.011375, -0.10575000000000001, 0.9884999999999999, 192.0, 0.0, 40.0, 126.0, 96.0, 15.0, 112.0, 0.0, 0.0, 0.0, 1.645921797903698E9, 0.0, 2022-02-27 11:29:57.903
196.0, -833.7200681829535, -4176.535210196401, -1518.7563322492042, -9858.862740857929, 5.185604713631238, 377.5209638501363, -5394.884096966279, -1588.4267197163965, -3862.046165710231, -6106.16130902306, -3748.3428416660836, -2889.789985393284, -2966.054137474792, -2065.6811673261127, -9709.083701262916, -15391.277121457711, 0.011375, -0.10575000000000001, 0.9884999999999999, 192.0, 0.0, 0.0, 0.0, 0.0, 0.0, 0.0, 0.0, 0.0, 0.0, 1.645921797911756E9, 0.0, 2022-02-27 11:29:57.911
198.0, -1346.0891063319573, -4577.659616191342, -1813.687600336981, -10170.53546554273, -400.8561850614769, 150.2931297174847, -5442.31449870044, -1557.4248501568854, -2332.851568800398, -6140.515940250867, -4191.2873615369035, -2995.0667017777805, -3487.341521661463, -2439.357631129936, -9669.990500210584, -15105.241847663146, 0.011375, -0.10575000000000001, 0.9884999999999999, 192.0, 0.0, 0.0, 0.0, 0.0, 0.0, 0.0, 0.0, 0.0, 0.0, 1.645921797919819E9, 0.0, 2022-02-27 11:29:57.919
200.0, -640.2210164333602, -4023.314001955271, -1297.4740621416643, -9617.329790273881, 247.32205239797264, 589.2813908197154, -5149.7748672693815, -1281.8948962563154, -2230.2347100060833, -5535.230700401152, -3782.630417660525, -2828.4344468634663, -3075.1977056500564, -2041.8318559923002, -9445.422523668114, -14624.522879662858, 0.011375, -0.10575000000000001, 0.9884999999999999, 192.0, 0.0, 0.0, 0.0, 0.0, 0.0, 0.0, 0.0, 0.0, 0.0, 1.645921797926313E9, 0.0, 2022-02-27 11:29:57.926
202.0, -1387.931571952292, -4615.948154443283, -1895.1820606210306, -10250.957042092925, -468.0678806385852, 56.75107917202463, -5615.674628695801, -1817.1968242164642, -4168.376823470214, -6570.295282637511, -4046.3362987442374, -3070.6379497811736, -3251.128286257778, -2349.2801009750488, -9895.832526187007, -15787.774716350403, 0.011375, -0.10575000000000001, 0.9884999999999999, 192.0, 0.0, 0.0, 0.0, 0.0, 0.0, 0.0, 0.0, 0.0, 0.0, 1.645921797941421E9, 0.0, 2022-02-27 11:29:57.941
204.0, -927.8879675731621, -4229.352382344292, -1501.2102128517884, -9824.843385796952, -32.633546904748314, 424.43727546182583, -5175.50172513744, -1298.6587045977956, -1297.6528760973067, -5514.309467590984, -3987.3053416377716, -2836.3693161451, -3342.8151420134477, -2240.762381644533, -9407.111633671717, -14436.47765356036, 0.0126875, -0.105875, 0.98925, 192.0, 0.0, 56.0, 126.0, 88.0, 15.0, 120.0, 0.0, 0.0, 0.0, 1.645921797949552E9, 0.0, 2022-02-27 11:29:57.949
206.0, -855.5800742602437, -4196.607076717267, -1525.3053933746094, -9854.682964644786, 0.11175872227653531, 372.93885623679836, -5361.177666327675, -1581.4976789352513, -3892.690407358457, -6133.0951610917045, -3771.7451181107904, -2913.795758938284, -2988.5846958857414, -2086.4012344361827, -9707.429672173223, -15383.2304934538, 0.0126875, -0.105875, 0.98925, 192.0, 0.0, 0.0, 0.0, 0.0, 0.0, 0.0, 0.0, 0.0, 0.0, 1.645921797956089E9, 0.0, 2022-02-27 11:29:57.956
208.0, -1306.7500360906167, -4542.545025652054, -1811.3183154247185, -10168.568512030663, -413.2614032341723, 139.18431272319708, -5411.647905307759, -1582.4141004579187, -2360.7465458806214, -6163.582940528744, -4189.633332447211, -2995.3796262001547, -3498.003303766645, -2437.1895119177716, -9672.851523500864, -15119.032873992071, 0.0126875, -0.105875, 0.98925, 192.0, 0.0, 0.0, 0.0, 0.0, 0.0, 0.0, 0.0, 0.0, 0.0, 1.645921797964035E9, 0.0, 2022-02-27 11:29:57.964
210.0, -546.9248350769085, -3949.9555766529534, -1280.710253800184, -9604.701054656633, 257.2685786805843, 614.7847312432208, -5154.334623138264, -1288.8909922708265, -2178.512773336503, -5509.794415211012, -3761.239798216796, -2783.55214399721, -3068.0674991688134, -2035.5286640559036, -9439.25344219845, -14614.017559768863, 0.0126875, -0.105875, 0.98925, 192.0, 0.0, 0.0, 0.0, 0.0, 0.0, 0.0, 0.0, 0.0, 0.0, 1.645921797972084E9, 0.0, 2022-02-27 11:29:57.972
212.0, -1282.520745101064, -4521.579089352977, -1872.5620952322597, -10247.134893791068, -458.881313667454, 59.99208211804416, -5573.385128186361, -1788.586591313671, -4139.9230527786085, -6536.566500254453, -4011.3334669272267, -3034.4951789969423, -3226.742533057038, -2341.8146183269764, -9882.175610324814, -15777.64937611215, 0.0126875, -0.105875, 0.98925, 192.0, 0.0, 0.0, 0.0, 0.0, 0.0, 0.0, 0.0, 0.0, 0.0, 1.645921797979242E9, 0.0, 2022-02-27 11:29:57.979
214.0, -830.121437325649, -4160.263140232938, -1485.7875091776264, -9831.504205644633, -35.673384150670074, 414.44604569030355, -5208.98463833149, -1322.6644781427954, -1256.0562796659804, -5512.476624545649, -3963.5901407706906, -2817.7503130138293, -3335.170845409733, -2238.9742420881084, -9395.064043410308, -14434.980086681855, 0.013343750000000001, -0.1029375, 0.989625, 192.0, 0.0, 56.0, 126.0, 112.0, 15.0, 120.0, 0.0, 0.0, 0.0, 1.645921797986575E9, 0.0, 2022-02-27 11:29:57.986
216.0, -728.9797936653846, -4089.6316277541673, -1499.1315006174448, -9845.585804651477, -3.7550930684915866, 377.1633359388514, -5392.179535887187, -1592.986475585279, -3819.823720434156, -6090.984474537907, -3731.8696060025227, -2878.1894300209797, -2974.078413734247, -2071.671434840135, -9697.72901507962, -15372.524007859709, 0.013343750000000001, -0.1029375, 0.989625, 192.0, 0.0, 0.0, 0.0, 0.0, 0.0, 0.0, 0.0, 0.0, 0.0, 1.645921797993666E9, 0.0, 2022-02-27 11:29:57.993
218.0, -1208.6258779318189, -4445.136123315826, -1803.9869432433777, -10173.150619644, -429.86874936446543, 141.41948716872778, -5429.4175421497275, -1602.7094844233377, -2341.278176460049, -6127.909556378074, -4154.6305006302, -2967.1940764420124, -3488.3920536508626, -2444.1185526989166, -9673.276206645514, -15133.829728821485, 0.013343750000000001, -0.1029375, 0.989625, 192.0, 0.0, 0.0, 0.0, 0.0, 0.0, 0.0, 0.0, 0.0, 0.0, 1.645921798001614E9, 0.0, 2022-02-27 11:29:58.001
220.0, -459.06012762309643, -3851.8761219830662, -1274.6082275638853, -9596.542667930446, 234.5145028250817, 585.6604082179557, -5151.339489381253, -1289.8521172824046, -2131.663516958179, -5489.923714390245, -3737.993983983277, -2775.9749026268605, -3070.7720602479053, -2029.6725070086131, -9434.91720377412, -14606.306207931782, 0.013343750000000001, -0.1029375, 0.989625, 192.0, 0.0, 0.0, 0.0, 0.0, 0.0, 0.0, 0.0, 0.0, 0.0, 1.645921798008772E9, 0.0, 2022-02-27 11:29:58.008
222.0, -1209.3634854988438, -4443.124466314848, -1872.3385777877068, -10238.082437286668, -475.3545493310153, 49.55381745741576, -5607.203317547241, -1814.7157805819252, -4136.860863788231, -6522.171976825235, -4001.0069609888747, -3018.7819026448615, -3227.5695476018846, -2326.1683972082615, -9883.472011503221, -15777.582320878784, 0.013343750000000001, -0.1029375, 0.989625, 192.0, 0.0, 0.0, 0.0, 0.0, 0.0, 0.0, 0.0, 0.0, 0.0, 1.645921798016301E9, 0.0, 2022-02-27 11:29:58.016
224.0, -766.4636691169345, -4102.863860471709, -1482.8817823984364, -9830.543080633055, -48.50328546801632, 404.4101124298707, -5224.228528050009, -1333.348611992432, -1239.650099235785, -5478.2561037845735, -3954.560036010747, -2793.5210220242766, -3340.2223396566324, -2210.9451545411534, -9403.602409792235, -14440.992705940333, 0.016, -0.108, 0.988, 192.0, 0.0, 64.0, 126.0, 80.0, 15.0, 112.0, 0.0, 0.0, 0.0, 1.645921798024477E9, 0.0, 2022-02-27 11:29:58.024
226.0, -685.0362640662509, -4053.198284292017, -1495.5775732490508, -9845.675211629297, -12.494625150516647, 363.88639973239896, -5398.281562123485, -1607.2021850588544, -3808.2455168063066, -6078.311035431748, -3732.428399613905, -2866.2983019707567, -2975.821849801761, -2073.325463929828, -9698.958361024663, -15371.585234592587, 0.016, -0.108, 0.988, 192.0, 0.0, 0.0, 0.0, 0.0, 0.0, 0.0, 0.0, 0.0, 0.0, 1.645921798032281E9, 0.0, 2022-02-27 11:29:58.032
228.0, -1172.6395693587745, -4410.915602554751, -1808.6808095789922, -10177.665672023973, -441.58106345904633, 117.88310025728944, -5450.227016237619, -1607.1574815699437, -2366.2003715277165, -6146.5956147427105, -4153.87054131872, -2974.5701521122637, -3500.618457867916, -2458.691890083777, -9682.351014894368, -15150.437074951778, 0.016, -0.108, 0.988, 192.0, 0.0, 0.0, 0.0, 0.0, 0.0, 0.0, 0.0, 0.0, 0.0, 1.645921798038912E9, 0.0, 2022-02-27 11:29:58.038
230.0, -430.96398484277546, -3829.9937641613205, -1283.5936288349187, -9601.683569155166, 229.440656833727, 576.7644139247434, -5142.130570665667, -1295.551812118508, -2135.128037348752, -5490.1695835792525, -3731.2884606466846, -2774.902018893006, -3082.2608568979335, -2036.288623367384, -9434.559575862835, -14614.7998708248, 0.016, -0.108, 0.988, 192.0, 0.0, 0.0, 0.0, 0.0, 0.0, 0.0, 0.0, 0.0, 0.0, 1.645921798047088E9, 0.0, 2022-02-27 11:29:58.047
232.0, -1170.6949675911628, -4416.1012072683825, -1869.0975748416872, -10238.864748342605, -463.9551596588087, 58.15923907270898, -5571.3511194409275, -1799.494242607861, -4141.733544079488, -6530.375067040332, -3984.779594514322, -3018.3572195002102, -3235.929100028169, -2328.7835513095324, -9878.979310867704, -15780.55510289134, 0.016, -0.108, 0.988, 192.0, 0.0, 0.0, 0.0, 0.0, 0.0, 0.0, 0.0, 0.0, 0.0, 1.645921798061332E9, 0.0, 2022-02-27 11:29:58.061
234.0, -749.9904334533732, -4069.604464722212, -1501.2996198296096, -9830.051342255038, -63.38954727525083, 401.8620135619657, -5217.523004713417, -1325.7266671331724, -1248.8590179513715, -5466.610844923359, -3955.7893819557885, -2799.198365115925, -3346.1232001928333, -2232.1569600292396, -9402.104842913728, -14448.90522347751, 0.018000000000000002, -0.11, 0.99, 192.0, 0.0, 72.0, 126.0, 72.0, 15.0, 120.0, 0.0, 0.0, 0.0, 1.645921798068556E9, 0.0, 2022-02-27 11:29:58.068
236.0, -634.2531006637932, -3995.8213562752435, -1490.3919685354197, -9829.269031199103, 7.68900009262563, 379.73378655121167, -5374.074622878387, -1582.5482109246507, -3759.4069551714606, -6056.33927063218, -3711.7083325038357, -2854.541284387265, -2972.5808468557416, -2051.800734019367, -9686.82136378543, -15341.3209726001, 0.018000000000000002, -0.11, 0.99, 192.0, 0.0, 0.0, 0.0, 0.0, 0.0, 0.0, 0.0, 0.0, 0.0, 1.645921798076631E9, 0.0, 2022-02-27 11:29:58.076
238.0, -1136.2285776410793, -4371.464773591134, -1810.5136526243273, -10173.307081855188, -438.720040168767, 109.27767864199623, -5451.858693582856, -1621.9990398882676, -2383.8135461584984, -6127.149597066593, -4136.77145681041, -2952.933663479527, -3483.5417251040612, -2435.5801863169895, -9681.948683494173, -15162.730534402197, 0.018000000000000002, -0.11, 0.99, 192.0, 0.0, 0.0, 0.0, 0.0, 0.0, 0.0, 0.0, 0.0, 0.0, 1.645921798084648E9, 0.0, 2022-02-27 11:29:58.084
240.0, -396.36348442596017, -3795.5050224667816, -1272.8871432408266, -9597.973179575585, 229.59711904491414, 569.3436347655816, -5161.263663919409, -1295.1718324627677, -2062.3060539133617, -5478.2561037845735, -3717.3186203621176, -2749.6892511474193, -3076.6058655507404, -2030.678335509102, -9430.6256688387, -14597.36551014966, 0.018000000000000002, -0.11, 0.99, 192.0, 0.0, 0.0, 0.0, 0.0, 0.0, 0.0, 0.0, 0.0, 0.0, 1.645921798091113E9, 0.0, 2022-02-27 11:29:58.091
242.0, -1132.27231887249, -4378.282055650003, -1858.8604758811566, -10226.079550514169, -476.02510166467454, 39.60729117480412, -5601.973009344699, -1825.8916528095785, -4129.507139862435, -6508.202136540668, -3958.7845157128, -2985.6342656176407, -3223.0544952219125, -2331.3763536663478, -9889.216409828236, -15787.640605883671, 0.018000000000000002, -0.11, 0.99, 192.0, 0.0, 0.0, 0.0, 0.0, 0.0, 0.0, 0.0, 0.0, 0.0, 1.645921798099198E9, 0.0, 2022-02-27 11:29:58.099
244.0, -710.0925696006501, -4035.071019538763, -1485.1393085884224, -9823.569336362998, -64.9094658982117, 390.9767140122311, -5217.6347634356935, -1340.7470394071388, -1210.9504593551708, -5465.60501642287, -3925.815692641222, -2765.089603077126, -3346.0114414705567, -2225.2726227370053, -9407.849241238742, -14449.665182788991, 0.018000000000000002, -0.112, 0.99, 192.0, 0.0, 72.0, 126.0, 64.0, 15.0, 120.0, 0.0, 0.0, 0.0, 1.645921798107291E9, 0.0, 2022-02-27 11:29:58.107
246.0, -603.8994316934862, -3957.868094190132, -1478.6796544408387, -9819.546022361043, 7.711351837080937, 381.2984086630832, -5383.060024149421, -1591.757129640237, -3743.827789286112, -6008.841813664653, -3694.721006717802, -2826.4898450958544, -2974.145468967613, -2055.6228823212246, -9700.21005871416, -15354.061466939625, 0.018000000000000002, -0.112, 0.99, 192.0, 0.0, 0.0, 0.0, 0.0, 0.0, 0.0, 0.0, 0.0, 0.0, 1.645921798114463E9, 0.0, 2022-02-27 11:29:58.114
248.0, -1119.0177344104927, -4344.888549433774, -1808.434940389984, -10163.651128250496, -451.7734589306663, 117.36901013481739, -5476.222095039141, -1623.7648277002368, -2373.7105576646995, -6103.724968877432, -4126.288488660871, -2928.5926137676975, -3486.5368588610722, -2425.9242327122965, -9702.914619793251, -15167.424400737811, 0.018000000000000002, -0.112, 0.99, 192.0, 0.0, 0.0, 0.0, 0.0, 0.0, 0.0, 0.0, 0.0, 0.0, 1.645921798120871E9, 0.0, 2022-02-27 11:29:58.120
250.0, -383.15360345287365, -3771.8345250886114, -1278.8327072659383, -9588.5630951599, 222.62337477485835, 571.422346999925, -5182.564876385317, -1303.9113645447928, -2055.64523406568, -5454.0715162839315, -3713.5188238047153, -2737.328736463635, -3078.952798718548, -2032.6005855322583, -9451.479846415503, -14602.394652652105, 0.018000000000000002, -0.112, 0.99, 192.0, 0.0, 0.0, 0.0, 0.0, 0.0, 0.0, 0.0, 0.0, 0.0, 1.645921798128778E9, 0.0, 2022-02-27 11:29:58.128
252.0, -1126.0808856583699, -4363.239331631581, -1867.8011736632793, -10227.085379014658, -476.5838952760572, 35.31575623938516, -5591.4229859617935, -1839.1909407604865, -4134.513930620424, -6477.312025703433, -3959.5891785131907, -2986.3942249291213, -3226.004925490013, -2308.8457952553986, -9902.515697779143, -15794.010853053434, 0.018000000000000002, -0.112, 0.99, 192.0, 0.0, 0.0, 0.0, 0.0, 0.0, 0.0, 0.0, 0.0, 0.0, 1.645921798138299E9, 0.0, 2022-02-27 11:29:58.138
254.0, -711.9254126459853, -4030.578318903246, -1497.3433610610202, -9830.833653310974, -70.27388456748541, 376.73865279420056, -5226.776626917914, -1376.800403213549, -1215.2419942905897, -5454.3620889618505, -3937.706820691445, -2782.5016120078103, -3350.772363039537, -2242.3270037564043, -9420.902660000642, -14459.142322438041, 0.018000000000000002, -0.11, 0.99, 192.0, 0.0, 72.0, 126.0, 72.0, 15.0, 120.0, 0.0, 0.0, 0.0, 1.645921798144449E9, 0.0, 2022-02-27 11:29:58.144
0.0, -596.3445420675924, -3952.391916798582, -1483.7087969432828, -9808.794833278042, 8.44895940410607, 372.402414369871, -5385.2728468504965, -1592.6511994184496, -3720.134940163486, -6013.558031744723, -3698.6772654863917, -2840.057353980226, -2979.7110533369846, -2059.7803067899117, -9704.389834927302, -15343.667905767907, 0.018000000000000002, -0.11, 0.99, 192.0, 0.0, 0.0, 0.0, 0.0, 0.0, 0.0, 0.0, 0.0, 0.0, 1.645921798151489E9, 0.0, 2022-02-27 11:29:58.151
2.0, -1137.6143857973082, -4375.4210323597235, -1826.3833911875954, -10183.812401749183, -467.2185143492835, 102.30393437194043, -5459.190065764197, -1646.5189035557394, -2448.7677155456204, -6130.636469201621, -4142.113523735228, -2943.4565238304763, -3493.2423821976645, -2446.1302096998943, -9717.733826367119, -15201.041424398592, 0.018000000000000002, -0.11, 0.99, 192.0, 0.0, 0.0, 0.0, 0.0, 0.0, 0.0, 0.0, 0.0, 0.0, 1.645921798159477E9, 0.0, 2022-02-27 11:29:58.159
4.0, -389.41209190035966, -3784.3515019835836, -1279.5032595995974, -9591.513525428001, 211.84983394740033, 562.101669562062, -5171.523114624395, -1328.5206351900858, -2016.0155911464205, -5461.380536720817, -3734.820036270623, -2740.994422554305, -3099.784624550894, -2045.4081351051493, -9447.210663224538, -14586.100230944185, 0.018000000000000002, -0.11, 0.99, 192.0, 0.0, 0.0, 0.0, 0.0, 0.0, 0.0, 0.0, 0.0, 0.0, 1.645921798167456E9, 0.0, 2022-02-27 11:29:58.167
6.0, -1106.6348679822527, -4348.643642502266, -1850.590330432693, -10214.478995141864, -463.8434009365322, 56.14758207173134, -5599.782538388078, -1849.5845019322041, -4154.228169230005, -6505.363464994844, -3959.3656610686376, -2975.687739335029, -3216.326620140865, -2302.855527741376, -9902.180421612313, -15794.212018753531, 0.018000000000000002, -0.11, 0.99, 192.0, 0.0, 0.0, 0.0, 0.0, 0.0, 0.0, 0.0, 0.0, 0.0, 1.645921798174065E9, 0.0, 2022-02-27 11:29:58.174
8.0, -714.0488283692395, -4030.2430427364166, -1496.9410296608246, -9839.908461559828, -87.48472779807184, 389.5238506226362, -5257.622034266238, -1367.546781009052, -1221.6569449492629, -5466.4543827121715, -3949.128562108107, -2774.11970783707, -3358.975453254635, -2225.093808781363, -9435.140721218673, -14474.430915645471, 0.012, -0.106, 0.986, 192.0, 0.0, 48.0, 126.0, 88.0, 15.0, 104.0, 0.0, 0.0, 0.0, 1.645921798189172E9, 0.0, 2022-02-27 11:29:58.189
10.0, -579.4689750038356, -3932.1859398109846, -1470.5659712035622, -9811.901725757329, -5.185604713631238, 377.9456469947871, -5396.202849889141, -1612.2983827946643, -3677.3089977871177, -5981.103298795617, -3689.3789397929836, -2819.404342103522, -2971.664425333074, -2038.3449838572724, -9707.340265195402, -15334.50369054123, 0.012, -0.106, 0.986, 192.0, 0.0, 0.0, 0.0, 0.0, 0.0, 0.0, 0.0, 0.0, 0.0, 1.645921798196146E9, 0.0, 2022-02-27 11:29:58.196
12.0, -1121.9234611896827, -4342.362802310325, -1816.459216649439, -10174.089392911124, -480.54015404464656, 92.17859413368633, -5498.596191238903, -1660.9134269849571, -2424.5160728116125, -6104.9766665669285, -4134.24570968696, -2939.3661545951554, -3497.153937477343, -2451.069945224517, -9724.193480514703, -15208.596314024488, 0.012, -0.106, 0.986, 192.0, 0.0, 0.0, 0.0, 0.0, 0.0, 0.0, 0.0, 0.0, 0.0, 1.645921798203646E9, 0.0, 2022-02-27 11:29:58.203
14.0, -373.1400219368961, -3768.4370599314047, -1274.228247908145, -9589.635978893755, 197.90234540728872, 573.0540243451625, -5199.21692600452, -1332.9909840811472, -2026.8338354627892, -5442.962699289644, -3723.5547570651484, -2724.1859107239143, -3089.5028221014527, -2025.2021581175518, -9461.471076187025, -14597.812545038767, 0.012, -0.106, 0.986, 192.0, 0.0, 0.0, 0.0, 0.0, 0.0, 0.0, 0.0, 0.0, 0.0, 1.645921798211693E9, 0.0, 2022-02-27 11:29:58.211
16.0, -1092.9556003756047, -4341.804008698941, -1851.394993233084, -10207.572306105174, -475.71217724230024, 47.609215689804046, -5616.434588007282, -1851.1267722996204, -4157.469172176025, -6489.292560731478, -3955.5658645112358, -2967.4846491199314, -3214.426721862164, -2299.435710839714, -9912.328113595024, -15800.291693245375, 0.012, -0.106, 0.986, 192.0, 0.0, 0.0, 0.0, 0.0, 0.0, 0.0, 0.0, 0.0, 0.0, 1.64592179821966E9, 0.0, 2022-02-27 11:29:58.219
18.0, -725.1352936190717, -4044.391696976626, -1513.7718932356709, -9849.027973297594, -112.20575716564146, 372.31300739204977, -5259.030194166922, -1387.2610196186329, -1224.4062095172656, -5481.60886545287, -3959.3656610686376, -2764.441402487922, -3367.424412658741, -2243.1316665567956, -9446.517759146423, -14480.6670523485, 0.016, -0.108, 0.988, 192.0, 0.0, 64.0, 126.0, 80.0, 15.0, 112.0, 0.0, 0.0, 0.0, 1.64592179822631E9, 0.0, 2022-02-27 11:29:58.226
20.0, -581.100652349073, -3945.9769661399087, -1475.6174654504616, -9801.12818492987, 0.9164215226675896, 381.2984086630832, -5378.321454324896, -1590.6842459063823, -3662.758012146713, -5990.356921000114, -3708.3555708355393, -2823.7629322723074, -2979.1522597256017, -2054.997033476476, -9702.646398859788, -15315.012969376205, 0.016, -0.108, 0.988, 192.0, 0.0, 0.0, 0.0, 0.0, 0.0, 0.0, 0.0, 0.0, 0.0, 1.645921798234316E9, 0.0, 2022-02-27 11:29:58.234
22.0, -1141.74945852154, -4370.950683468662, -1841.4037634615618, -10193.043672209224, -488.72089251528894, 83.5508207739378, -5464.308615244462, -1655.7501740157813, -2513.967754121751, -6178.513905824889, -4158.609111143245, -2950.5196750783534, -3503.0771497579995, -2452.2322359361933, -9738.699762666198, -15231.43979685781, 0.016, -0.108, 0.988, 192.0, 0.0, 0.0, 0.0, 0.0, 0.0, 0.0, 0.0, 0.0, 0.0, 1.645921798241494E9, 0.0, 2022-02-27 11:29:58.241
24.0, -390.41792040084846, -3774.3826239565165, -1289.7403585601282, -9602.845859866842, 199.26580181906246, 565.0968033190732, -5161.7554022974255, -1313.1426350048346, -1969.5686661682923, -5441.263966711041, -3750.4886091337935, -2740.0780010316375, -3112.3463049347765, -2041.1389519141856, -9449.602299881257, -14570.49871331438, 0.016, -0.108, 0.988, 192.0, 0.0, 0.0, 0.0, 0.0, 0.0, 0.0, 0.0, 0.0, 0.0, 1.645921798249419E9, 0.0, 2022-02-27 11:29:58.249
26.0, -1104.556155747909, -4342.183988354682, -1860.6262636931258, -10223.129120246067, -479.86960171098735, 33.684078894147746, -5611.226631549195, -1857.8993508695783, -4169.405003715158, -6494.008778811548, -3966.875847205621, -2980.3592539261886, -3217.980649230558, -2309.8739755003426, -9907.656599003863, -15797.140097277177, 0.016, -0.108, 0.988, 192.0, 0.0, 0.0, 0.0, 0.0, 0.0, 0.0, 0.0, 0.0, 0.0, 1.645921798255984E9, 0.0, 2022-02-27 11:29:58.255
28.0, -725.6940872304544, -4031.673554381556, -1514.6436112694278, -9850.011450053627, -108.96475421962192, 365.4733735887258, -5249.821275451336, -1394.6370952888842, -1217.9912588585923, -5457.133705274308, -3962.1149256366407, -2777.003082871805, -3368.832572559425, -2258.5543702309574, -9439.29814568736, -14481.58347387117, 0.012, -0.1, 0.986, 192.0, 0.0, 48.0, 126.0, 112.0, 15.0, 104.0, 0.0, 0.0, 0.0, 1.645921798264461E9, 0.0, 2022-02-27 11:29:58.264
30.0, -554.4350212138917, -3913.835157613177, -1469.1354595584226, -9794.109737170904, -1.4752151340502662, 400.5656123835579, -5424.924841514211, -1625.5082637677508, -3665.82020113709, -5980.589208673145, -3706.5450795346596, -2825.8416445066505, -2982.862649305183, -2056.382841632705, -9706.133270994815, -15324.55716425862, 0.012, -0.1, 0.986, 192.0, 0.0, 0.0, 0.0, 0.0, 0.0, 0.0, 0.0, 0.0, 0.0, 1.645921798271949E9, 0.0, 2022-02-27 11:29:58.271
32.0, -1120.4482460556324, -4342.206340099137, -1834.809998847246, -10178.470334824364, -479.84724996653205, 92.7597394895243, -5485.185144565719, -1663.0368427082115, -2466.403241920858, -6133.385733769624, -4132.591680597267, -2924.569299765742, -3481.6641785698152, -2440.4975700971568, -9740.934937111728, -15227.34942762249, 0.012, -0.1, 0.986, 192.0, 0.0, 0.0, 0.0, 0.0, 0.0, 0.0, 0.0, 0.0, 0.0, 1.645921798278658E9, 0.0, 2022-02-27 11:29:58.278
34.0, -395.20119371428416, -3782.4739554493376, -1297.0493789970135, -9605.550420945934, 188.98399936962122, 571.3105882776485, -5142.01881194339, -1302.3467424329212, -1974.6201604151918, -5436.614803864337, -3746.2864811761956, -2732.6572218724755, -3110.9828485230028, -2034.902815211155, -9442.717962589022, -14563.323803344227, 0.012, -0.1, 0.986, 192.0, 0.0, 0.0, 0.0, 0.0, 0.0, 0.0, 0.0, 0.0, 0.0, 1.645921798286604E9, 0.0, 2022-02-27 11:29:58.286
36.0, -1108.0653796273923, -4345.872026189808, -1868.8293539082235, -10229.052332526724, -486.105738414018, 51.47606748057216, -5615.004076362143, -1848.2210455204304, -4194.774233671932, -6505.631685928308, -3966.8534954611655, -2999.8946785801268, -3216.8407102633373, -2295.144175904295, -9905.667293747341, -15797.050690299357, 0.012, -0.1, 0.986, 192.0, 0.0, 0.0, 0.0, 0.0, 0.0, 0.0, 0.0, 0.0, 0.0, 1.645921798294577E9, 0.0, 2022-02-27 11:29:58.294
38.0, -742.48024731639, -4051.1419238021285, -1528.0323061981567, -9859.242720513668, -113.83743451087886, 377.67742606132344, -5251.810580707858, -1381.2260486157, -1229.0330206195142, -5494.2152493256635, -3972.8884664640987, -2794.1468708690254, -3377.19212498571, -2262.9353121441977, -9441.242747454971, -14479.236540703361, 0.012, -0.10400000000000001, 0.982, 192.0, 0.0, 48.0, 126.0, 96.0, 15.0, 88.0, 0.0, 0.0, 0.0, 1.645921798308276E9, 0.0, 2022-02-27 11:29:58.308
40.0, -573.1434313229837, -3929.973117109909, -1475.7068724282828, -9802.245772152635, 16.182662985642313, 390.10499597847416, -5372.174724599687, -1598.9320396103908, -3654.1302387869646, -5994.112014068605, -3714.010562182732, -2829.3508683861337, -2981.3203789377667, -2064.5635801033472, -9693.996273755583, -15307.391024516945, 0.012, -0.10400000000000001, 0.982, 192.0, 0.0, 0.0, 0.0, 0.0, 0.0, 0.0, 0.0, 0.0, 0.0, 1.645921798316285E9, 0.0, 2022-02-27 11:29:58.316
42.0, -1135.3121561184116, -4355.550331538955, -1844.55535942976, -10197.312855400189, -480.83072672256554, 83.2378963515635, -5478.591379951404, -1669.8988282559906, -2507.463396485257, -6160.252530604903, -4153.401154685158, -2960.2650356608674, -3491.1413182188653, -2453.238064436682, -9728.619125916854, -15231.216279413258, 0.012, -0.10400000000000001, 0.982, 192.0, 0.0, 0.0, 0.0, 0.0, 0.0, 0.0, 0.0, 0.0, 0.0, 1.645921798324441E9, 0.0, 2022-02-27 11:29:58.324
44.0, -389.9261820228317, -3782.2504380047844, -1298.390483664332, -9603.024673822483, 192.78379592702342, 571.1317743220061, -5166.248102932943, -1318.8199780964826, -1956.068212517287, -5434.044353251977, -3746.9570335098547, -2740.189759753914, -3105.372560664721, -2059.1321062007078, -9440.683953843589, -14560.619242265135, 0.012, -0.10400000000000001, 0.982, 192.0, 0.0, 0.0, 0.0, 0.0, 0.0, 0.0, 0.0, 0.0, 0.0, 1.645921798331553E9, 0.0, 2022-02-27 11:29:58.331
46.0, -1091.1227573302697, -4341.535787765478, -1863.5990457056816, -10213.026131752269, -469.20781960580587, 59.58975071784863, -5618.043913608064, -1862.392051505095, -4192.024969103929, -6486.8115170969395, -3956.0128994003417, -2976.313588179778, -3204.1896229016334, -2302.922582974742, -9906.539011781098, -15794.212018753531, 0.013000000000000001, -0.10600000000000001, 0.982, 192.0, 0.0, 56.0, 126.0, 80.0, 15.0, 88.0, 0.0, 0.0, 0.0, 1.645921798339136E9, 0.0, 2022-02-27 11:29:58.339
48.0, -741.0720874157057, -4044.034069065341, -1532.3908963669417, -9861.991985081671, -112.85395775484535, 382.17012669684016, -5247.831970194813, -1402.8178337595266, -1228.653040963774, -5516.835214714434, -3972.754355997367, -2795.8456034476285, -3373.3699766838527, -2254.106373084351, -9441.86859629972, -14486.7690785848, 0.013000000000000001, -0.10600000000000001, 0.982, 192.0, 0.0, 0.0, 0.0, 0.0, 0.0, 0.0, 0.0, 0.0, 0.0, 1.645921798346828E9, 0.0, 2022-02-27 11:29:58.346
50.0, -552.0657363016292, -3919.803073382744, -1461.513514699163, -9785.347853344423, 27.537349168938302, 402.42080717334835, -5390.749024242047, -1605.9504873693572, -3617.2945639246186, -5961.6572811195, -3703.169966121908, -2833.8212172771955, -2971.172686955057, -2046.9504054725655, -9685.033224229006, -15289.487277208244, 0.013000000000000001, -0.10600000000000001, 0.982, 192.0, 0.0, 0.0, 0.0, 0.0, 0.0, 0.0, 0.0, 0.0, 0.0, 1.645921798354949E9, 0.0, 2022-02-27 11:29:58.354
52.0, -1143.7164120336072, -4367.687328778187, -1849.8527228656678, -10200.933838001947, -481.7024447563225, 78.25345733803003, -5459.726507631124, -1670.9493602453902, -2547.9871091827285, -6186.761699528897, -4149.422544172114, -2971.083279977236, -3483.5193733596057, -2457.619006349922, -9730.54137594001, -15249.142378466413, 0.013000000000000001, -0.10600000000000001, 0.982, 192.0, 0.0, 0.0, 0.0, 0.0, 0.0, 0.0, 0.0, 0.0, 0.0, 1.645921798361087E9, 0.0, 2022-02-27 11:29:58.361
54.0, -393.3012954355831, -3786.1172897955526, -1300.5362511320413, -9602.734101144564, 195.46600526166026, 562.1910765398833, -5165.331681410275, -1324.5867281659519, -1926.2062819249968, -5431.831530550901, -3751.9414725233883, -2745.6435854010087, -3108.6806188441064, -2062.350757402272, -9435.632459596689, -14553.69020148399, 0.013000000000000001, -0.10600000000000001, 0.982, 192.0, 0.0, 0.0, 0.0, 0.0, 0.0, 0.0, 0.0, 0.0, 0.0, 1.645921798368527E9, 0.0, 2022-02-27 11:29:58.368
56.0, -1088.3958445067221, -4332.5727382389, -1860.2239322929304, -10209.673370083972, -452.66752870887865, 62.85310540832346, -5589.38897721636, -1852.5796356892154, -4203.670227965144, -6508.9397441076935, -3950.134390608596, -2981.856820804694, -3193.4831373075413, -2298.116957916851, -9901.733386723208, -15796.64835889916, 0.0115, -0.10600000000000001, 0.984, 192.0, 0.0, 40.0, 126.0, 88.0, 15.0, 104.0, 0.0, 0.0, 0.0, 1.645921798376669E9, 0.0, 2022-02-27 11:29:58.376
58.0, -768.028291228806, -4077.360520048204, -1551.6581000874162, -9880.700395190763, -126.66733582822512, 357.11382116244096, -5249.0389643954, -1393.4748045772083, -1251.1165441413575, -5514.264764102074, -3985.6066090591685, -2812.922336211483, -3384.6352558893273, -2277.575704762424, -9441.622727110711, -14497.676729878991, 0.0115, -0.10600000000000001, 0.984, 192.0, 0.0, 0.0, 0.0, 0.0, 0.0, 0.0, 0.0, 0.0, 0.0, 1.64592179838464E9, 0.0, 2022-02-27 11:29:58.384
60.0, -571.2435330442826, -3946.759277195845, -1469.448383980797, -9791.338120858445, 28.565529413882427, 413.2614032341723, -5369.447811776139, -1578.3684347115081, -3608.5550318425935, -5986.557124442712, -3716.3574953505395, -2847.701650583941, -2985.6342656176407, -2062.574274846825, -9681.255779416058, -15270.577701399054, 0.0115, -0.10600000000000001, 0.984, 192.0, 0.0, 0.0, 0.0, 0.0, 0.0, 0.0, 0.0, 0.0, 0.0, 1.645921798391143E9, 0.0, 2022-02-27 11:29:58.391
62.0, -1163.4530023876432, -4392.788337801497, -1867.3764905186285, -10215.529527131263, -494.82291875158774, 85.40601556372829, -5500.0937581174085, -1681.8346597951247, -2626.844063621052, -6227.330115715279, -4161.1125065222395, -2992.943286054526, -3492.7506438196474, -2456.277901682604, -9750.434428505234, -15278.177294513858, 0.0115, -0.10600000000000001, 0.984, 192.0, 0.0, 0.0, 0.0, 0.0, 0.0, 0.0, 0.0, 0.0, 0.0, 1.645921798399387E9, 0.0, 2022-02-27 11:29:58.399
64.0, -416.4353509468259, -3798.969542857354, -1313.5002629161195, -9617.933287374173, 190.41451101476088, 568.3825097540033, -5159.609634829716, -1316.4953966731307, -1890.778766963335, -5435.340754430385, -3766.7383273528017, -2759.501666963299, -3128.7077818760613, -2061.7919637908894, -9436.660639841633, -14541.01676237783, 0.0115, -0.10600000000000001, 0.984, 192.0, 0.0, 0.0, 0.0, 0.0, 0.0, 0.0, 0.0, 0.0, 0.0, 1.64592179840726E9, 0.0, 2022-02-27 11:29:58.407
66.0, -1121.2752606004788, -4367.9108462227405, -1879.2899703133073, -10234.93084131847, -464.1116218699959, 54.38179425976208, -5612.567736216514, -1861.8556096381676, -4223.987963675018, -6497.406243968755, -3964.752431482367, -3022.961678858004, -3209.554041570907, -2287.611638022857, -9905.063796647048, -15801.006949067945, 0.012750000000000001, -0.10600000000000001, 0.985, 192.0, 0.0, 56.0, 126.0, 88.0, 15.0, 104.0, 0.0, 0.0, 0.0, 1.645921798414007E9, 0.0, 2022-02-27 11:29:58.414
68.0, -778.7347768228981, -4087.5305637753686, -1559.8835420469693, -9886.154220837858, -127.42729513970556, 361.0924316754856, -5258.426697066629, -1407.6458105618728, -1259.6772622677402, -5514.980019924644, -4002.7280453119333, -2826.5569003292208, -3398.67215140726, -2277.4862977846024, -9452.843302827276, -14502.750575870345, 0.012750000000000001, -0.10600000000000001, 0.985, 192.0, 0.0, 0.0, 0.0, 0.0, 0.0, 0.0, 0.0, 0.0, 0.0, 1.645921798421802E9, 0.0, 2022-02-27 11:29:58.421
70.0, -580.0277686152183, -3953.978890654909, -1478.2102678072772, -9799.831783751462, 21.100046765809868, 398.17397572684, -5374.521657767494, -1591.1759842843992, -3624.9165087838783, -6002.158642072516, -3724.8735099880114, -2863.7725548473068, -2994.7984808443166, -2070.5761993618253, -9692.565762110444, -15287.162695784891, 0.012750000000000001, -0.10600000000000001, 0.985, 192.0, 0.0, 0.0, 0.0, 0.0, 0.0, 0.0, 0.0, 0.0, 0.0, 1.645921798436893E9, 0.0, 2022-02-27 11:29:58.436
72.0, -1166.8728192893052, -4388.005064488061, -1866.907103885067, -10210.478032884364, -494.1300146734732, 78.7898992049574, -5502.574801751948, -1683.891020285013, -2603.486490665256, -6207.682932339065, -4157.849151831764, -2995.3572744556996, -3501.892507301868, -2481.848297339475, -9749.78622791603, -15269.214244987279, 0.012750000000000001, -0.10600000000000001, 0.985, 192.0, 0.0, 0.0, 0.0, 0.0, 0.0, 0.0, 0.0, 0.0, 0.0, 1.645921798444842E9, 0.0, 2022-02-27 11:29:58.444
74.0, -423.02911556114145, -3808.5807929731363, -1312.2709169710777, -9613.887621627764, 187.0393976020095, 559.5759224386123, -5173.0206815029005, -1317.8141495959937, -1915.9468312200108, -5431.809178806446, -3752.433210901405, -2765.983672855338, -3128.6407266426954, -2073.683091841113, -9442.96383177803, -14546.291774069283, 0.012750000000000001, -0.10600000000000001, 0.985, 192.0, 0.0, 0.0, 0.0, 0.0, 0.0, 0.0, 0.0, 0.0, 0.0, 1.645921798451361E9, 0.0, 2022-02-27 11:29:58.451
76.0, -1116.0896558868476, -4361.741764753076, -1868.8964091415894, -10222.950306290426, -467.1738108603729, 60.39441351823968, -5613.372399016906, -1856.2900252687962, -4238.628356293244, -6499.261438758545, -3954.1130011216405, -3018.021943333381, -3211.789216016438, -2305.9400684762086, -9907.790709470595, -15796.424841454607, 0.015375000000000002, -0.10700000000000001, 0.9864999999999999, 192.0, 0.0, 72.0, 126.0, 80.0, 15.0, 112.0, 0.0, 0.0, 0.0, 1.64592179845946E9, 0.0, 2022-02-27 11:29:58.459
78.0, -786.8708118046299, -4095.8454127127425, -1559.4141554134078, -9881.773278924618, -129.86363528533403, 354.69983276126777, -5255.27510109843, -1408.5845838289958, -1271.8366112514273, -5539.0081452140985, -3999.6882080660116, -2831.697801553941, -3403.8577561208913, -2288.4163008232476, -9446.517759146423, -14493.988692043864, 0.015375000000000002, -0.10700000000000001, 0.9864999999999999, 192.0, 0.0, 0.0, 0.0, 0.0, 0.0, 0.0, 0.0, 0.0, 0.0, 1.645921798466665E9, 0.0, 2022-02-27 11:29:58.466
80.0, -571.3776435110144, -3944.0770678612075, -1467.7720031466488, -9781.570408531477, 31.538311426438266, 414.3119352235717, -5379.059061891921, -1589.2537342612427, -3596.5968485590042, -5969.860371334597, -3709.6743237584024, -2845.153551716036, -2994.507908166398, -2062.2389986799953, -9682.194552683182, -15266.576739141554, 0.015375000000000002, -0.10700000000000001, 0.9864999999999999, 192.0, 0.0, 0.0, 0.0, 0.0, 0.0, 0.0, 0.0, 0.0, 0.0, 1.645921798474078E9, 0.0, 2022-02-27 11:29:58.474
82.0, -1166.3587291668332, -4390.5084598670555, -1863.621397450137, -10210.410977650998, -495.67228504088945, 89.67519875469193, -5532.235566644141, -1683.3545784180856, -2621.1890722738594, -6214.880194053673, -4151.031869772896, -2985.433099917543, -3499.8137950675246, -2471.208866978749, -9751.842588405918, -15275.897416579417, 0.015375000000000002, -0.10700000000000001, 0.9864999999999999, 192.0, 0.0, 0.0, 0.0, 0.0, 0.0, 0.0, 0.0, 0.0, 0.0, 1.645921798482229E9, 0.0, 2022-02-27 11:29:58.482
84.0, -424.48197895073645, -3811.7323889413346, -1314.3943326943318, -9617.463900740613, 194.68369420572452, 573.456355745358, -5145.0810009337665, -1314.3719809498766, -1927.323869147762, -5429.372838660817, -3753.2155219573406, -2767.056556589193, -3129.9371278211033, -2068.8774667832217, -9436.10184623025, -14543.96719264593, 0.015375000000000002, -0.10700000000000001, 0.9864999999999999, 192.0, 0.0, 0.0, 0.0, 0.0, 0.0, 0.0, 0.0, 0.0, 0.0, 1.645921798489172E9, 0.0, 2022-02-27 11:29:58.489
86.0, -1104.1538243477137, -4350.163561125227, -1868.5164294858491, -10220.268096955788, -454.36626128748196, 59.4779919955721, -5590.081881294475, -1861.0285950933214, -4241.511731327979, -6483.034072283992, -3951.7660679538335, -3014.4233124760763, -3210.470463093575, -2282.9624751761526, -9893.463241274743, -15797.207152510544, 0.0156875, -0.10950000000000001, 0.98825, 192.0, 0.0, 64.0, 126.0, 64.0, 15.0, 120.0, 0.0, 0.0, 0.0, 1.645921798496182E9, 0.0, 2022-02-27 11:29:58.496
88.0, -775.8290500437081, -4089.7210347319888, -1557.9612920238128, -9884.902523148361, -131.316498674929, 359.39369909688224, -5253.0399266529, -1416.1618251993448, -1263.6558727807849, -5532.704953277702, -3989.3169986387493, -2829.9767172308825, -3401.5331746975394, -2286.3599403333596, -9439.633421854189, -14497.520267667804, 0.0156875, -0.10950000000000001, 0.98825, 192.0, 0.0, 0.0, 0.0, 0.0, 0.0, 0.0, 0.0, 0.0, 0.0, 1.645921798503727E9, 0.0, 2022-02-27 11:29:58.503
90.0, -551.9763293238079, -3935.672811946012, -1458.093697797501, -9768.74050721413, 45.843427877834785, 423.7890748726219, -5361.53529423896, -1569.8077165851257, -3582.2917321076075, -5971.939083568941, -3704.444015555861, -2844.415944149011, -2990.3057802088, -2052.091306697286, -9673.253854901059, -15250.192910455813, 0.0156875, -0.10950000000000001, 0.98825, 192.0, 0.0, 0.0, 0.0, 0.0, 0.0, 0.0, 0.0, 0.0, 0.0, 1.645921798511766E9, 0.0, 2022-02-27 11:29:58.511
92.0, -1163.005967498537, -4393.570648857432, -1868.427022508028, -10206.432367137953, -493.750035017733, 80.98037016157748, -5484.045205598499, -1689.1883837209207, -2664.3055873281464, -6232.023982050894, -4149.087268005284, -2974.5254486233534, -3497.1986409662536, -2474.3828146914025, -9752.133161083837, -15283.854637605506, 0.0156875, -0.10950000000000001, 0.98825, 192.0, 0.0, 0.0, 0.0, 0.0, 0.0, 0.0, 0.0, 0.0, 0.0, 1.645921798518795E9, 0.0, 2022-02-27 11:29:58.518
94.0, -406.26530721966117, -3795.6391329335133, -1308.1134925023905, -9606.891525613251, 193.96843838315468, 568.2931027761821, -5175.032338503878, -1333.3039085035216, -1885.2355343384188, -5423.4272746357055, -3750.5780161116145, -2755.858332617084, -3131.7923226108937, -2059.802658534367, -9433.218471195516, -14526.555183715247, 0.0156875, -0.10950000000000001, 0.98825, 192.0, 0.0, 0.0, 0.0, 0.0, 0.0, 0.0, 0.0, 0.0, 0.0, 1.64592179852632E9, 0.0, 2022-02-27 11:29:58.526
96.0, -1078.6281321797528, -4330.002287626539, -1850.4338682215057, -10197.156393189001, -437.82597039055474, 83.64022775175903, -5595.759224386123, -1826.9868882878886, -4258.588464091833, -6488.107918275347, -3936.2763090463054, -2995.4466814335206, -3197.819375731871, -2284.013007165552, -9900.794613456084, -15789.942835562568, 0.01484375, -0.10475000000000001, 0.9881249999999999, 192.0, 0.0, 56.0, 126.0, 112.0, 15.0, 112.0, 0.0, 0.0, 0.0, 1.645921798534419E9, 0.0, 2022-02-27 11:29:58.534
98.0, -784.3003611922695, -4082.859049184209, -1563.1692484818993, -9889.19405808378, -148.23676922759643, 360.48893457519233, -5265.42279308114, -1400.582659313996, -1286.3428934029214, -5522.400799083805, -3993.452071362981, -2823.1370834275585, -3415.324201026464, -2270.110222114351, -9454.899663317165, -14513.121785297608, 0.01484375, -0.10475000000000001, 0.9881249999999999, 192.0, 0.0, 0.0, 0.0, 0.0, 0.0, 0.0, 0.0, 0.0, 0.0, 1.64592179854235E9, 0.0, 2022-02-27 11:29:58.542
100.0, -531.3233174471042, -3914.6621721580236, -1439.9440812997916, -9753.541320984521, 57.24281755004139, 433.10975231048496, -5366.407974530217, -1591.3547982400416, -3532.3355832499965, -5914.115120663062, -3692.686997972369, -2821.997144460338, -2987.154184240602, -2037.093286167775, -9669.834037999397, -15233.026770714137, 0.01484375, -0.10475000000000001, 0.9881249999999999, 192.0, 0.0, 0.0, 0.0, 0.0, 0.0, 0.0, 0.0, 0.0, 0.0, 1.645921798555963E9, 0.0, 2022-02-27 11:29:58.555
102.0, -1164.7494035660511, -4387.2227534321255, -1862.1461823160867, -10207.460547382898, -500.008523465219, 80.51098352801604, -5502.194822096208, -1685.5897528636162, -2702.191794179892, -6229.8335110942735, -4137.86669228872, -2968.2893119203227, -3491.7001118302483, -2454.065078981528, -9759.196312331715, -15306.161678571902, 0.01484375, -0.10475000000000001, 0.9881249999999999, 192.0, 0.0, 0.0, 0.0, 0.0, 0.0, 0.0, 0.0, 0.0, 0.0, 1.645921798564006E9, 0.0, 2022-02-27 11:29:58.564
104.0, -407.85228107598795, -3796.555554456181, -1299.9774575206588, -9606.779766890975, 189.5651447254592, 575.4009575129697, -5156.5250940948845, -1305.006600023103, -1844.6000629186706, -5423.74019905808, -3755.36128942505, -2752.349108737601, -3148.1314478077234, -2057.5227805999257, -9431.720904317011, -14515.044035320763, 0.01484375, -0.10475000000000001, 0.9881249999999999, 192.0, 0.0, 0.0, 0.0, 0.0, 0.0, 0.0, 0.0, 0.0, 0.0, 1.64592179857207E9, 0.0, 2022-02-27 11:29:58.572
106.0, -1073.0625478103814, -4322.402694511735, -1843.750696629369, -10195.055329210201, -438.6306331909458, 84.8472219523456, -5585.477421936682, -1836.1734552590199, -4243.1210569287605, -6468.371327921311, -3926.977983352898, -2992.4515476765096, -3189.9292099391473, -2269.1714488472285, -9893.15031685237, -15783.684347115082, 0.013421875, -0.10437500000000001, 0.9910625, 192.0, 0.0, 48.0, 126.0, 96.0, 15.5, 8.0, 0.0, 0.0, 0.0, 1.645921798578588E9, 0.0, 2022-02-27 11:29:58.578
108.0, -766.4636691169345, -4081.7861654503545, -1548.5959110970393, -9874.665424187831, -134.08811498738706, 363.86404798794365, -5275.61518855276, -1387.0822056629904, -1254.2457883651005, -5526.066485174476, -3979.839858989699, -2803.0205134177822, -3398.649799662805, -2236.3143844979268, -9448.618823125224, -14497.475564178892, 0.013421875, -0.10437500000000001, 0.9910625, 192.0, 0.0, 0.0, 0.0, 0.0, 0.0, 0.0, 0.0, 0.0, 0.0, 1.645921798586647E9, 0.0, 2022-02-27 11:29:58.586
110.0, -539.2358349842829, -3922.2841170172833, -1439.5193981551408, -9754.45774250719, 48.03389883445488, 422.1797492718398, -5346.067887075888, -1560.732908336271, -3533.6766879173147, -5943.686478577433, -3692.8434601835565, -2826.445141606944, -2984.404919672599, -2041.742449014479, -9673.991462468084, -15228.77993926763, 0.013421875, -0.10437500000000001, 0.9910625, 192.0, 0.0, 0.0, 0.0, 0.0, 0.0, 0.0, 0.0, 0.0, 0.0, 1.645921798594678E9, 0.0, 2022-02-27 11:29:58.594
112.0, -1168.3256826789002, -4399.940896027195, -1858.1899235474973, -10208.756948561306, -509.4856631142692, 77.09116662635405, -5490.929542890733, -1691.4906133998172, -2694.703959787364, -6241.925804844595, -4153.311747707337, -2973.094936978214, -3495.9022397878457, -2465.1962477202715, -9759.50923675409, -15301.467812236288, 0.013421875, -0.10437500000000001, 0.9910625, 192.0, 0.0, 0.0, 0.0, 0.0, 0.0, 0.0, 0.0, 0.0, 0.0, 1.645921798601191E9, 0.0, 2022-02-27 11:29:58.601
114.0, -409.2157374877617, -3807.1502813279967, -1295.037721996036, -9609.841955881353, 187.41937725774972, 572.4952307337797, -5151.6524138036275, -1308.6722861137732, -1863.040252094299, -5422.779074046502, -3751.114457978542, -2739.966242309361, -3125.7349998635054, -2055.712289299046, -9432.749084561954, -14524.834099392188, 0.013421875, -0.10437500000000001, 0.9910625, 192.0, 0.0, 0.0, 0.0, 0.0, 0.0, 0.0, 0.0, 0.0, 0.0, 1.645921798608307E9, 0.0, 2022-02-27 11:29:58.608
116.0, -1057.0810505248369, -4325.017848613006, -1826.3833911875954, -10177.978596446348, -429.0417348196191, 85.47307079709421, -5584.181020758274, -1835.3687924586288, -4255.570978590367, -6489.739595620585, -3928.9896403538755, -2977.341768424722, -3182.620189502262, -2275.5193442725354, -9901.018130900638, -15791.306291974342, 0.012, -0.106, 0.994, 192.0, 0.0, 48.0, 126.0, 88.0, 15.5, 8.0, 0.0, 0.0, 0.0, 1.645921798616244E9, 0.0, 2022-02-27 11:29:58.616
118.0, -795.8338613312079, -4095.0183981678965, -1561.8057920701258, -9893.060909874548, -156.6633768872472, 344.6191960119243, -5261.466534312551, -1405.9470779832695, -1282.4983933566086, -5546.38422088435, -3995.329617897227, -2818.219699647391, -3407.478738722651, -2253.7487451730663, -9461.49342793148, -14525.839927892677, 0.012, -0.106, 0.994, 192.0, 0.0, 0.0, 0.0, 0.0, 0.0, 0.0, 0.0, 0.0, 0.0, 1.645921798624278E9, 0.0, 2022-02-27 11:29:58.624
120.0, -546.3436897210705, -3945.4405242729813, -1431.7409910846939, -9754.681259951742, 60.05913735141008, 431.65688892088997, -5335.584918926349, -1553.669757088394, -3495.2316874541866, -5912.572850295645, -3698.1855271083746, -2832.770685287796, -2982.1697452270682, -2032.488826809982, -9662.167389651226, -15210.049177414081, 0.012, -0.106, 0.994, 192.0, 0.0, 0.0, 0.0, 0.0, 0.0, 0.0, 0.0, 0.0, 0.0, 1.645921798630927E9, 0.0, 2022-02-27 11:29:58.630
122.0, -1211.5316047110086, -4458.994204878117, -1865.3648335176508, -10221.922126045481, -495.0240844516855, 76.9123526707116, -5485.743938177102, -1691.7141308443704, -2745.1741987674477, -6270.536037747388, -4151.277738961904, -2987.824736574261, -3479.2725419130975, -2458.334262172492, -9761.74441119962, -15323.238411335757, 0.012, -0.106, 0.994, 192.0, 0.0, 0.0, 0.0, 0.0, 0.0, 0.0, 0.0, 0.0, 0.0, 1.645921798638869E9, 0.0, 2022-02-27 11:29:58.638
124.0, -485.34577910253756, -3901.161718507018, -1303.7549023336057, -9616.927458873684, 199.62342973034737, 572.3611202670479, -5141.035335187356, -1294.098948728913, -1846.2540920083634, -5442.247443467074, -3780.2834844927174, -2775.997254371316, -3132.4852266890084, -2059.2438649229844, -9422.10965420123, -14511.870087608111, 0.012, -0.106, 0.994, 192.0, 0.0, 0.0, 0.0, 0.0, 0.0, 0.0, 0.0, 0.0, 0.0, 1.645921798646917E9, 0.0, 2022-02-27 11:29:58.646
126.0, -1188.3751974553106, -4468.918379416273, -1844.1306762851093, -10195.010625721292, -422.8950050944096, 88.08822489836514, -5584.561000414014, -1827.165702243531, -4288.048063283928, -6526.999953627581, -3952.59308249868, -3009.0588938068026, -3174.4170992871645, -2271.607788992857, -9892.412709285345, -15785.964225049524, 0.01, -0.10400000000000001, 0.99, 192.0, 0.0, 40.0, 126.0, 96.0, 15.0, 120.0, 0.0, 0.0, 0.0, 1.645921798654067E9, 0.0, 2022-02-27 11:29:58.654
128.0, -950.1726567951032, -4276.738080589543, -1570.1653444964106, -9893.86557267494, -127.8743300288117, 368.6026178124688, -5235.963193889045, -1383.3941678278647, -1324.2067485102116, -5585.723291125691, -4041.0836387972404, -2847.5004848838435, -3401.0414363195227, -2265.7516319455663, -9453.133875505195, -14508.494974195359, 0.01, -0.10400000000000001, 0.99, 192.0, 0.0, 0.0, 0.0, 0.0, 0.0, 0.0, 0.0, 0.0, 0.0, 1.645921798661463E9, 0.0, 2022-02-27 11:29:58.661
130.0, -748.738735763876, -4152.171808740117, -1448.5942064039955, -9765.633614734843, 76.01828289249931, 455.9979386327194, -5317.412950684185, -1530.4239428548747, -3576.927313438334, -5978.666958649988, -3761.798591828179, -2888.5829911926976, -2980.605123115197, -2029.8289692198002, -9659.19460763867, -15211.30087510358, 0.01, -0.10400000000000001, 0.99, 192.0, 0.0, 0.0, 0.0, 0.0, 0.0, 0.0, 0.0, 0.0, 0.0, 1.645921798669585E9, 0.0, 2022-02-27 11:29:58.669
132.0, -1436.8818923094145, -4671.894570814917, -1883.7379674599133, -10232.896832573037, -488.11739541499566, 102.39334134976166, -5474.992749094099, -1676.2914271702084, -2820.6560397930193, -6327.9129657641615, -4227.36307708777, -3060.914940943115, -3488.7720333066027, -2444.945567243763, -9762.973757144662, -15316.398777532433, 0.01, -0.10400000000000001, 0.99, 192.0, 0.0, 0.0, 0.0, 0.0, 0.0, 0.0, 0.0, 0.0, 0.0, 1.645921798683759E9, 0.0, 2022-02-27 11:29:58.683
134.0, -693.8875548705524, -4095.0854534012624, -1322.3068502315105, -9626.114025844816, 208.92175542375512, 596.0092659007628, -5135.626213029172, -1284.2194776796673, -1935.2810901738515, -5489.61078996787, -3847.1822556474517, -2835.98933648936, -3141.6717936601394, -2044.871693238222, -9423.204889679539, -14506.103337538641, 0.01, -0.10400000000000001, 0.99, 192.0, 0.0, 0.0, 0.0, 0.0, 0.0, 0.0, 0.0, 0.0, 0.0, 1.645921798691116E9, 0.0, 2022-02-27 11:29:58.691
136.0, -1349.285405789066, -4618.786825989107, -1854.524237456827, -10205.560649104196, -409.64042063241254, 109.43414085318338, -5567.90895079481, -1809.396065401562, -4369.944854968173, -6545.462494547665, -4010.1711762155505, -3062.054879910336, -3176.071128376857, -2250.1948178046728, -9893.463241274743, -15781.672690114105, 0.01, -0.106, 0.986, 192.0, 0.0, 40.0, 126.0, 88.0, 15.0, 104.0, 0.0, 0.0, 0.0, 1.645921798699223E9, 0.0, 2022-02-27 11:29:58.699
138.0, -1079.0304635799484, -4392.944800012684, -1591.3995017289521, -9912.194003128292, -144.70519360365793, 367.70854803425647, -5251.452952796573, -1387.573944041007, -1386.1881358847781, -5645.268338354628, -4090.4362905545586, -2894.4838517288986, -3415.905346382302, -2283.364806576348, -9462.543959920878, -14522.151890057552, 0.01, -0.106, 0.986, 192.0, 0.0, 0.0, 0.0, 0.0, 0.0, 0.0, 0.0, 0.0, 0.0, 1.645921798706308E9, 0.0, 2022-02-27 11:29:58.706
140.0, -800.2148032444481, -4180.312655009348, -1458.093697797501, -9764.851303678906, 80.98037016157748, 466.01152014869695, -5331.762770624491, -1532.2120824112992, -3578.3578250834735, -6005.936086885463, -3789.9841415863207, -2911.270011814834, -2991.2222017314675, -2042.6812222816018, -9662.39090709578, -15204.885924444907, 0.01, -0.106, 0.986, 192.0, 0.0, 0.0, 0.0, 0.0, 0.0, 0.0, 0.0, 0.0, 0.0, 1.645921798713942E9, 0.0, 2022-02-27 11:29:58.713
142.0, -1423.2696799361324, -4651.1298002159365, -1892.1869268640194, -10233.522681417786, -497.9074594864201, 101.32045761590692, -5499.557316250482, -1670.859953267569, -2862.3643949466223, -6334.529082122932, -4234.895614969208, -3056.489295540964, -3493.443547897762, -2459.429497650802, -9771.93680667124, -15329.385141060966, 0.01, -0.106, 0.986, 192.0, 0.0, 0.0, 0.0, 0.0, 0.0, 0.0, 0.0, 0.0, 0.0, 1.645921798721881E9, 0.0, 2022-02-27 11:29:58.721
144.0, -635.3483361421032, -4024.4762926669473, -1325.391390966343, -9621.822490909397, 188.17933656923017, 592.6118007435562, -5147.316175379297, -1289.5391928600304, -1889.102386129187, -5456.530208174016, -3833.5700432741696, -2805.993295430338, -3148.2208547855444, -2051.0407747078866, -9427.608183337234, -14501.320064225205, 0.01, -0.106, 0.986, 192.0, 0.0, 0.0, 0.0, 0.0, 0.0, 0.0, 0.0, 0.0, 0.0, 1.645921798729878E9, 0.0, 2022-02-27 11:29:58.729
146.0, -1256.8832942108268, -4538.901691305839, -1848.4669147094387, -10190.45086985241, -418.7599323701778, 113.18923392167497, -5582.705805624224, -1816.302754438252, -4337.221901085603, -6535.225395587135, -3982.387957857604, -3036.4621325090093, -3171.1537445966896, -2284.705911243667, -9893.396186041378, -15785.673652371604, 0.012, -0.1, 0.986, 192.0, 0.0, 48.0, 126.0, 112.0, 15.0, 104.0, 0.0, 0.0, 0.0, 1.645921798736124E9, 0.0, 2022-02-27 11:29:58.736
148.0, -973.1278983507036, -4298.0616447999055, -1581.9447138243574, -9901.174593111826, -149.62257738382547, 369.45198410177045, -5273.0447379403995, -1387.2610196186329, -1333.192149781245, -5634.2712800826175, -4059.747345417422, -2869.963988061427, -3411.77027365807, -2268.791469191488, -9459.057087785852, -14523.02360809131, 0.012, -0.1, 0.986, 192.0, 0.0, 0.0, 0.0, 0.0, 0.0, 0.0, 0.0, 0.0, 0.0, 1.645921798743414E9, 0.0, 2022-02-27 11:29:58.743
150.0, -676.6320081510554, -4067.637511210145, -1439.608805132962, -9745.673506936253, 73.47018402459432, 469.78896496164384, -5369.537218753961, -1547.2101029408102, -3523.059609301044, -5955.5329031387455, -3751.628548101014, -2868.0864415271813, -2991.4233674315656, -2032.3323645987946, -9667.263587387037, -15206.942284934794, 0.012, -0.1, 0.986, 192.0, 0.0, 0.0, 0.0, 0.0, 0.0, 0.0, 0.0, 0.0, 0.0, 1.645921798751503E9, 0.0, 2022-02-27 11:29:58.751
152.0, -1311.6674198707844, -4545.383697197878, -1881.905124414578, -10227.353599948121, -494.0182559511967, 95.53135580198239, -5483.508763731571, -1688.406072664985, -2821.1030746821257, -6296.665227015642, -4193.522535982434, -3017.753722399917, -3483.9440565042564, -2452.5675121030226, -9776.921245684773, -15343.980830190281, 0.012, -0.1, 0.986, 192.0, 0.0, 0.0, 0.0, 0.0, 0.0, 0.0, 0.0, 0.0, 0.0, 1.645921798759407E9, 0.0, 2022-02-27 11:29:58.759
154.0, -544.2873292311823, -3943.227701571906, -1317.7247426181725, -9621.71073218712, 190.92860113723293, 586.3533122960702, -5147.047954445834, -1271.68014904024, -1818.4038184170508, -5416.274716410007, -3798.7683771572565, -2785.474394020366, -3139.6824884036173, -2048.895007240177, -9417.795767521355, -14501.521229925303, 0.012, -0.1, 0.986, 192.0, 0.0, 0.0, 0.0, 0.0, 0.0, 0.0, 0.0, 0.0, 0.0, 1.645921798766148E9, 0.0, 2022-02-27 11:29:58.766
156.0, -1144.65518530073, -4415.520061912544, -1828.0150685328329, -10168.277939352743, -403.0019525291863, 124.7003823161581, -5618.960335130731, -1827.4339231769948, -4300.386226223258, -6504.000008583071, -3941.2160445709283, -3000.5205274248756, -3158.05562234588, -2255.5815882184015, -9894.3349593085, -15783.55023664835, 0.01, -0.10400000000000001, 0.99, 192.0, 0.0, 40.0, 126.0, 96.0, 15.0, 120.0, 0.0, 0.0, 0.0, 1.64592179877421E9, 0.0, 2022-02-27 11:29:58.774
158.0, -901.6693713270869, -4210.263992579459, -1581.698844635349, -9899.408805299856, -151.74599310707964, 359.59486479698, -5268.954368705078, -1396.7828627565937, -1317.5012251736196, -5585.946808570244, -4030.6230223921566, -2837.509255112321, -3411.546756213517, -2279.83323095241, -9465.404983211158, -14535.54058498628, 0.01, -0.10400000000000001, 0.99, 192.0, 0.0, 0.0, 0.0, 0.0, 0.0, 0.0, 0.0, 0.0, 0.0, 1.645921798782272E9, 0.0, 2022-02-27 11:29:58.782
160.0, -588.0296931302182, -3971.3461960966824, -1416.5194531106297, -9731.837777118419, 91.88802145576733, 479.06493891059625, -5325.660744388192, -1525.6183177969835, -3449.2317973651648, -5909.667123516456, -3717.9444692068664, -2843.544226115254, -2981.856820804694, -2014.093341123264, -9650.902110445752, -15179.740211932685, 0.01, -0.10400000000000001, 0.99, 192.0, 0.0, 0.0, 0.0, 0.0, 0.0, 0.0, 0.0, 0.0, 0.0, 1.645921798789275E9, 0.0, 2022-02-27 11:29:58.789
162.0, -1244.612186504863, -4480.36247257739, -1873.076185354732, -10223.196175479434, -502.5789740775793, 83.61787600730372, -5522.669020017269, -1708.3214769746635, -2865.1583630035357, -6299.302732861368, -4162.766535611932, -2997.3242279677665, -3470.153030175332, -2445.81728527752, -9778.5082195411, -15371.09349621457, 0.01, -0.10400000000000001, 0.99, 192.0, 0.0, 0.0, 0.0, 0.0, 0.0, 0.0, 0.0, 0.0, 0.0, 1.645921798803882E9, 0.0, 2022-02-27 11:29:58.803
164.0, -485.34577910253756, -3880.5757618636803, -1308.8287483249603, -9613.23942103856, 184.06661558945365, 575.6244749575228, -5176.619312360205, -1293.6519138398069, -1750.9909571398446, -5397.298085367452, -3782.585714171614, -2750.8738936035506, -3143.8622646167596, -2065.569408603836, -9421.595564078756, -14495.933293811477, 0.01, -0.10400000000000001, 0.99, 192.0, 0.0, 0.0, 0.0, 0.0, 0.0, 0.0, 0.0, 0.0, 0.0, 1.6459217988118E9, 0.0, 2022-02-27 11:29:58.811
166.0, -1102.7680161914845, -4369.520171823522, -1824.5952516311709, -10176.279863867745, -408.03109503163046, 105.74610301805771, -5590.1936400167515, -1825.6234318761149, -4274.704071844109, -6477.736708848084, -3920.9206606055095, -2997.0113035453924, -3154.8593228887707, -2256.989748119086, -9891.116308106937, -15780.018661024413, 0.014, -0.11, 0.994, 192.0, 0.0, 56.0, 126.0, 72.0, 15.5, 8.0, 0.0, 0.0, 0.0, 1.645921798819023E9, 0.0, 2022-02-27 11:29:58.819
168.0, -859.3351673287353, -4173.942407839586, -1574.4345276873742, -9902.850973945973, -147.20858898265232, 353.0905071604857, -5257.80084822188, -1408.249307662166, -1301.095044743424, -5582.012901546109, -4019.93888854252, -2832.70363005443, -3409.088064323433, -2284.2141728656497, -9463.147457021172, -14539.720361199423, 0.014, -0.11, 0.994, 192.0, 0.0, 0.0, 0.0, 0.0, 0.0, 0.0, 0.0, 0.0, 0.0, 1.645921798826366E9, 0.0, 2022-02-27 11:29:58.826
170.0, -548.5341606776906, -3932.9011956335544, -1416.4076943883533, -9725.176957270736, 101.38751284927284, 461.58587474654615, -5315.960087294589, -1533.3296696340644, -3434.8819774248577, -5881.146297591484, -3707.68501850188, -2830.6472695645416, -2974.3913381566213, -2027.414980818627, -9647.14701737726, -15179.76256367714, 0.014, -0.11, 0.994, 192.0, 0.0, 0.0, 0.0, 0.0, 0.0, 0.0, 0.0, 0.0, 0.0, 1.645921798834459E9, 0.0, 2022-02-27 11:29:58.834
172.0, -1209.2070232876567, -4437.491826712111, -1876.0936708561983, -10218.614067866096, -503.98713397826367, 93.47499531209414, -5523.294868862017, -1675.531467858728, -2828.8144265192063, -6277.800354695363, -4151.411849428636, -2991.669236620574, -3473.4834400991726, -2442.755096287143, -9776.965949173684, -15363.762124033228, 0.014, -0.11, 0.994, 192.0, 0.0, 0.0, 0.0, 0.0, 0.0, 0.0, 0.0, 0.0, 0.0, 1.645921798841518E9, 0.0, 2022-02-27 11:29:58.841
174.0, -445.9620053722865, -3834.2852990967394, -1305.9006698013152, -9604.455185467623, 185.69829293469107, 588.9237629084305, -5177.043995504856, -1289.4721376266643, -1762.010367156311, -5398.438024334672, -3761.4186121724383, -2737.35108820809, -3131.7923226108937, -2048.6938415400796, -9426.669410070112, -14492.759346098823, 0.014, -0.11, 0.994, 192.0, 0.0, 0.0, 0.0, 0.0, 0.0, 0.0, 0.0, 0.0, 0.0, 1.645921798849068E9, 0.0, 2022-02-27 11:29:58.849
176.0, -1063.563056416876, -4325.241366057559, -1816.8391963051793, -10154.039878134714, -385.25466743167254, 116.58669907888164, -5565.003224015621, -1827.2327574768972, -4272.535952631945, -6448.590034078364, -3908.9624773219202, -2976.1347742241355, -3147.2820815184214, -2258.2637975530383, -9890.155183095358, -15782.41029768113, 0.018000000000000002, -0.10400000000000001, 0.99, 192.0, 0.0, 72.0, 126.0, 96.0, 15.0, 120.0, 0.0, 0.0, 0.0, 1.645921798856971E9, 0.0, 2022-02-27 11:29:58.856
178.0, -839.3303560412355, -4126.6237648277, -1581.2518097462428, -9904.952037924772, -161.89368508978905, 344.99917566766453, -5275.346967619296, -1416.2959356660767, -1311.3097919594995, -5575.732061354168, -4019.067170508763, -2816.3198013686897, -3410.1385963128328, -2273.7759082050216, -9468.35541347926, -14552.818483450234, 0.018000000000000002, -0.10400000000000001, 0.99, 192.0, 0.0, 0.0, 0.0, 0.0, 0.0, 0.0, 0.0, 0.0, 0.0, 1.645921798863391E9, 0.0, 2022-02-27 11:29:58.863
180.0, -515.7441515617552, -3894.8361748261664, -1409.702171051761, -9718.784358356519, 95.86663196881199, 472.64998825192316, -5325.9289653216565, -1537.7553150362153, -3388.703273380193, -5853.3407274890815, -3694.117509617509, -2811.4247693329776, -2967.507000864387, -2010.9864486439765, -9644.241290598071, -15167.178531548803, 0.018000000000000002, -0.10400000000000001, 0.99, 192.0, 0.0, 0.0, 0.0, 0.0, 0.0, 0.0, 0.0, 0.0, 0.0, 1.645921798871283E9, 0.0, 2022-02-27 11:29:58.871
182.0, -1190.0515782894586, -4409.887422309807, -1873.746737688391, -10224.067893513191, -505.55175609013514, 78.4769747825831, -5511.627258256347, -1695.2457064683088, -2834.2459004218463, -6268.814953424329, -4142.24763420196, -2981.2309719599452, -3463.380451605374, -2445.1020294549503, -9781.592760275933, -15366.265519412224, 0.018000000000000002, -0.10400000000000001, 0.99, 192.0, 0.0, 0.0, 0.0, 0.0, 0.0, 0.0, 0.0, 0.0, 0.0, 1.645921798879309E9, 0.0, 2022-02-27 11:29:58.879
184.0, -439.6364616914346, -3805.764473171768, -1310.2369082256448, -9612.479461727078, 185.765348168057, 570.0588905881514, -5170.830210546281, -1294.7695010625723, -1742.4078872690068, -5372.554704255427, -3763.5867313846034, -2761.379213497545, -3137.871997102737, -2064.317710914339, -9425.931802503086, -14490.7700408423, 0.015000000000000001, -0.10500000000000001, 0.989, 192.0, 0.0, 48.0, 126.0, 88.0, 15.0, 112.0, 0.0, 0.0, 0.0, 1.645921798886725E9, 0.0, 2022-02-27 11:29:58.886
186.0, -1048.073297509348, -4317.708828176121, -1818.6943910949697, -10162.533541027731, -401.9067170508763, 105.07555068439851, -5591.758262128623, -1830.786684845291, -4271.418365409179, -6446.041935210459, -3906.9284685764874, -2970.211561943479, -3147.237378029511, -2249.859541637843, -9894.357311052956, -15779.593977879762, 0.015000000000000001, -0.10500000000000001, 0.989, 192.0, 0.0, 0.0, 0.0, 0.0, 0.0, 0.0, 0.0, 0.0, 0.0, 1.645921798894127E9, 0.0, 2022-02-27 11:29:58.894
188.0, -816.6880389080095, -4109.189404152561, -1584.0234260587008, -9903.655636746364, -175.43884222970513, 336.1702366078182, -5289.674435815148, -1427.605918360462, -1290.2097451936895, -5559.750564068623, -4007.9136500255645, -2811.245955377335, -3411.546756213517, -2282.828364709421, -9476.69261416109, -14554.204291606462, 0.015000000000000001, -0.10500000000000001, 0.989, 192.0, 0.0, 0.0, 0.0, 0.0, 0.0, 0.0, 0.0, 0.0, 0.0, 1.645921798902001E9, 0.0, 2022-02-27 11:29:58.902
190.0, -501.2602211547162, -3872.775003048778, -1406.930554739303, -9717.152681011281, 106.43900709617223, 457.78607818914395, -5329.035857800944, -1541.0633732156007, -3372.341796438908, -5859.4427537253805, -3687.63550372547, -2817.3032781247234, -2976.2241812019565, -2032.3770680877053, -9651.349145334858, -15164.76454314763, 0.015000000000000001, -0.10500000000000001, 0.989, 192.0, 0.0, 0.0, 0.0, 0.0, 0.0, 0.0, 0.0, 0.0, 0.0, 1.645921798909806E9, 0.0, 2022-02-27 11:29:58.909
192.0, -1181.267342718523, -4403.15954722876, -1877.166554590053, -10223.374989435077, -511.4973201152468, 69.24570432254129, -5525.507691563093, -1706.5556891626943, -2857.737583844374, -6276.816877939329, -4136.212663199028, -2984.628437117152, -3468.3648906189073, -2457.596654605467, -9792.6121702924, -15385.085688243591, 0.015000000000000001, -0.10500000000000001, 0.989, 192.0, 0.0, 0.0, 0.0, 0.0, 0.0, 0.0, 0.0, 0.0, 0.0, 1.645921798916655E9, 0.0, 2022-02-27 11:29:58.916
194.0, -435.8143133895771, -3801.785862658723, -1312.002696037614, -9619.117929830305, 195.48835700611556, 559.8217916276207, -5134.5756810397725, -1292.0649399834801, -1714.3117444886857, -5371.079489121376, -3763.2961587066843, -2747.7222976353523, -3143.974023339036, -2062.6860335691017, -9419.382741377682, -14481.784639571268, 0.0105, -0.10550000000000001, 0.9875, 192.0, 0.0, 24.0, 126.0, 88.0, 15.0, 104.0, 0.0, 0.0, 0.0, 1.645921798931778E9, 0.0, 2022-02-27 11:29:58.931
196.0, -1035.6010241032868, -4290.909086574207, -1814.8051875597464, -10153.145808356501, -385.8581645319658, 101.16399540471977, -5581.744680612645, -1837.201635503964, -4270.770164819975, -6441.817455508406, -3891.751634091334, -2981.4544894044984, -3138.0508110583796, -2249.3901550042815, -9883.941398136783, -15779.392812179663, 0.0105, -0.10550000000000001, 0.9875, 192.0, 0.0, 0.0, 0.0, 0.0, 0.0, 0.0, 0.0, 0.0, 0.0, 1.645921798938907E9, 0.0, 2022-02-27 11:29:58.938
198.0, -831.8872251376182, -4124.366238637715, -1592.986475585279, -9913.4904043067, -172.19783928368562, 331.0293353830976, -5282.432470611629, -1411.9149937528366, -1300.8491755544158, -5581.945846312743, -4008.092463981207, -2815.246917634835, -3412.798453903014, -2299.7709870065437, -9474.792715882388, -14565.156646389563, 0.0105, -0.10550000000000001, 0.9875, 192.0, 0.0, 0.0, 0.0, 0.0, 0.0, 0.0, 0.0, 0.0, 0.0, 1.645921798946246E9, 0.0, 2022-02-27 11:29:58.946
200.0, -499.8967647429425, -3874.2502181828286, -1406.4611681057415, -9712.615276886854, 112.31751588791799, 469.6995579838226, -5302.549040621405, -1512.4978438017183, -3341.5634443239505, -5852.737230388789, -3682.695768200847, -2809.122539654081, -2971.217390443968, -2028.867844208222, -9638.206319595138, -15146.95020281675, 0.0105, -0.10550000000000001, 0.9875, 192.0, 0.0, 0.0, 0.0, 0.0, 0.0, 0.0, 0.0, 0.0, 0.0, 1.645921798954201E9, 0.0, 2022-02-27 11:29:58.954
202.0, -1196.041845803481, -4407.87576530883, -1889.4153105515613, -10234.64026864055, -512.4137416379144, 63.74717518653574, -5519.383313582339, -1723.5877184376382, -2919.1378258631025, -6303.728378263519, -4130.110636962729, -3003.694475137529, -3453.791553234047, -2456.568474360523, -9794.199144148724, -15412.578333923619, 0.0105, -0.10550000000000001, 0.9875, 192.0, 0.0, 0.0, 0.0, 0.0, 0.0, 0.0, 0.0, 0.0, 0.0, 1.64592179896234E9, 0.0, 2022-02-27 11:29:58.962
204.0, -464.268084081183, -3832.2736420957617, -1328.744152634639, -9624.102368843838, 173.7848131400124, 562.2804835177045, -5157.553274339828, -1308.1581959913012, -1681.946418517401, -5389.586733530371, -3769.5769988986253, -2766.542466466721, -3148.7796483969273, -2079.4945453994924, -9419.71801754451, -14481.67288084899, 0.01025, -0.10675000000000001, 0.98775, 192.0, 0.0, 40.0, 126.0, 80.0, 15.0, 112.0, 0.0, 0.0, 0.0, 1.645921798968897E9, 0.0, 2022-02-27 11:29:58.968
206.0, -1082.6961496706188, -4334.338526050869, -1828.2385859773858, -10164.165218372968, -391.5578593680691, 105.23201289558565, -5587.623189404391, -1845.27061525233, -4284.024749281973, -6449.282938156479, -3895.596134137647, -2988.092957507725, -3133.245186000489, -2252.787620161488, -9890.088127861993, -15778.968129035013, 0.01025, -0.10675000000000001, 0.98775, 192.0, 0.0, 0.0, 0.0, 0.0, 0.0, 0.0, 0.0, 0.0, 0.0, 1.645921798976854E9, 0.0, 2022-02-27 11:29:58.976
208.0, -927.9550228065281, -4201.3232947973365, -1616.6122694745386, -9929.20368065878, -176.98111259712132, 326.9166144033211, -5267.948540204589, -1413.121987953423, -1341.1717225517896, -5604.9234396127995, -4038.5355399293353, -2868.9805113053935, -3424.6225267198715, -2313.383199379826, -9481.028852585418, -14566.587158034703, 0.01025, -0.10675000000000001, 0.98775, 192.0, 0.0, 0.0, 0.0, 0.0, 0.0, 0.0, 0.0, 0.0, 0.0, 1.645921798983904E9, 0.0, 2022-02-27 11:29:58.983
210.0, -620.4397225904135, -4006.930173269531, -1420.9450985127805, -9723.902907836784, 123.4263328822056, 477.5450202876354, -5293.407177139185, -1504.6523814979055, -3379.3602441978746, -5888.254152328272, -3723.9123849764333, -2851.702612841441, -2984.159050483591, -2050.124353185219, -9635.188834093671, -15139.082388768482, 0.01025, -0.10675000000000001, 0.98775, 192.0, 0.0, 0.0, 0.0, 0.0, 0.0, 0.0, 0.0, 0.0, 0.0, 1.645921798991891E9, 0.0, 2022-02-27 11:29:58.991
212.0, -1364.1046123629346, -4586.399148273367, -1908.61545903867, -10245.950251334936, -495.0687879405961, 78.85695443832331, -5503.401816296794, -1684.4274621519403, -2965.0706607187585, -6343.805056071885, -4179.73150965351, -3043.3017663123333, -3462.1734574047873, -2469.688948355788, -9788.655911523809, -15401.00013029577, 0.01025, -0.10675000000000001, 0.98775, 192.0, 0.0, 0.0, 0.0, 0.0, 0.0, 0.0, 0.0, 0.0, 0.0, 1.645921798998467E9, 0.0, 2022-02-27 11:29:58.998
214.0, -665.0761562676616, -4047.2527202669053, -1349.4642197447085, -9644.084828386884, 199.98105764163228, 575.6244749575228, -5110.01111388339, -1260.034890179025, -1761.6750909894815, -5455.233806995608, -3827.1550926154964, -2832.3012986542344, -3145.3821832397207, -2085.3283507023275, -9408.273924383393, -14468.77592429828, 0.014125000000000002, -0.106375, 0.9878750000000001, 192.0, 0.0, 72.0, 126.0, 88.0, 15.0, 112.0, 0.0, 0.0, 0.0, 1.645921799006524E9, 0.0, 2022-02-27 11:29:59.006
216.0, -1280.1738119332567, -4535.459522659722, -1841.3814117171064, -10165.819247462661, -352.37525133791587, 138.6255191118144, -5530.067447431976, -1778.30478886423, -4384.048805719472, -6534.420732786743, -3970.3403675961936, -3081.2773801419, -3138.9001773476816, -2264.6563964672564, -9875.76065966614, -15761.444361382051, 0.014125000000000002, -0.106375, 0.9878750000000001, 192.0, 0.0, 0.0, 0.0, 0.0, 0.0, 0.0, 0.0, 0.0, 0.0, 1.645921799014584E9, 0.0, 2022-02-27 11:29:59.014
218.0, -1135.55802530742, -4415.20713749017, -1652.1962466473874, -9953.321212926056, -179.55156320948163, 337.9360244197875, -5255.27510109843, -1397.5204703236188, -1456.417316963353, -5678.840658526499, -4112.363351865215, -2932.5488725362866, -3435.0160878915895, -2320.9604407501747, -9481.20766654106, -14580.691108786, 0.014125000000000002, -0.106375, 0.9878750000000001, 192.0, 0.0, 0.0, 0.0, 0.0, 0.0, 0.0, 0.0, 0.0, 0.0, 1.645921799021189E9, 0.0, 2022-02-27 11:29:59.021
220.0, -771.0234249858171, -4156.150419253161, -1436.6807266093167, -9724.305239236981, 136.83737955538984, 503.5400990891575, -5271.658929784171, -1479.1043375854895, -3390.960799570179, -5906.962562437363, -3768.638225631503, -2919.67426773003, -2986.528335395853, -2033.159379143641, -9622.62715370979, -15101.866734250396, 0.014125000000000002, -0.106375, 0.9878750000000001, 192.0, 0.0, 0.0, 0.0, 0.0, 0.0, 0.0, 0.0, 0.0, 0.0, 1.645921799029134E9, 0.0, 2022-02-27 11:29:59.029
222.0, -1469.738956658716, -4692.435823969344, -1928.486159859438, -10251.806408382226, -491.40310184992575, 86.99298942005508, -5485.498068988093, -1704.7675496062698, -3083.3560923762434, -6392.643617706731, -4211.940373413608, -3077.65639754014, -3459.4912480701505, -2450.757020802143, -9795.65200753832, -15419.373264238033, 0.014125000000000002, -0.106375, 0.9878750000000001, 192.0, 0.0, 0.0, 0.0, 0.0, 0.0, 0.0, 0.0, 0.0, 0.0, 1.645921799037145E9, 0.0, 2022-02-27 11:29:59.037
224.0, -721.9166424175075, -4092.7832237223656, -1365.8256966859933, -9646.230595854593, 188.313447035962, 582.8887919054976, -5127.557233280806, -1261.8230297354496, -1753.8743321745792, -5456.731373874113, -3863.3202151441833, -2846.0029180053375, -3166.4151747721644, -2092.615019394758, -9407.983351705474, -14453.442627601939, 0.0160625, -0.10618749999999999, 0.9889375, 192.0, 0.0, 72.0, 126.0, 88.0, 15.0, 120.0, 0.0, 0.0, 0.0, 1.645921799050815E9, 0.0, 2022-02-27 11:29:59.050
226.0, -1277.133974687335, -4525.84827254394, -1846.1423332860868, -10161.3488985716, -358.74549850767835, 143.90053080326686, -5555.123752966375, -1799.2483734188527, -4385.367558642335, -6506.235183028601, -3963.612492515146, -3065.9887869344698, -3139.9507093370808, -2254.508704484547, -9882.332072536, -15754.761189789915, 0.0160625, -0.10618749999999999, 0.9889375, 192.0, 0.0, 0.0, 0.0, 0.0, 0.0, 0.0, 0.0, 0.0, 0.0, 1.645921799058777E9, 0.0, 2022-02-27 11:29:59.058
228.0, -1087.2112020505908, -4353.71748849362, -1650.6763280244265, -9953.63413734843, -179.50685972057101, 341.7805244661003, -5258.493752299995, -1401.677894792306, -1451.2987674830877, -5668.469449099237, -4103.757930249922, -2931.9453754359934, -3438.2123873486985, -2308.9352022332196, -9485.432146243113, -14577.651271540079, 0.0160625, -0.10618749999999999, 0.9889375, 192.0, 0.0, 0.0, 0.0, 0.0, 0.0, 0.0, 0.0, 0.0, 0.0, 1.645921799066899E9, 0.0, 2022-02-27 11:29:59.066
230.0, -697.0167990942955, -4067.7269181879665, -1437.0830580095123, -9715.722169366141, 133.10463823135356, 510.71500905931106, -5282.231304911531, -1478.9702271187577, -3365.859790546869, -5878.911123145953, -3748.5663591106368, -2916.120340361636, -2987.824736574261, -2034.1652076441299, -9625.91286014472, -15103.543115084543, 0.0160625, -0.10618749999999999, 0.9889375, 192.0, 0.0, 0.0, 0.0, 0.0, 0.0, 0.0, 0.0, 0.0, 0.0, 1.645921799074112E9, 0.0, 2022-02-27 11:29:59.074
232.0, -1380.421385815309, -4595.831584433507, -1930.877796516156, -10245.883196101571, -504.0541892116296, 88.15528013173106, -5532.660249788792, -1709.8413955976243, -3066.7487462459503, -6369.68837615113, -4197.165870328649, -3052.331871072277, -3466.464992340206, -2463.9669017752294, -9806.023216965583, -15420.62496192753, 0.0160625, -0.10618749999999999, 0.9889375, 192.0, 0.0, 0.0, 0.0, 0.0, 0.0, 0.0, 0.0, 0.0, 0.0, 1.645921799081404E9, 0.0, 2022-02-27 11:29:59.081
234.0, -625.1782924149386, -4008.1818709590284, -1367.189153097767, -9643.615441753322, 179.1492318092861, 569.522448721224, -5129.166558881589, -1280.3526258888992, -1719.3855904800405, -5436.905376542256, -3829.3455635721166, -2809.8377954766506, -3170.147916096201, -2099.477004942537, -9415.784110520377, -14459.321136393684, 0.01603125, -0.10609374999999999, 0.98846875, 192.0, 0.0, 64.0, 126.0, 88.0, 15.0, 112.0, 0.0, 0.0, 0.0, 1.645921799089561E9, 0.0, 2022-02-27 11:29:59.089
236.0, -1165.5764181108973, -4423.767855616553, -1840.1073622831539, -10152.139979856012, -365.1828009108068, 136.01036501054347, -5560.868151291389, -1807.1161874671207, -4353.136343137782, -6476.485011158587, -3934.0187828563194, -3027.052048093325, -3137.246148257989, -2248.272567781516, -9884.05315685906, -15762.763114304915, 0.01603125, -0.10609374999999999, 0.98846875, 192.0, 0.0, 0.0, 0.0, 0.0, 0.0, 0.0, 0.0, 0.0, 0.0, 1.64592179909749E9, 0.0, 2022-02-27 11:29:59.097
238.0, -988.4388433025889, -4256.599158835311, -1645.5577785441612, -9948.381477401434, -184.08896733390895, 336.01377439663105, -5268.32851986033, -1417.99466824468, -1405.5223948386188, -5645.178931376807, -4071.482011256458, -2902.3963692660773, -3437.7206489706814, -2330.862263543876, -9484.269855531438, -14588.849495512188, 0.01603125, -0.10609374999999999, 0.98846875, 192.0, 0.0, 0.0, 0.0, 0.0, 0.0, 0.0, 0.0, 0.0, 0.0, 1.645921799103693E9, 0.0, 2022-02-27 11:29:59.103
240.0, -586.9344576519081, -3967.3675855836377, -1422.2414996911884, -9706.580305883921, 134.91512953223344, 507.71987530229995, -5295.888220773723, -1512.4531403128076, -3315.5236620335177, -5844.131808773495, -3720.6713820304135, -2875.2613514973345, -2984.0025882724035, -2044.5364170713924, -9623.230650810081, -15106.22532441918, 0.01603125, -0.10609374999999999, 0.98846875, 192.0, 0.0, 0.0, 0.0, 0.0, 0.0, 0.0, 0.0, 0.0, 0.0, 1.645921799111072E9, 0.0, 2022-02-27 11:29:59.111
242.0, -1287.1252044588573, -4505.776406023074, -1920.908918489089, -10249.303013003233, -511.653782326434, 85.7859952194685, -5524.367752595872, -1706.8015583517026, -3050.588435004763, -6345.436733417122, -4157.446820431569, -3036.596242975741, -3451.5340270440615, -2459.273035439615, -9806.313789643502, -15441.143863337502, 0.01603125, -0.10609374999999999, 0.98846875, 192.0, 0.0, 0.0, 0.0, 0.0, 0.0, 0.0, 0.0, 0.0, 0.0, 1.645921799119212E9, 0.0, 2022-02-27 11:29:59.119
244.0, -530.7645238357215, -3899.172413250496, -1351.7888011680604, -9633.154825348238, 170.94614159418842, 580.8547831600646, -5136.967317696491, -1281.358454389388, -1661.7404415298035, -5388.06681490741, -3806.7032464388903, -2794.415091802489, -3172.114869608268, -2079.159269232663, -9412.945438974553, -14453.33086887966, 0.017015625, -0.104046875, 0.988234375, 192.0, 0.0, 72.0, 126.0, 104.0, 15.0, 112.0, 0.0, 0.0, 0.0, 1.645921799126348E9, 0.0, 2022-02-27 11:29:59.126
