%OpenBCI Raw EEG Data
%Number of channels = 16
%Sample Rate = 125 Hz
%Board = OpenBCI_GUI$BoardCytonSerialDaisy
Sample Index, EXG Channel 0, EXG Channel 1, EXG Channel 2, EXG Channel 3, EXG Channel 4, EXG Channel 5, EXG Channel 6, EXG Channel 7, EXG Channel 8, EXG Channel 9, EXG Channel 10, EXG Channel 11, EXG Channel 12, EXG Channel 13, EXG Channel 14, EXG Channel 15, Accel Channel 0, Accel Channel 1, Accel Channel 2, Other, Other, Other, Other, Other, Other, Other, Analog Channel 0, Analog Channel 1, Analog Channel 2, Timestamp, Other, Timestamp (Formatted)
200.0, -1864.135487572609, -4953.794771885249, -2295.367693348848, -10704.540992324472, -1220.807578659961, -192.3591127823726, -5848.088067542085, -2059.288568411895, -3832.720676984868, -7238.970069762478, -4530.22921445718, -3160.5813694693293, -4081.026206138874, -3131.881729588715, -10303.304827607255, -15539.335076729665, 0.0, 0.0, 0.0, 192.0, 0.0, 0.0, 0.0, 0.0, 0.0, 0.0, 0.0, 0.0, 0.0, 1.645921485989719E9, 0.0, 2022-02-27 11:24:45.989
0.0, -930.1454937631481, -2462.1564104743493, -1144.6328335562746, -5363.166971584198, -591.941248409897, -115.31264964492914, -2972.044404988814, -1095.9954376215264, -1845.9858710748997, -3357.5002381205845, -2094.9396008181097, -1494.504689515196, -1859.0169380923437, -1400.7614732696384, -5055.316395201254, -7572.614559246846, 0.007, -0.056, 0.491, 192.0, 0.0, 56.0, 126.0, 64.0, 15.0, 88.0, 0.0, 0.0, 0.0, 1.645921486085541E9, 0.0, 2022-02-27 11:24:46.085
2.0, -1836.1958070034752, -4891.142832177024, -2193.3096281659164, -10616.497470915017, -1121.1187983892917, -140.7936383239792, -5720.37019972446, -1880.3405023027067, -2323.374429151348, -6815.449215823319, -4651.040393238115, -3098.9352582615925, -4218.601193261289, -3188.8563262052926, -10101.826203087116, -14949.047857409461, 0.007, -0.056, 0.491, 192.0, 0.0, 0.0, 0.0, 0.0, 0.0, 0.0, 0.0, 0.0, 0.0, 1.645921486092975E9, 0.0, 2022-02-27 11:24:46.092
4.0, -1127.846673470339, -4347.928386679696, -1710.6460583980154, -10098.249923974266, -496.8345757525654, 320.94869863375413, -5479.664263685258, -1617.3722287860191, -2665.1549536174484, -6362.178190014147, -4229.017106177462, -2939.567320295253, -3772.3709669555387, -2800.0700831496815, -9964.765306087173, -14676.088354121252, 0.007, -0.056, 0.491, 192.0, 0.0, 0.0, 0.0, 0.0, 0.0, 0.0, 0.0, 0.0, 0.0, 1.645921486099695E9, 0.0, 2022-02-27 11:24:46.099
6.0, -1950.3685176811837, -4991.748033970361, -2320.2228331831498, -10759.45922845116, -1251.3400615859107, -261.47070663818204, -5900.122928634039, -2106.026066067942, -4295.714711632098, -7335.619012787225, -4546.277766976091, -3186.3529308262982, -4019.3130396977713, -3140.2859855039105, -10362.358136458175, -15722.977009174469, 0.007, -0.056, 0.491, 192.0, 0.0, 0.0, 0.0, 0.0, 0.0, 0.0, 0.0, 0.0, 0.0, 1.645921486107788E9, 0.0, 2022-02-27 11:24:46.107
8.0, -1402.191984914778, -4556.6266246588975, -1882.4639180259608, -10269.643100457562, -732.9584041784292, 166.02875781402085, -5514.42122631326, -1607.8503856480581, -1520.8573962280032, -6227.911261071117, -4426.517120184555, -2947.2116168989683, -4031.9417753150196, -2953.4030501130883, -9871.782049153097, -14361.353440446073, 0.008, -0.12, 0.99, 192.0, 0.0, 32.0, 126.0, 32.0, 15.0, 120.0, 0.0, 0.0, 0.0, 1.645921486115747E9, 0.0, 2022-02-27 11:24:46.115
10.0, -1448.8847790819143, -4606.247497349679, -1981.191573285052, -10392.935322873036, -802.2711637343364, 64.99887287603293, -5747.66167970439, -1930.0060784823988, -4330.337563793369, -6969.095107209099, -4259.169609447671, -3059.4173740646097, -3728.3603821230395, -2849.8250663071954, -10240.831701854671, -15454.018468143759, 0.008, -0.12, 0.99, 192.0, 0.0, 0.0, 0.0, 0.0, 0.0, 0.0, 0.0, 0.0, 0.0, 1.645921486122746E9, 0.0, 2022-02-27 11:24:46.122
12.0, -1854.4795339679163, -4907.012570740291, -2206.6536196057345, -10634.9600118351, -1142.688231788663, -158.8985513327779, -5732.507196963692, -1884.0508918822877, -2433.9708607162074, -6842.5842335920615, -4655.376631662444, -3113.977982280014, -4224.434998564124, -3201.976800200558, -10118.1876800284, -14994.82423005393, 0.008, -0.12, 0.99, 192.0, 0.0, 0.0, 0.0, 0.0, 0.0, 0.0, 0.0, 0.0, 0.0, 1.64592148613026E9, 0.0, 2022-02-27 11:24:46.130
14.0, -1128.0701909148922, -4350.856465203341, -1712.858881099091, -10102.608514143052, -494.91232572940896, 317.7971026655558, -5482.994673609099, -1610.5325949826952, -2584.263990433692, -6342.866282804762, -4233.6662690241665, -2938.0697534167475, -3785.93847583991, -2790.9282196674612, -9953.008288503683, -14639.543251936824, 0.008, -0.12, 0.99, 192.0, 0.0, 0.0, 0.0, 0.0, 0.0, 0.0, 0.0, 0.0, 0.0, 1.645921486138305E9, 0.0, 2022-02-27 11:24:46.138
16.0, -1946.4569624015048, -4984.371958300109, -2322.2344901841275, -10759.191007517697, -1241.6394044923072, -257.06741298048655, -5903.296876346693, -2104.5955544228023, -4326.202491069137, -7345.565539069837, -4545.718973364708, -3192.4326053181417, -4008.1595192145733, -3126.137331263701, -10365.465028937464, -15720.294799839832, 0.01, -0.118, 0.992, 192.0, 0.0, 48.0, 126.0, 48.0, 15.5, 8.0, 0.0, 0.0, 0.0, 1.645921486151881E9, 0.0, 2022-02-27 11:24:46.151
18.0, -1401.6555430478506, -4551.239854245169, -1884.520278515849, -10281.51187676333, -737.9875466808733, 163.77123162403484, -5535.744790523624, -1626.3352783125972, -1510.1956141228218, -6244.138627545671, -4435.703687155687, -2955.9735007254485, -4036.836807350732, -2952.911311735071, -9876.990005611182, -14359.095914256086, 0.01, -0.118, 0.992, 192.0, 0.0, 0.0, 0.0, 0.0, 0.0, 0.0, 0.0, 0.0, 0.0, 1.645921486159915E9, 0.0, 2022-02-27 11:24:46.159
20.0, -1432.7244678407274, -4594.535183255099, -1977.034148816365, -10391.705976927993, -802.5617364122554, 70.67621596768093, -5747.2146448152835, -1938.9020727756113, -4291.065548785395, -6941.736571995803, -4248.060792453384, -3055.595225762752, -3716.0222191837097, -2838.1127522126144, -10238.30595473122, -15439.668648203451, 0.01, -0.118, 0.992, 192.0, 0.0, 0.0, 0.0, 0.0, 0.0, 0.0, 0.0, 0.0, 0.0, 1.645921486168915E9, 0.0, 2022-02-27 11:24:46.168
22.0, -1842.7001646399694, -4899.390625881031, -2209.402884173737, -10630.087331543844, -1146.1751039236908, -153.5341326635042, -5736.306993521094, -1877.9935691348994, -2414.591898273456, -6836.1916346778435, -4655.667204340363, -3104.2102699530446, -4217.483606038524, -3186.129413381745, -10117.718293394839, -14987.649320083776, 0.01, -0.118, 0.992, 192.0, 0.0, 0.0, 0.0, 0.0, 0.0, 0.0, 0.0, 0.0, 0.0, 1.645921486175028E9, 0.0, 2022-02-27 11:24:46.175
24.0, -1122.526958289976, -4349.090677391372, -1714.62466891106, -10095.746528595273, -505.4176456234033, 310.7786549065894, -5480.491278230104, -1606.6880949363822, -2572.886952505941, -6324.739018051508, -4233.554510301889, -2940.3496313511887, -3791.437004975916, -2785.966132398383, -9957.053954250092, -14636.414007713081, 0.01, -0.118, 0.992, 192.0, 0.0, 0.0, 0.0, 0.0, 0.0, 0.0, 0.0, 0.0, 0.0, 1.645921486182534E9, 0.0, 2022-02-27 11:24:46.182
26.0, -1926.9885929809325, -4976.213571573922, -2314.6125453248674, -10751.993745803089, -1244.4333725492206, -270.6349218648579, -5913.243402629305, -2132.7140489475787, -4344.5756250114, -7337.7647802549345, -4529.536310379066, -3183.9165906806697, -4000.9175540110537, -3112.726284590517, -10369.465991194964, -15733.191756390544, 0.011, -0.11199999999999999, 0.992, 192.0, 0.0, 48.0, 126.0, 88.0, 15.5, 0.0, 0.0, 0.0, 0.0, 1.645921486190506E9, 0.0, 2022-02-27 11:24:46.190
28.0, -1416.0500664770684, -4568.964787598227, -1884.9896651494105, -10290.743147223371, -751.4209450985128, 131.316498674929, -5535.275403890062, -1636.6394325064937, -1493.7223784592604, -6252.4311247385895, -4439.101152312894, -2956.465239103465, -4040.547196930313, -2966.188247941524, -9878.979310867704, -14372.641071396003, 0.011, -0.11199999999999999, 0.992, 192.0, 0.0, 0.0, 0.0, 0.0, 0.0, 0.0, 0.0, 0.0, 0.0, 1.645921486198546E9, 0.0, 2022-02-27 11:24:46.198
30.0, -1427.9188427828365, -4587.404976773855, -1961.8796660756668, -10383.882866368636, -793.2187072299371, 51.09608782483195, -5747.460514004292, -1973.2120005145075, -4261.181266448649, -6936.193339370888, -4249.64776630971, -3054.522342028897, -3718.123283162509, -2847.9475197729494, -10227.487710414853, -15428.917459120448, 0.011, -0.11199999999999999, 0.992, 192.0, 0.0, 0.0, 0.0, 0.0, 0.0, 0.0, 0.0, 0.0, 0.0, 1.645921486204761E9, 0.0, 2022-02-27 11:24:46.204
32.0, -1860.849781137679, -4918.188442967945, -2209.089959751363, -10644.861834628802, -1160.8602000308276, -183.06078708896484, -5762.52558976717, -1891.5610780192708, -2454.668576081822, -6872.423812439896, -4658.774096819651, -3115.050866013869, -4221.9316031851295, -3204.949582213114, -10125.183776042912, -15018.740596621108, 0.011, -0.11199999999999999, 0.992, 192.0, 0.0, 0.0, 0.0, 0.0, 0.0, 0.0, 0.0, 0.0, 0.0, 1.645921486212207E9, 0.0, 2022-02-27 11:24:46.212
34.0, -1132.3617258503111, -4360.9818054415955, -1710.1766717644539, -10104.866040333038, -513.8889567719647, 290.97500931918734, -5506.419301798261, -1606.1516530694548, -2553.4856383187343, -6346.084934006326, -4239.74594351601, -2957.180494926035, -3793.716882910357, -2806.797958230729, -9953.343564670511, -14631.273106488361, 0.011, -0.11199999999999999, 0.992, 192.0, 0.0, 0.0, 0.0, 0.0, 0.0, 0.0, 0.0, 0.0, 0.0, 1.645921486220178E9, 0.0, 2022-02-27 11:24:46.220
36.0, -1933.4035436396057, -4983.969626899913, -2312.019742968052, -10756.374687716328, -1251.5412272860083, -285.61059064991366, -5931.728295293844, -2139.9783658955535, -4376.180991671204, -7348.135989682197, -4530.408028412822, -3194.7348349970384, -4002.9292110120314, -3131.6358603997064, -10373.824581363748, -15743.764131517904, 0.0115, -0.11099999999999999, 0.991, 192.0, 0.0, 48.0, 126.0, 72.0, 15.0, 120.0, 0.0, 0.0, 0.0, 1.645921486228243E9, 0.0, 2022-02-27 11:24:46.228
38.0, -1428.477636394219, -4582.666406949331, -1895.1820606210306, -10299.885010705591, -774.8902767765852, 129.61776609632565, -5555.213159944196, -1657.1359821720102, -1497.0080848941905, -6268.680842957598, -4450.522893729555, -2965.8082682857835, -4059.2109035504945, -2985.164878984079, -9877.459392244744, -14379.592463921603, 0.0115, -0.11099999999999999, 0.991, 192.0, 0.0, 0.0, 0.0, 0.0, 0.0, 0.0, 0.0, 0.0, 0.0, 1.645921486234768E9, 0.0, 2022-02-27 11:24:46.234
40.0, -1408.0704937065236, -4572.4740114777105, -1952.5366368933485, -10370.918854584557, -792.2128787294482, 54.20298030411963, -5752.243787317728, -1931.6377558276363, -4222.512748540968, -6928.3478770670745, -4243.501036584501, -3061.8090107213275, -3719.1291116629973, -2847.478133139388, -10221.162166734, -15413.897086846482, 0.0115, -0.11099999999999999, 0.991, 192.0, 0.0, 0.0, 0.0, 0.0, 0.0, 0.0, 0.0, 0.0, 0.0, 1.645921486242995E9, 0.0, 2022-02-27 11:24:46.242
42.0, -1854.9265688570224, -4907.347846907121, -2211.638058619268, -10643.476026472572, -1167.94570302316, -187.19585981319665, -5768.202932858817, -1913.3763806076504, -2491.101919543972, -6872.155591506433, -4652.761477561174, -3117.621316626229, -4224.747922986498, -3207.855308992304, -10136.091427337102, -15039.97475385365, 0.0115, -0.11099999999999999, 0.991, 192.0, 0.0, 0.0, 0.0, 0.0, 0.0, 0.0, 0.0, 0.0, 0.0, 1.645921486251074E9, 0.0, 2022-02-27 11:24:46.251
44.0, -1130.2159583826017, -4354.164523382727, -1709.953154319901, -10102.630865887508, -510.5361951036686, 294.52893668758117, -5479.731318918624, -1615.9193653964242, -2511.956097120774, -6325.811901785362, -4235.9014434696965, -2942.0707156742474, -3797.7401969123125, -2793.8562981911064, -9944.536977355121, -14624.545231407314, 0.0115, -0.11099999999999999, 0.991, 192.0, 0.0, 0.0, 0.0, 0.0, 0.0, 0.0, 0.0, 0.0, 0.0, 1.645921486258024E9, 0.0, 2022-02-27 11:24:46.258
46.0, -1931.3695348941726, -4977.1746965855, -2310.566879578457, -10754.519492926538, -1243.2487300930895, -282.79427084854495, -5911.432911328425, -2120.264127285973, -4396.588134358899, -7345.431428603105, -4527.904633033828, -3206.782425258449, -3995.351969641682, -3129.5571481653633, -10361.173494002043, -15748.480349597974, 0.012750000000000001, -0.10949999999999999, 0.9895, 192.0, 0.0, 56.0, 126.0, 80.0, 15.0, 112.0, 0.0, 0.0, 0.0, 1.645921486272367E9, 0.0, 2022-02-27 11:24:46.272
48.0, -1446.0684592805458, -4594.825755933018, -1909.71069451698, -10311.642028289083, -780.8805442906075, 102.5274518164935, -5545.71366855069, -1649.7375547573038, -1494.9293726598469, -6275.09579361627, -4460.961158390183, -2983.0638150052805, -4065.2458745534273, -2996.7430826119285, -9873.90546487635, -14383.615777923558, 0.012750000000000001, -0.10949999999999999, 0.9895, 192.0, 0.0, 0.0, 0.0, 0.0, 0.0, 0.0, 0.0, 0.0, 0.0, 1.645921486280485E9, 0.0, 2022-02-27 11:24:46.280
50.0, -1399.9568104692473, -4571.557589955043, -1951.6202153706809, -10359.76533410136, -777.639541344588, 58.76273617300227, -5744.957118625298, -1928.62027032617, -4191.510878981457, -6912.455786759351, -4243.702202284599, -3062.1219351437016, -3718.7044285183465, -2848.4616098954216, -10208.555782861207, -15391.746508091273, 0.012750000000000001, -0.10949999999999999, 0.9895, 192.0, 0.0, 0.0, 0.0, 0.0, 0.0, 0.0, 0.0, 0.0, 0.0, 1.645921486287028E9, 0.0, 2022-02-27 11:24:46.287
52.0, -1869.8575341531675, -4923.798730826227, -2227.1054657823406, -10652.863759143802, -1177.9592845391376, -204.0490751324982, -5769.4546305483145, -1932.6212325836698, -2535.157207865382, -6903.872716888513, -4656.3601084184775, -3123.3210114623325, -4216.164853115661, -3210.49281483803, -10144.115703596557, -15067.93678616724, 0.012750000000000001, -0.10949999999999999, 0.9895, 192.0, 0.0, 0.0, 0.0, 0.0, 0.0, 0.0, 0.0, 0.0, 0.0, 1.645921486295053E9, 0.0, 2022-02-27 11:24:46.295
54.0, -1147.8067812689283, -4375.018700959528, -1710.467244442373, -10102.09442402058, -520.1250934749953, 285.1412040163522, -5493.701159203191, -1603.9164786239241, -2451.494628369168, -6327.734151808519, -4237.466065581568, -2947.3904308546107, -3810.033656362731, -2806.954420441916, -9943.978183743739, -14604.138088719617, 0.012750000000000001, -0.10949999999999999, 0.9895, 192.0, 0.0, 0.0, 0.0, 0.0, 0.0, 0.0, 0.0, 0.0, 0.0, 1.645921486303097E9, 0.0, 2022-02-27 11:24:46.303
56.0, -1950.748497336924, -5003.259182364844, -2300.1062631733735, -10746.249347478075, -1235.9173579117487, -280.31322721400585, -5918.250193387294, -2134.569243737369, -4435.1225417998485, -7363.022251489431, -4509.240926413647, -3210.6492770492173, -3983.617303802646, -3113.732113091006, -10373.690470897016, -15758.717448558504, 0.014375, -0.10375, 0.98875, 192.0, 0.0, 64.0, 126.0, 120.0, 15.0, 112.0, 0.0, 0.0, 0.0, 1.645921486310457E9, 0.0, 2022-02-27 11:24:46.310
58.0, -1510.508538545196, -4660.763402076173, -1916.259755642385, -10324.114301695145, -797.4431869319901, 92.93855344516676, -5550.76516279759, -1657.5383135722059, -1501.5678407630733, -6299.123918905726, -4472.025271895561, -2996.9666000564816, -4077.159354348106, -2993.7479488549175, -9880.275712046112, -14397.473859485848, 0.014375, -0.10375, 0.98875, 192.0, 0.0, 0.0, 0.0, 0.0, 0.0, 0.0, 0.0, 0.0, 0.0, 1.645921486317753E9, 0.0, 2022-02-27 11:24:46.317
60.0, -1461.8711426104478, -4642.054991967081, -1948.3345089357508, -10360.972328301947, -776.5219541218227, 63.858933908812276, -5720.37019972446, -1891.2034501079859, -4165.918131580131, -6916.680266461404, -4257.806153035897, -3081.9926359644696, -3735.2894229041844, -2837.8445312791505, -10203.30312291421, -15367.718382801819, 0.014375, -0.10375, 0.98875, 192.0, 0.0, 0.0, 0.0, 0.0, 0.0, 0.0, 0.0, 0.0, 0.0, 1.645921486324737E9, 0.0, 2022-02-27 11:24:46.324
62.0, -1972.6755586475801, -5032.115284456645, -2239.82360837741, -10674.142619865253, -1183.4801654195983, -212.58744151442548, -5759.99984264372, -1909.4648253279718, -2603.79941508763, -6961.2719966497425, -4683.584533165042, -3173.6124364867733, -4241.668193539166, -3220.0817132093566, -10144.607441974575, -15081.817219473985, 0.014375, -0.10375, 0.98875, 192.0, 0.0, 0.0, 0.0, 0.0, 0.0, 0.0, 0.0, 0.0, 0.0, 1.64592148633336E9, 0.0, 2022-02-27 11:24:46.333
64.0, -1248.3449278288995, -4474.796888208019, -1718.9385555909344, -10109.649313646474, -515.1183027170066, 288.73983487365666, -5482.234714297619, -1586.6832836488825, -2432.7415147711654, -6339.424114158644, -4268.691452585632, -2979.7781085703505, -3830.9325374284435, -2810.4636443213994, -9930.63419230392, -14579.998204707887, 0.014375, -0.10375, 0.98875, 192.0, 0.0, 0.0, 0.0, 0.0, 0.0, 0.0, 0.0, 0.0, 0.0, 1.645921486339957E9, 0.0, 2022-02-27 11:24:46.339
66.0, -2055.2429026654845, -5113.118006362678, -2306.4541585986804, -10752.59724290338, -1232.1399130988018, -275.7311196006679, -5917.043199186707, -2127.6625547006793, -4476.853248697907, -7385.977493045032, -4529.581013867976, -3231.1905302036444, -3985.0254637033304, -3105.4619676425423, -10368.90719758358, -15756.281108412875, 0.0121875, -0.104875, 0.990375, 192.0, 0.0, 40.0, 126.0, 88.0, 15.5, 0.0, 0.0, 0.0, 0.0, 1.645921486347332E9, 0.0, 2022-02-27 11:24:46.347
68.0, -1641.3556505865636, -4781.820450046116, -1931.548348849815, -10336.005429745368, -795.543288653289, 92.7597394895243, -5552.687412820746, -1645.0213366772339, -1533.6202423119835, -6338.530044380432, -4505.932868234261, -3030.8965481396376, -4087.6646742421003, -2996.4078064450987, -9882.5332382361, -14397.652673441491, 0.0121875, -0.104875, 0.990375, 192.0, 0.0, 0.0, 0.0, 0.0, 0.0, 0.0, 0.0, 0.0, 0.0, 1.645921486355351E9, 0.0, 2022-02-27 11:24:46.355
70.0, -1574.6580451319273, -4749.3210136081, -1940.8913780321334, -10353.462142164963, -748.1128869191274, 81.69562598414731, -5717.3303624785385, -1896.366703077162, -4192.382597015214, -6946.050458675678, -4292.138432519249, -3125.0197440409356, -3738.9327572503994, -2848.70747908443, -10197.245800166822, -15356.94484197436, 0.0121875, -0.104875, 0.990375, 192.0, 0.0, 0.0, 0.0, 0.0, 0.0, 0.0, 0.0, 0.0, 0.0, 1.645921486363453E9, 0.0, 2022-02-27 11:24:46.363
72.0, -2106.2048800235843, -5154.40167837163, -2258.286149297494, -10694.572114297403, -1204.3343429963998, -228.5242353110594, -5785.771404000689, -1931.101313960709, -2746.9846900683274, -7028.975430604867, -4723.102417362024, -3214.8290532623596, -4244.46216159608, -3214.002038717513, -10160.499532282298, -15126.543060129055, 0.0121875, -0.104875, 0.990375, 192.0, 0.0, 0.0, 0.0, 0.0, 0.0, 0.0, 0.0, 0.0, 0.0, 1.645921486369928E9, 0.0, 2022-02-27 11:24:46.369
74.0, -1337.1707602942897, -4557.453639203744, -1723.8112358821913, -10117.539479439198, -517.8675672850094, 283.17425050428517, -5489.119051589853, -1595.7804436421925, -2387.658046204811, -6350.152951497192, -4305.013037325506, -3009.3941699736324, -3836.341659586628, -2819.471397336888, -9918.653657275874, -14555.567748018235, 0.0121875, -0.104875, 0.990375, 192.0, 0.0, 0.0, 0.0, 0.0, 0.0, 0.0, 0.0, 0.0, 0.0, 1.645921486377944E9, 0.0, 2022-02-27 11:24:46.377
76.0, -2097.800624108389, -5151.674765548082, -2308.756388277577, -10746.919899811734, -1231.8046369319723, -270.67962535376853, -5929.493120848313, -2120.4652929860704, -4520.148577707837, -7389.062033779864, -4540.511016906621, -3258.0796787833788, -3976.732966510411, -3110.491110144986, -10365.174456259545, -15756.191701435055, 0.009093750000000001, -0.10543749999999999, 0.9881875, 192.0, 0.0, 24.0, 126.0, 88.0, 15.0, 104.0, 0.0, 0.0, 0.0, 1.645921486386003E9, 0.0, 2022-02-27 11:24:46.386
78.0, -1671.7987265346917, -4801.355874700055, -1953.0283752713651, -10346.398990917087, -820.5325389543223, 74.00662589152168, -5548.418229629783, -1638.1593511294545, -1553.0439082436453, -6363.2510737480015, -4527.412894655811, -3043.7711529458948, -4103.869688972198, -3014.3115537537997, -9883.606121969953, -14397.540914719215, 0.009093750000000001, -0.10543749999999999, 0.9881875, 192.0, 0.0, 0.0, 0.0, 0.0, 0.0, 0.0, 0.0, 0.0, 0.0, 1.645921486399574E9, 0.0, 2022-02-27 11:24:46.399
80.0, -1547.0983442185336, -4712.93237363486, -1943.2830146888514, -10343.560319371261, -753.9913957108731, 74.52071601399375, -5708.300257718594, -1883.3132843152625, -4146.8520935597535, -6934.829882959114, -4287.265752227992, -3113.776816579916, -3741.5032078627596, -2841.532569114276, -10188.282750640245, -15324.668922980896, 0.009093750000000001, -0.10543749999999999, 0.9881875, 192.0, 0.0, 0.0, 0.0, 0.0, 0.0, 0.0, 0.0, 0.0, 0.0, 1.645921486407544E9, 0.0, 2022-02-27 11:24:46.407
82.0, -2065.5023533704702, -5100.91395389008, -2271.0936988703847, -10687.151335138242, -1211.6657151777406, -234.60390980290293, -5783.647988277435, -1930.6989825605135, -2756.484181461833, -7022.158148545998, -4712.708856190307, -3200.523936810963, -4245.132713929738, -3225.5802423453624, -10169.194360875412, -15129.448786908244, 0.009093750000000001, -0.10543749999999999, 0.9881875, 192.0, 0.0, 0.0, 0.0, 0.0, 0.0, 0.0, 0.0, 0.0, 0.0, 1.645921486415677E9, 0.0, 2022-02-27 11:24:46.415
84.0, -1296.9152685302818, -4505.619943811887, -1738.6751459449704, -10117.76299688375, -528.6411081124674, 277.0945760124417, -5469.650682169281, -1581.8106033576255, -2390.0720346059843, -6343.916814794161, -4297.704016888621, -2988.8305650747498, -3852.8372469946444, -2830.870787009095, -9926.521471324144, -14553.712553228444, 0.009093750000000001, -0.10543749999999999, 0.9881875, 192.0, 0.0, 0.0, 0.0, 0.0, 0.0, 0.0, 0.0, 0.0, 0.0, 1.645921486422224E9, 0.0, 2022-02-27 11:24:46.422
86.0, -2043.3741263597165, -5089.000474095402, -2312.042094712507, -10752.08315278091, -1224.4062095172656, -269.5620381310032, -5903.07335890214, -2119.6606301856796, -4550.56930191151, -7398.852097851289, -4531.257394702125, -3247.4402484226525, -3981.203315401473, -3089.8604500127376, -10370.047136550802, -15761.779637548882, 0.011546875000000002, -0.10571875, 0.99009375, 192.0, 0.0, 56.0, 126.0, 88.0, 15.5, 0.0, 0.0, 0.0, 0.0, 1.645921486430218E9, 0.0, 2022-02-27 11:24:46.430
88.0, -1625.2847463231979, -4750.237435130767, -1954.682404361058, -10362.156970758078, -823.572376200244, 75.59359974784849, -5553.559130854504, -1642.6073482760607, -1547.9924139967459, -6348.498922407499, -4519.366266651901, -3040.753667444428, -4112.206889654028, -3002.599239659219, -9888.679967961309, -14410.348464292107, 0.011546875000000002, -0.10571875, 0.99009375, 192.0, 0.0, 0.0, 0.0, 0.0, 0.0, 0.0, 0.0, 0.0, 0.0, 1.645921486438209E9, 0.0, 2022-02-27 11:24:46.438
90.0, -1482.412395764875, -4644.625442579441, -1931.8165697832787, -10339.894633280592, -731.6620030000214, 88.2670388540076, -5675.063213713553, -1861.4756299824276, -4115.9172792336085, -6892.450975471852, -4272.603007865311, -3097.460043127542, -3738.396315383472, -2827.7191910408965, -10183.745346515816, -15315.191783331846, 0.011546875000000002, -0.10571875, 0.99009375, 192.0, 0.0, 0.0, 0.0, 0.0, 0.0, 0.0, 0.0, 0.0, 0.0, 1.645921486445472E9, 0.0, 2022-02-27 11:24:46.445
92.0, -2018.4295795475937, -5055.651671368083, -2271.272512826027, -10702.417576601218, -1199.0593313049474, -227.96544169967675, -5771.600398016024, -1926.6309650696476, -2789.5647632556875, -6999.3146657126745, -4697.129690304958, -3196.6794367646503, -4240.483551083034, -3215.387846873742, -10171.362480087577, -15151.152330774348, 0.011546875000000002, -0.10571875, 0.99009375, 192.0, 0.0, 0.0, 0.0, 0.0, 0.0, 0.0, 0.0, 0.0, 0.0, 1.645921486451845E9, 0.0, 2022-02-27 11:24:46.451
94.0, -1237.3031660679778, -4452.869826897362, -1736.5517302217163, -10115.930153838415, -527.3894104229702, 273.92062829978806, -5479.731318918624, -1588.9184580944132, -2338.104228747395, -6334.3949716562, -4278.727385846065, -2979.0405010033255, -3844.298880612717, -2790.5929435006315, -9925.090959679004, -14546.06825662473, 0.011546875000000002, -0.10571875, 0.99009375, 192.0, 0.0, 0.0, 0.0, 0.0, 0.0, 0.0, 0.0, 0.0, 0.0, 1.645921486459945E9, 0.0, 2022-02-27 11:24:46.459
96.0, -1962.259645731407, -5008.914173712036, -2299.7709870065437, -10727.563289113437, -1214.4373314901986, -270.8360875649557, -5906.448472314892, -2128.4672175010705, -4557.498342692655, -7368.677242836624, -4488.252638370113, -3227.815416790893, -3961.2432076028836, -3080.3609586192324, -10378.67490991055, -15778.431687168086, 0.012, -0.106, 0.984, 192.0, 0.0, 48.0, 126.0, 88.0, 15.0, 96.0, 0.0, 0.0, 0.0, 1.645921486468189E9, 0.0, 2022-02-27 11:24:46.468
98.0, -1594.6852081638824, -4703.231716541257, -1978.263494761407, -10372.841104607714, -853.6354724926321, 47.45275347861689, -5551.994508742632, -1650.8774937245244, -1547.567730852095, -6365.218027260069, -4505.016446711594, -3032.818798162794, -4122.600450825746, -3007.5166234393864, -9905.108500135959, -14440.411560584495, 0.012, -0.106, 0.984, 192.0, 0.0, 0.0, 0.0, 0.0, 0.0, 0.0, 0.0, 0.0, 0.0, 1.645921486474986E9, 0.0, 2022-02-27 11:24:46.474
100.0, -1419.8275112900153, -4588.254343063158, -1921.5571190782928, -10326.170662185034, -725.6046802526332, 94.86080346832317, -5683.1098417174635, -1859.6427869370923, -4038.4908364404246, -6854.296547686643, -4246.652632552699, -3093.7273018035057, -3732.271937402718, -2837.08457196767, -10177.710375512885, -15288.369689985479, 0.012, -0.106, 0.984, 192.0, 0.0, 0.0, 0.0, 0.0, 0.0, 0.0, 0.0, 0.0, 0.0, 1.645921486482493E9, 0.0, 2022-02-27 11:24:46.482
102.0, -1981.258628518418, -5019.240679650388, -2274.9381989166977, -10703.69162603517, -1217.9242036252265, -240.05773544999786, -5783.268008621694, -1948.2227502134742, -2811.447121077433, -7025.823834636669, -4673.503896415698, -3185.5929715148177, -4235.052077180395, -3216.5501375854183, -10188.34980587361, -15177.393278764877, 0.012, -0.106, 0.984, 192.0, 0.0, 0.0, 0.0, 0.0, 0.0, 0.0, 0.0, 0.0, 0.0, 1.645921486490573E9, 0.0, 2022-02-27 11:24:46.490
104.0, -1208.1117878093467, -4414.737750856609, -1733.8918726315349, -10116.153671282967, -529.6916401018668, 279.4415091802489, -5466.9237693457335, -1574.6803968763825, -2278.492126285091, -6289.4679653010335, -4263.438792638635, -2973.8101928007836, -3848.724526014868, -2811.3353623551566, -9923.056950933571, -14534.087721596685, 0.012, -0.106, 0.984, 192.0, 0.0, 0.0, 0.0, 0.0, 0.0, 0.0, 0.0, 0.0, 0.0, 1.645921486498621E9, 0.0, 2022-02-27 11:24:46.498
106.0, -1942.0089652548988, -4992.887972937581, -2305.6718475427447, -10727.898565280268, -1210.4140174882434, -260.86720953788875, -5907.700170004388, -2120.577051708347, -4557.945377581761, -7364.318652667839, -4478.060242898493, -3213.0185619614795, -3952.838951687688, -3072.8731242267045, -10381.267712267365, -15770.250948697443, 0.014, -0.106, 0.988, 192.0, 0.0, 56.0, 126.0, 88.0, 15.0, 112.0, 0.0, 0.0, 0.0, 1.645921486505194E9, 0.0, 2022-02-27 11:24:46.505
108.0, -1562.051661259134, -4677.795431351117, -1968.8310586012674, -10369.175418517045, -841.5208269978556, 56.37109951628441, -5553.894407021333, -1670.3458631450967, -1512.4978438017183, -6330.528119865432, -4486.55390579151, -3026.180330059568, -4111.558689064824, -3019.78773114535, -9907.835412959506, -14433.862499459088, 0.014, -0.106, 0.988, 192.0, 0.0, 0.0, 0.0, 0.0, 0.0, 0.0, 0.0, 0.0, 0.0, 1.645921486520254E9, 0.0, 2022-02-27 11:24:46.520
110.0, -1394.3241708665098, -4559.353537482445, -1910.0012671948991, -10307.909286965047, -717.8486249266416, 101.72278901610244, -5678.751251548678, -1867.0635660962544, -3994.994341730397, -6827.899137484925, -4219.919946184153, -3094.6437233261736, -3722.3254111201063, -2819.314935125701, -10180.660805780984, -15289.822553375072, 0.014, -0.106, 0.988, 192.0, 0.0, 0.0, 0.0, 0.0, 0.0, 0.0, 0.0, 0.0, 0.0, 1.645921486527431E9, 0.0, 2022-02-27 11:24:46.527
112.0, -1987.383006499172, -5034.685735069005, -2285.5552775329684, -10704.563344068927, -1222.752180427573, -258.00618624760943, -5804.569221087601, -1972.3626342252057, -2873.9425985744715, -7065.833457211668, -4670.374652191956, -3174.171230098156, -4235.968498703062, -3225.5355388564517, -10208.131099716556, -15216.10650016147, 0.014, -0.106, 0.988, 192.0, 0.0, 0.0, 0.0, 0.0, 0.0, 0.0, 0.0, 0.0, 0.0, 1.645921486534758E9, 0.0, 2022-02-27 11:24:46.534
114.0, -1220.069971092936, -4443.660908181776, -1738.6974976894257, -10115.438415460398, -522.2038057093389, 263.3706049168831, -5465.403850722772, -1601.0331035891895, -2222.121026768807, -6303.706026519064, -4266.903313029207, -2973.3184544227665, -3850.758534760301, -2828.0544672077262, -9932.467035349255, -14530.265573294828, 0.014, -0.106, 0.988, 192.0, 0.0, 0.0, 0.0, 0.0, 0.0, 0.0, 0.0, 0.0, 0.0, 1.645921486542766E9, 0.0, 2022-02-27 11:24:46.542
116.0, -1961.1197067641863, -5037.010316492358, -2289.0645014124516, -10719.270791920519, -1190.1633370117352, -260.80015430452283, -5909.018922927252, -2137.89965366121, -4572.76458415563, -7368.565484114348, -4459.754164189597, -3206.268335135977, -3942.870073660621, -3044.2181878350007, -10390.163706560577, -15785.31602446032, 0.012, -0.10200000000000001, 0.988, 192.0, 0.0, 48.0, 126.0, 104.0, 15.0, 112.0, 0.0, 0.0, 0.0, 1.645921486551012E9, 0.0, 2022-02-27 11:24:46.551
118.0, -1667.9095229994684, -4796.349083942066, -1988.9252768665883, -10378.607854677184, -852.5625887587773, 38.288538251941, -5567.752488583624, -1687.0649679976664, -1553.446239643841, -6394.677626452163, -4513.286592160058, -3027.7449521714393, -4128.05427647284, -3027.812007404805, -9924.509814323166, -14458.628232315568, 0.012, -0.10200000000000001, 0.988, 192.0, 0.0, 0.0, 0.0, 0.0, 0.0, 0.0, 0.0, 0.0, 0.0, 1.645921486557587E9, 0.0, 2022-02-27 11:24:46.557
120.0, -1504.8088437090928, -4692.346416991522, -1903.8321857252345, -10293.42535655801, -688.4560809679128, 113.16688217721966, -5672.202190423273, -1877.5018307568826, -3973.223742630928, -6851.8602075410145, -4248.038440708929, -3085.1889354215787, -3730.3496873795616, -2814.241089134346, -10178.000948190804, -15259.871215804962, 0.012, -0.10200000000000001, 0.988, 192.0, 0.0, 0.0, 0.0, 0.0, 0.0, 0.0, 0.0, 0.0, 0.0, 1.645921486565445E9, 0.0, 2022-02-27 11:24:46.565
122.0, -2166.152258652718, -5205.386007474185, -2296.529984060524, -10720.321323909919, -1222.0816280939137, -260.4872298821485, -5782.128069654474, -1985.259590775918, -2976.313588179778, -7114.157928724043, -4706.472719487277, -3233.582166860362, -4231.609908534278, -3231.2128819480995, -10221.586849878651, -15246.504872620688, 0.012, -0.10200000000000001, 0.988, 192.0, 0.0, 0.0, 0.0, 0.0, 0.0, 0.0, 0.0, 0.0, 0.0, 1.645921486572535E9, 0.0, 2022-02-27 11:24:46.572
124.0, -1430.1316654839118, -4630.722657528241, -1750.4098117840067, -10126.413121987955, -529.4010674239478, 266.3880904183496, -5459.346527975385, -1573.9427893093575, -2254.106373084351, -6343.11215199377, -4327.722409692098, -3023.207548047012, -3874.7643083053003, -2830.2002346754357, -9926.00738120167, -14513.837041120178, 0.012, -0.10200000000000001, 0.988, 192.0, 0.0, 0.0, 0.0, 0.0, 0.0, 0.0, 0.0, 0.0, 0.0, 1.645921486580625E9, 0.0, 2022-02-27 11:24:46.580
126.0, -2132.2670140584723, -5183.391890930163, -2301.4473678406916, -10723.539975111482, -1194.9689620696263, -256.55332285801444, -5913.310457862671, -2116.6878481731237, -4662.126858487947, -7389.7772896024335, -4518.919231762795, -3264.069946297401, -3952.101344120663, -3057.6739379970954, -10392.711805428482, -15776.21886446701, 0.012, -0.10400000000000001, 0.986, 192.0, 0.0, 48.0, 126.0, 96.0, 15.0, 104.0, 0.0, 0.0, 0.0, 1.645921486587142E9, 0.0, 2022-02-27 11:24:46.587
128.0, -1799.8071670302354, -4920.691838346939, -2001.7328264394794, -10393.58352346224, -865.4148418205789, 27.537349168938302, -5559.929378024266, -1685.9473807749011, -1605.7493216692594, -6428.60757453532, -4563.130982295392, -3081.3891388641764, -4139.8112940563315, -3041.5806819892746, -9927.01320970216, -14457.354182881616, 0.012, -0.10400000000000001, 0.986, 192.0, 0.0, 0.0, 0.0, 0.0, 0.0, 0.0, 0.0, 0.0, 0.0, 1.645921486595153E9, 0.0, 2022-02-27 11:24:46.595
130.0, -1561.761088581215, -4741.028516415181, -1904.010999680877, -10298.65566476055, -697.70970317241, 109.27767864199623, -5660.467524584237, -1864.7613364173576, -3999.3082284102716, -6865.338309447564, -4281.946037047629, -3116.1237497477237, -3748.499303877271, -2815.22456589038, -10174.245855122312, -15250.617593600464, 0.012, -0.10400000000000001, 0.986, 192.0, 0.0, 0.0, 0.0, 0.0, 0.0, 0.0, 0.0, 0.0, 0.0, 1.645921486603067E9, 0.0, 2022-02-27 11:24:46.603
132.0, -2162.66538651769, -5188.21986773251, -2301.8049957519765, -10721.483614621595, -1239.4042300467765, -275.1276225003746, -5797.3943111174485, -1987.4053582436275, -3031.634155706663, -7125.356152696151, -4725.829330185572, -3245.361536188309, -4244.417458107168, -3243.8639693098035, -10223.665562112996, -15259.111256493481, 0.012, -0.10400000000000001, 0.986, 192.0, 0.0, 0.0, 0.0, 0.0, 0.0, 0.0, 0.0, 0.0, 0.0, 1.645921486610362E9, 0.0, 2022-02-27 11:24:46.610
134.0, -1373.3135310785212, -4580.230066803702, -1752.4214687849844, -10127.441302232899, -543.974404808808, 247.25499716460672, -5472.310539759462, -1579.21780100081, -2237.9460618431644, -6315.7089132915635, -4327.431837014179, -3015.205623532012, -3883.548543876236, -2851.2332262078794, -9924.465110834255, -14507.310331739227, 0.012, -0.10400000000000001, 0.986, 192.0, 0.0, 0.0, 0.0, 0.0, 0.0, 0.0, 0.0, 0.0, 0.0, 1.645921486617801E9, 0.0, 2022-02-27 11:24:46.617
136.0, -2023.704591239046, -5088.061700828279, -2280.0120449080523, -10708.765472026524, -1185.5812293983972, -260.7554508156122, -5923.256984145282, -2131.5964617248133, -4649.2522536816905, -7381.976530787531, -4486.397443580323, -3241.8970157977365, -3935.6281084571015, -3063.7759642333945, -10387.727366414949, -15782.678518614593, 0.012, -0.108, 0.984, 192.0, 0.0, 48.0, 126.0, 80.0, 15.0, 96.0, 0.0, 0.0, 0.0, 1.645921486625752E9, 0.0, 2022-02-27 11:24:46.625
138.0, -1710.5342996757388, -4826.389828489999, -1997.5977537152476, -10390.34252051622, -887.0960339422267, 7.063151247877032, -5594.39576797435, -1688.0707964981552, -1580.5142021792178, -6410.055626637415, -4543.908482063828, -3046.4533622805316, -4142.1582272241385, -3044.106429112724, -9931.371799870945, -14473.961529011909, 0.012, -0.108, 0.984, 192.0, 0.0, 0.0, 0.0, 0.0, 0.0, 0.0, 0.0, 0.0, 0.0, 1.645921486633843E9, 0.0, 2022-02-27 11:24:46.633
140.0, -1447.3425087144983, -4631.862596495462, -1883.782670948824, -10281.020138385313, -692.9711333478849, 108.11538793032027, -5659.238178639195, -1855.5747694462264, -3911.331762234183, -6803.043997650623, -4251.570016332867, -3072.7390137599723, -3736.116437449031, -2814.0846269231592, -10165.171046873456, -15226.67887528883, 0.012, -0.108, 0.984, 192.0, 0.0, 0.0, 0.0, 0.0, 0.0, 0.0, 0.0, 0.0, 0.0, 1.645921486647415E9, 0.0, 2022-02-27 11:24:46.647
142.0, -2075.091251741797, -5106.434834770541, -2300.5085945735686, -10722.31062916644, -1248.4119830622653, -285.85645983892204, -5799.271857651694, -1993.4403292465604, -3035.568062730797, -7097.505879104839, -4699.096643817025, -3212.7950445169267, -4233.621565535255, -3234.520940127485, -10224.872556313581, -15277.104410780003, 0.012, -0.108, 0.984, 192.0, 0.0, 0.0, 0.0, 0.0, 0.0, 0.0, 0.0, 0.0, 0.0, 1.645921486655374E9, 0.0, 2022-02-27 11:24:46.655
144.0, -1283.0795387124467, -4489.772556993074, -1750.1192391060877, -10123.999133586782, -554.3009107471598, 249.19959893221844, -5467.080231556921, -1597.4568244763404, -2174.1988866566285, -6287.791584466885, -4301.66027565721, -2980.3592539261886, -3873.512610615803, -2822.1983101604355, -9915.502061307676, -14499.509572924326, 0.012, -0.108, 0.984, 192.0, 0.0, 0.0, 0.0, 0.0, 0.0, 0.0, 0.0, 0.0, 0.0, 1.645921486662458E9, 0.0, 2022-02-27 11:24:46.662
146.0, -1941.8972065326222, -4999.302923596254, -2280.9284664307197, -10693.990968941567, -1198.9028690937603, -258.2297036921625, -5911.947001450897, -2141.967671152076, -4622.474863824233, -7343.4644750910375, -4461.050565368005, -3212.6609340501946, -3931.2695182883167, -3060.8255339652937, -10385.603950691695, -15782.119725003211, 0.014, -0.108, 0.992, 192.0, 0.0, 56.0, 126.0, 80.0, 15.5, 0.0, 0.0, 0.0, 0.0, 1.645921486670004E9, 0.0, 2022-02-27 11:24:46.670
148.0, -1647.7035460118707, -4764.251978904245, -2007.7007422090462, -10392.600046706206, -898.0930922142378, 0.8046628003910543, -5570.501753151626, -1705.4828054288396, -1555.5920071115504, -6396.152841586214, -4528.172853967292, -3023.051085835825, -4146.8520935597535, -3053.4271065505873, -9933.651677805386, -14482.43284016047, 0.014, -0.108, 0.992, 192.0, 0.0, 0.0, 0.0, 0.0, 0.0, 0.0, 0.0, 0.0, 0.0, 1.645921486677989E9, 0.0, 2022-02-27 11:24:46.677
150.0, -1370.608969999429, -4557.699508392752, -1879.2899703133073, -10262.311728276221, -686.5561826892117, 117.14549269026432, -5642.675535997812, -1831.2784232233078, -3858.4475348529263, -6776.53482872663, -4234.202710891093, -3051.9965949054476, -3734.730629292802, -2823.1370834275585, -10155.448038035398, -15210.987950681205, 0.014, -0.108, 0.992, 192.0, 0.0, 0.0, 0.0, 0.0, 0.0, 0.0, 0.0, 0.0, 0.0, 1.645921486685879E9, 0.0, 2022-02-27 11:24:46.685
152.0, -2023.1010941387528, -5053.595310878195, -2309.8739755003426, -10726.26688793503, -1260.1913523902122, -287.17521276178513, -5804.05513096513, -1998.1118438377196, -3093.906115759148, -7110.6040013556485, -4679.762384863185, -3199.808680988393, -4220.143463628705, -3238.3207366848874, -10233.053294784224, -15310.095585596036, 0.014, -0.108, 0.992, 192.0, 0.0, 0.0, 0.0, 0.0, 0.0, 0.0, 0.0, 0.0, 0.0, 1.645921486692751E9, 0.0, 2022-02-27 11:24:46.692
154.0, -1235.0903433669023, -4441.4033819917895, -1751.0580123732107, -10127.62011618854, -557.0501753151626, 245.80213377501178, -5462.498123943583, -1613.7065426953486, -2087.898801314688, -6249.301880514847, -4292.227839497071, -2964.82479152975, -3878.8770292850772, -2848.729830828885, -9903.365064068445, -14481.62817736008, 0.014, -0.108, 0.992, 192.0, 0.0, 0.0, 0.0, 0.0, 0.0, 0.0, 0.0, 0.0, 0.0, 1.645921486699575E9, 0.0, 2022-02-27 11:24:46.699
156.0, -1887.202487850486, -4960.299129521743, -2272.4571552821585, -10692.247532874053, -1174.4724124041097, -250.0266134770648, -5892.322169819137, -2130.344764035316, -4614.405884075866, -7313.714303221024, -4430.786303375519, -3193.7737099854603, -3909.878898844588, -3057.852751952738, -10374.472781952953, -15780.085716257778, 0.014, -0.11, 0.992, 192.0, 0.0, 56.0, 126.0, 72.0, 15.5, 0.0, 0.0, 0.0, 0.0, 1.645921486707627E9, 0.0, 2022-02-27 11:24:46.707
158.0, -1626.6929062238821, -4742.123751893491, -2017.4684545360155, -10410.0567591258, -913.1581679771148, -0.7823110559357472, -5570.591160129447, -1692.8987733005017, -1565.0691467606005, -6414.525975528476, -4529.3351446789675, -3032.371763273688, -4148.10379124925, -3069.810935236327, -9928.756645769674, -14496.134459511573, 0.014, -0.11, 0.992, 192.0, 0.0, 0.0, 0.0, 0.0, 0.0, 0.0, 0.0, 0.0, 0.0, 1.645921486715698E9, 0.0, 2022-02-27 11:24:46.715
160.0, -1323.6703066432842, -4513.443054371244, -1865.4989439843828, -10256.142646806557, -676.8108221066979, 137.73144933360211, -5645.983594177198, -1824.7070103534475, -3801.294124280706, -6756.53001743913, -4225.150254386694, -3048.2638535814112, -3731.981364724799, -2824.7911125172513, -10142.707543695873, -15188.14446784788, 0.014, -0.11, 0.992, 192.0, 0.0, 0.0, 0.0, 0.0, 0.0, 0.0, 0.0, 0.0, 0.0, 1.645921486722328E9, 0.0, 2022-02-27 11:24:46.722
162.0, -1993.4626809910158, -5022.481682596407, -2310.700990045189, -10731.698361837669, -1271.5683903179636, -290.8185471080002, -5828.910270799431, -2004.2138700740184, -3107.4289211546093, -7113.442672901473, -4670.3299487030445, -3193.9525239411028, -4216.857757193775, -3247.4178966781974, -10241.479902443874, -15324.803033447628, 0.014, -0.11, 0.992, 192.0, 0.0, 0.0, 0.0, 0.0, 0.0, 0.0, 0.0, 0.0, 0.0, 1.645921486730335E9, 0.0, 2022-02-27 11:24:46.730
164.0, -1221.746351927084, -4432.194463276203, -1756.7577072093138, -10131.978706357326, -571.3105882776485, 238.67192729376882, -5453.512722672549, -1606.5763362141058, -2070.3079784283614, -6257.5273224744, -4294.4183104536905, -2964.400108385099, -3887.3259886891833, -2862.7890780912735, -9905.19790711378, -14478.655395347525, 0.013000000000000001, -0.11, 0.99, 192.0, 0.0, 48.0, 126.0, 72.0, 15.0, 112.0, 0.0, 0.0, 0.0, 1.645921486738817E9, 0.0, 2022-02-27 11:24:46.738
166.0, -1852.266711266841, -4928.000858783825, -2267.696233713178, -10684.15620138123, -1175.6347031157857, -245.98094773065424, -5892.746852963788, -2130.0094878684868, -4636.53411108662, -7314.362503810228, -4433.557919687977, -3191.493832051019, -3910.884727345077, -3059.596188020252, -10376.730308142938, -15778.49874240145, 0.013000000000000001, -0.11, 0.99, 192.0, 0.0, 0.0, 0.0, 0.0, 0.0, 0.0, 0.0, 0.0, 0.0, 1.645921486745424E9, 0.0, 2022-02-27 11:24:46.745
168.0, -1619.6744584649157, -4735.887615190461, -2030.521873297915, -10419.176270863565, -935.3758019656899, -26.71033462409194, -5589.232515005174, -1731.2320150413532, -1591.1759842843992, -6415.978838918071, -4543.550854152543, -3032.6176324626963, -4160.151381510661, -3097.7059123165504, -9943.844073277007, -14521.369579001615, 0.013000000000000001, -0.11, 0.99, 192.0, 0.0, 0.0, 0.0, 0.0, 0.0, 0.0, 0.0, 0.0, 0.0, 1.645921486752829E9, 0.0, 2022-02-27 11:24:46.752
170.0, -1287.5275358590527, -4485.704539502209, -1853.4960572118828, -10238.261251242311, -658.9070747979969, 150.38253669530593, -5638.473408040215, -1821.4213039185172, -3743.3136991636397, -6720.677819332817, -4218.645896750199, -3039.5466732438417, -3724.4935303322713, -2833.217720176902, -10141.411142517465, -15167.916139115829, 0.013000000000000001, -0.11, 0.99, 192.0, 0.0, 0.0, 0.0, 0.0, 0.0, 0.0, 0.0, 0.0, 0.0, 1.645921486767902E9, 0.0, 2022-02-27 11:24:46.767
172.0, -1978.4646604615048, -5018.681886039006, -2313.763179035566, -10737.97920202961, -1265.712233270673, -288.65042789583543, -5816.661514837923, -2025.8950621956662, -3207.3859223587424, -7130.340591709685, -4663.132686988436, -3195.651256519706, -4202.7314546980215, -3248.6025391343287, -10257.93078636298, -15366.04200196767, 0.013000000000000001, -0.11, 0.99, 192.0, 0.0, 0.0, 0.0, 0.0, 0.0, 0.0, 0.0, 0.0, 0.0, 1.645921486774608E9, 0.0, 2022-02-27 11:24:46.774
174.0, -1208.1788430427127, -4420.079817781427, -1756.7800589537692, -10130.771712156738, -578.552553481168, 241.73411628414587, -5468.309577501962, -1598.9096878659354, -1993.9544193690324, -6235.041467552361, -4296.698188388132, -2953.6712710465517, -3894.1656224925073, -2871.483906684388, -9905.555535025065, -14464.283223662762, 0.013500000000000002, -0.10500000000000001, 0.991, 192.0, 0.0, 56.0, 126.0, 112.0, 15.5, 0.0, 0.0, 0.0, 0.0, 1.645921486782611E9, 0.0, 2022-02-27 11:24:46.782
176.0, -1837.5369116707936, -4916.266192944789, -2264.2317133226056, -10678.657672245226, -1173.3101216924335, -242.62818606235817, -5894.266771586749, -2139.6430897287237, -4636.064724453059, -7296.928143135088, -4425.064256794961, -3191.069148906368, -3895.3726166930937, -3057.0033856634363, -10383.52523845735, -15770.966204520013, 0.013500000000000002, -0.10500000000000001, 0.991, 192.0, 0.0, 0.0, 0.0, 0.0, 0.0, 0.0, 0.0, 0.0, 0.0, 1.645921486790513E9, 0.0, 2022-02-27 11:24:46.790
178.0, -1619.4732927648179, -4739.955632681326, -2035.774533244912, -10423.154881376611, -940.4496479570447, -23.335221211340574, -5589.858363849922, -1738.138704078043, -1596.8309756315919, -6427.400580334733, -4551.798647856552, -3039.166693588101, -4165.247579246471, -3097.236525682989, -9954.863483293473, -14523.716512169423, 0.013500000000000002, -0.10500000000000001, 0.991, 192.0, 0.0, 0.0, 0.0, 0.0, 0.0, 0.0, 0.0, 0.0, 0.0, 1.645921486797667E9, 0.0, 2022-02-27 11:24:46.797
180.0, -1270.5402100730194, -4475.534495775044, -1852.914911856045, -10238.440065197954, -659.6893858539327, 142.76059183604622, -5625.196471833762, -1837.4028012040617, -3725.924041977411, -6718.062665231546, -4226.066675909362, -3036.082152853269, -3728.919175734422, -2825.349906128634, -10141.031162861726, -15153.94629883126, 0.013500000000000002, -0.10500000000000001, 0.991, 192.0, 0.0, 0.0, 0.0, 0.0, 0.0, 0.0, 0.0, 0.0, 0.0, 1.645921486805158E9, 0.0, 2022-02-27 11:24:46.805
182.0, -1981.1692215405967, -5022.213461662944, -2322.815635539965, -10741.846053820378, -1284.6665125687734, -303.2237652806956, -5830.653706866945, -2041.6530420366578, -3207.7211985255717, -7141.471760448428, -4669.368823691467, -3192.9243436961588, -4205.458367521568, -3252.514094414007, -10262.289376531766, -15368.076010713103, 0.013500000000000002, -0.10500000000000001, 0.991, 192.0, 0.0, 0.0, 0.0, 0.0, 0.0, 0.0, 0.0, 0.0, 0.0, 1.645921486813155E9, 0.0, 2022-02-27 11:24:46.813
184.0, -1217.1642443137462, -4431.1886347757145, -1766.3242538361853, -10138.483063993819, -590.9577716538635, 227.67486902175773, -5474.3221967604395, -1614.6453159624716, -2007.2090038310296, -6233.8791768406845, -4309.550441449934, -2958.789820526817, -3893.0256835252862, -2886.6383894250857, -9910.383511827411, -14463.478560862372, 0.013750000000000002, -0.10350000000000001, 0.9904999999999999, 192.0, 0.0, 56.0, 126.0, 104.0, 15.0, 120.0, 0.0, 0.0, 0.0, 1.645921486820172E9, 0.0, 2022-02-27 11:24:46.820
186.0, -1816.5486236272602, -4906.297314917721, -2252.0053091055524, -10670.722802963592, -1162.3130634204226, -233.5757295579588, -5902.179289123927, -2139.352517050805, -4659.019966008659, -7311.30031481985, -4432.149759787293, -3195.517146052974, -3882.6991775869346, -3053.404754806132, -10387.325035014754, -15774.542483632862, 0.013750000000000002, -0.10350000000000001, 0.9904999999999999, 192.0, 0.0, 0.0, 0.0, 0.0, 0.0, 0.0, 0.0, 0.0, 0.0, 1.645921486827383E9, 0.0, 2022-02-27 11:24:46.827
188.0, -1629.151598113966, -4748.002260685237, -2048.9844142179986, -10434.598974537728, -960.7897354113741, -36.27688125096336, -5608.410311747827, -1756.2883205757526, -1621.3061358101531, -6455.1167434593135, -4563.823886373507, -3040.2619290664115, -4162.29714897837, -3110.826386311816, -9964.49708515371, -14548.169320603529, 0.013750000000000002, -0.10350000000000001, 0.9904999999999999, 192.0, 0.0, 0.0, 0.0, 0.0, 0.0, 0.0, 0.0, 0.0, 0.0, 1.645921486834821E9, 0.0, 2022-02-27 11:24:46.834
190.0, -1264.4381838367206, -4475.288626586035, -1850.7691443883355, -10225.900736558526, -660.0917172541282, 153.1765047522193, -5628.795102691067, -1824.6399551200814, -3679.343006532551, -6702.595258068473, -4236.929623714641, -3031.3882865176543, -3733.8365595145897, -2835.4975981113435, -10142.327564040133, -15136.981324789684, 0.013750000000000002, -0.10350000000000001, 0.9904999999999999, 192.0, 0.0, 0.0, 0.0, 0.0, 0.0, 0.0, 0.0, 0.0, 0.0, 1.645921486842761E9, 0.0, 2022-02-27 11:24:46.842
192.0, -1983.96318959751, -5031.824711778726, -2321.407475639281, -10746.294050966984, -1293.1154719728795, -307.3811897493827, -5846.836369852587, -2057.7910015333896, -3294.3118565454315, -7169.523199739838, -4678.3095214735895, -3210.470463093575, -4202.574992486834, -3261.588902662862, -10283.612940742129, -15408.756185621762, 0.013750000000000002, -0.10350000000000001, 0.9904999999999999, 192.0, 0.0, 0.0, 0.0, 0.0, 0.0, 0.0, 0.0, 0.0, 0.0, 1.645921486851959E9, 0.0, 2022-02-27 11:24:46.851
194.0, -1217.4771687361203, -4434.4966929551, -1765.3854805690623, -10141.72406693984, -588.6778937194221, 237.17436041526324, -5471.170600792241, -1613.0136386172342, -1972.0050063139208, -6248.988956092472, -4324.1237788347935, -2968.6916433205183, -3905.9896953093644, -2883.4197382235216, -9907.902468192873, -14463.277395162273, 0.013875000000000002, -0.10475000000000001, 0.99025, 192.0, 0.0, 56.0, 126.0, 88.0, 15.0, 120.0, 0.0, 0.0, 0.0, 1.645921486857387E9, 0.0, 2022-02-27 11:24:46.857
196.0, -1807.3620566561292, -4895.4343671124425, -2236.3814397312926, -10665.336032549863, -1151.3607086373222, -221.77400848555666, -5889.371739551037, -2140.7830286959447, -4645.139532701914, -7282.287750516863, -4423.656096894276, -3188.9010296942033, -3880.8439827971442, -3045.782809946872, -10380.77597388935, -15775.056573755333, 0.013875000000000002, -0.10475000000000001, 0.99025, 192.0, 0.0, 0.0, 0.0, 0.0, 0.0, 0.0, 0.0, 0.0, 0.0, 1.645921486865518E9, 0.0, 2022-02-27 11:24:46.865
198.0, -1632.437304548896, -4754.46191483282, -2038.2108733905404, -10445.797198509837, -957.5487324653545, -39.8755121082678, -5603.559983201026, -1756.4224310424843, -1624.1001038670665, -6467.387851165277, -4571.33407251049, -3047.302728569833, -4167.259236247449, -3106.333685676299, -9959.646756606908, -14560.73100098741, 0.013875000000000002, -0.10475000000000001, 0.99025, 192.0, 0.0, 0.0, 0.0, 0.0, 0.0, 0.0, 0.0, 0.0, 0.0, 1.645921486873438E9, 0.0, 2022-02-27 11:24:46.873
200.0, -1252.5023522975866, -4467.577274748955, -1830.272594722819, -10217.54118413224, -644.8254757911534, 152.77417335202378, -5626.224652078707, -1819.3872951730843, -3640.272157224674, -6688.044272428068, -4230.402914333691, -3024.7274666699727, -3722.750094264757, -2829.820255019695, -10128.804758644672, -15121.737435071163, 0.013875000000000002, -0.10475000000000001, 0.99025, 192.0, 0.0, 0.0, 0.0, 0.0, 0.0, 0.0, 0.0, 0.0, 0.0, 1.645921486880019E9, 0.0, 2022-02-27 11:24:46.880
202.0, -1977.7047011500242, -5022.235813407399, -2317.630030826334, -10745.9364230557, -1286.4099486362875, -309.34814326144976, -5841.471951183314, -2064.675338825624, -3311.7238654761154, -7158.168513556542, -4674.174448749358, -3197.2829338649435, -4198.283457551415, -3259.1525625172335, -10281.333062807687, -15414.277066502222, 0.013875000000000002, -0.10475000000000001, 0.99025, 192.0, 0.0, 0.0, 0.0, 0.0, 0.0, 0.0, 0.0, 0.0, 0.0, 1.645921486895023E9, 0.0, 2022-02-27 11:24:46.895
204.0, -1220.494654237587, -4433.267347010058, -1756.7130037204033, -10140.226500061333, -593.908201921964, 219.44942706220473, -5474.411603738261, -1611.247850805265, -1947.7533635799127, -6245.859711868729, -4314.333714763369, -2958.052212959792, -3904.9168115755097, -2871.0368717952815, -9901.24164834519, -14451.296860134229, 0.012937500000000001, -0.101375, 0.991125, 192.0, 0.0, 48.0, 126.0, 120.0, 15.5, 0.0, 0.0, 0.0, 0.0, 1.645921486903054E9, 0.0, 2022-02-27 11:24:46.903
206.0, -1786.8878587350678, -4882.090375672624, -2218.4329889336814, -10650.24860504253, -1136.3179846189005, -227.2278341326516, -5890.444623284891, -2143.733458964045, -4668.832381824539, -7283.539448206359, -4413.1060735113715, -3182.82135520236, -3871.7244710593786, -3030.6059754617186, -10373.712822641472, -15768.775733563392, 0.012937500000000001, -0.101375, 0.991125, 192.0, 0.0, 0.0, 0.0, 0.0, 0.0, 0.0, 0.0, 0.0, 0.0, 1.645921486909809E9, 0.0, 2022-02-27 11:24:46.909
208.0, -1639.6569180079603, -4752.651423531941, -2040.2001786470628, -10454.02264046939, -968.8140116708294, -46.692794167136455, -5625.956431145243, -1757.20474209842, -1653.8055722481695, -6470.539447133476, -4568.853028875951, -3041.5806819892746, -4175.037643317895, -3113.843871813282, -9964.608843875987, -14575.438448839004, 0.012937500000000001, -0.101375, 0.991125, 192.0, 0.0, 0.0, 0.0, 0.0, 0.0, 0.0, 0.0, 0.0, 0.0, 1.645921486917752E9, 0.0, 2022-02-27 11:24:46.917
210.0, -1235.291509067, -4449.78528616253, -1806.780911300291, -10220.491614400342, -633.2696239077598, 167.056938058965, -5606.689227424768, -1805.7303793108917, -3591.9923892012107, -6661.624510481895, -4222.155120629683, -3025.241556792445, -3729.1203414345196, -2801.9923331728382, -10117.315961994644, -15095.27296963608, 0.012937500000000001, -0.101375, 0.991125, 192.0, 0.0, 0.0, 0.0, 0.0, 0.0, 0.0, 0.0, 0.0, 0.0, 1.64592148692573E9, 0.0, 2022-02-27 11:24:46.925
212.0, -1981.5939046852477, -5025.007429719857, -2311.9973912235964, -10753.088981281398, -1296.9823237636476, -318.89233814386586, -5850.211483265339, -2057.2098561775515, -3369.9054562932797, -7188.030444148832, -4669.771155091662, -3216.1925096741334, -4192.762576670954, -3258.772582861493, -10278.69555696196, -15434.259526045267, 0.012937500000000001, -0.101375, 0.991125, 192.0, 0.0, 0.0, 0.0, 0.0, 0.0, 0.0, 0.0, 0.0, 0.0, 1.645921486932872E9, 0.0, 2022-02-27 11:24:46.932
214.0, -1216.0019536020702, -4430.339268486413, -1750.7450879508363, -10138.304250038178, -608.2803736067264, 208.43001704573837, -5492.091833602409, -1634.4936650387842, -1925.2451569134184, -6219.03761852236, -4318.669953187698, -2954.63239605813, -3908.984829066376, -2889.2311917819015, -9898.268866332635, -14446.692400776436, 0.013468750000000002, -0.10068750000000001, 0.9905625, 192.0, 0.0, 56.0, 126.0, 112.0, 15.0, 120.0, 0.0, 0.0, 0.0, 1.645921486940446E9, 0.0, 2022-02-27 11:24:46.940
216.0, -1775.756689996325, -4875.921294202959, -2209.0005527735416, -10639.832692126358, -1137.2567578860233, -225.26088062058457, -5888.88000117302, -2137.6761362166567, -4658.617634608464, -7275.448116713538, -4399.58326811591, -3166.5716369833517, -3862.5379040882476, -3023.0957893247355, -10373.131677285633, -15765.221806194999, 0.013468750000000002, -0.10068750000000001, 0.9905625, 192.0, 0.0, 0.0, 0.0, 0.0, 0.0, 0.0, 0.0, 0.0, 0.0, 1.645921486947387E9, 0.0, 2022-02-27 11:24:46.947
218.0, -1645.8483512220803, -4759.535760824176, -2044.1787891601075, -10457.442457371051, -987.1871456130917, -60.52852398497153, -5626.9399079012765, -1759.3505095661294, -1662.3886421190075, -6492.064177043936, -4572.630473688898, -3049.314385570811, -4187.845192890786, -3115.9225840476256, -9971.090849768025, -14581.853399497677, 0.013468750000000002, -0.10068750000000001, 0.9905625, 192.0, 0.0, 0.0, 0.0, 0.0, 0.0, 0.0, 0.0, 0.0, 0.0, 1.645921486955544E9, 0.0, 2022-02-27 11:24:46.955
220.0, -1214.9514216126706, -4434.988431333117, -1792.6993122934477, -10207.795823549726, -625.6029755595894, 171.63904567230293, -5602.777672145089, -1810.0219142463106, -3538.2364437861975, -6653.957862133725, -4210.822786190843, -3018.401922989121, -3733.0542484586535, -2819.9184322259944, -10115.371360227033, -15076.721021738174, 0.013468750000000002, -0.10068750000000001, 0.9905625, 192.0, 0.0, 0.0, 0.0, 0.0, 0.0, 0.0, 0.0, 0.0, 0.0, 1.64592148696262E9, 0.0, 2022-02-27 11:24:46.962
222.0, -1984.9466663535436, -5026.728514042916, -2313.718475546655, -10766.835304121412, -1305.319524445477, -322.04393411206416, -5858.794553136177, -2069.391556905694, -3408.14929105631, -7194.6018570186925, -4652.783829305628, -3206.9835909585468, -4187.77813765742, -3235.3479546723315, -10290.184353611989, -15458.354706568089, 0.013468750000000002, -0.10068750000000001, 0.9905625, 192.0, 0.0, 0.0, 0.0, 0.0, 0.0, 0.0, 0.0, 0.0, 0.0, 1.645921486969973E9, 0.0, 2022-02-27 11:24:46.969
224.0, -1242.2429015926007, -4450.634652451832, -1763.7538032238251, -10167.093296896614, -617.7798650002319, 207.9606304121769, -5485.833345154923, -1627.5199207687285, -1898.2889531003182, -6237.410752464623, -4331.09752310485, -2971.217390443968, -3931.49303573287, -2884.470270212921, -9897.844183187985, -14438.7575314948, 0.015734375000000002, -0.10334375000000001, 0.99128125, 192.0, 0.0, 72.0, 126.0, 88.0, 15.5, 0.0, 0.0, 0.0, 0.0, 1.645921486978034E9, 0.0, 2022-02-27 11:24:46.978
226.0, -1749.4039832835178, -4849.278014812233, -2191.4544333761255, -10625.907555330701, -1107.2830685714566, -200.9868861421211, -5890.623437240534, -2129.4283425126487, -4662.998576521704, -7265.658052642114, -4393.794166301986, -3173.34421555331, -3864.1472296890297, -3011.2270130189677, -10368.236645249921, -15758.695096814048, 0.015734375000000002, -0.10334375000000001, 0.99128125, 192.0, 0.0, 0.0, 0.0, 0.0, 0.0, 0.0, 0.0, 0.0, 0.0, 1.645921486986045E9, 0.0, 2022-02-27 11:24:46.986
228.0, -1670.2788079117308, -4775.025519731703, -2060.02617597892, -10475.904998291135, -1005.2250033885246, -63.121326341787146, -5647.749381989167, -1775.041434173755, -1717.888023601535, -6512.694837176185, -4586.376796528912, -3053.471810039498, -4205.97245764404, -3131.4793981885196, -9987.139402286935, -14614.50929814688, 0.015734375000000002, -0.10334375000000001, 0.99128125, 192.0, 0.0, 0.0, 0.0, 0.0, 0.0, 0.0, 0.0, 0.0, 0.0, 1.645921486992687E9, 0.0, 2022-02-27 11:24:46.992
230.0, -1209.2070232876567, -4426.517120184555, -1784.9656087119115, -10202.610218836096, -622.1831586579274, 175.05886257396492, -5609.684361181779, -1804.3222194102073, -3464.520390572595, -6626.755789131616, -4205.413664032658, -3010.556460685308, -3743.581920097103, -2807.692028008941, -10103.234362987801, -15046.345001023414, 0.015734375000000002, -0.10334375000000001, 0.99128125, 192.0, 0.0, 0.0, 0.0, 0.0, 0.0, 0.0, 0.0, 0.0, 0.0, 1.645921487000628E9, 0.0, 2022-02-27 11:24:47.000
232.0, -1984.454927975527, -5024.560394830751, -2310.2986586449933, -10770.791562890001, -1305.5653936344854, -326.38017253639373, -5875.267788799738, -2055.9358067435987, -3448.87416945388, -7202.357912344684, -4650.861579282472, -3211.1186636827783, -4195.534192983412, -3256.045670037946, -10297.783946726793, -15472.212788130379, 0.015734375000000002, -0.10334375000000001, 0.99128125, 192.0, 0.0, 0.0, 0.0, 0.0, 0.0, 0.0, 0.0, 0.0, 0.0, 1.645921487014947E9, 0.0, 2022-02-27 11:24:47.014
234.0, -1229.6365177198074, -4434.072009810449, -1755.4613060309061, -10167.741497485817, -621.1102749240727, 202.216232087163, -5514.197708868708, -1613.7735979287147, -1845.7623536303465, -6202.631438092165, -4320.100464832838, -2965.2941781633112, -3929.883710132088, -2898.127186075114, -9894.469069775232, -14429.503909290304, 0.014, -0.106, 0.992, 192.0, 0.0, 56.0, 126.0, 88.0, 15.5, 0.0, 0.0, 0.0, 0.0, 1.645921487022254E9, 0.0, 2022-02-27 11:24:47.022
236.0, -1744.754820436814, -4850.440305523909, -2189.1298519527736, -10633.305982745407, -1109.4064842947107, -201.5903832424144, -5886.331902305115, -2123.214557554073, -4639.149265187892, -7268.027337554377, -4378.8855527502965, -3173.947712653603, -3858.939273230943, -2990.663408120085, -10365.420325448553, -15746.938079230558, 0.014, -0.106, 0.992, 192.0, 0.0, 0.0, 0.0, 0.0, 0.0, 0.0, 0.0, 0.0, 0.0, 1.645921487030433E9, 0.0, 2022-02-27 11:24:47.030
238.0, -1666.5684183321498, -4775.986644743281, -2060.7861352904006, -10477.335509936274, -1004.4650440770441, -78.43227129367249, -5637.758152217645, -1804.3222194102073, -1692.4293866669402, -6506.257534773056, -4584.253380805657, -3050.7001937270397, -4205.279553565926, -3139.883654103715, -9985.127745285958, -14622.17594649505, 0.014, -0.106, 0.992, 192.0, 0.0, 0.0, 0.0, 0.0, 0.0, 0.0, 0.0, 0.0, 0.0, 1.645921487038403E9, 0.0, 2022-02-27 11:24:47.038
240.0, -1217.9018518807711, -4438.430599979234, -1796.4097018730286, -10193.624817565062, -629.067495950162, 180.89266787680006, -5617.865099652422, -1769.5652567822049, -3464.1404109168543, -6635.607079935919, -4227.720704999055, -3020.4135799900987, -3765.5313331522148, -2824.254670650324, -10107.324732223122, -15040.98058235414, 0.014, -0.106, 0.992, 192.0, 0.0, 0.0, 0.0, 0.0, 0.0, 0.0, 0.0, 0.0, 0.0, 1.645921487046449E9, 0.0, 2022-02-27 11:24:47.046
242.0, -1989.6181809447028, -5033.1881681905, -2324.8943477743087, -10769.405754733772, -1318.5964606519296, -317.86415789892175, -5875.960692877852, -2083.2496384679844, -3523.6184029124265, -7242.6134041086925, -4658.327061930545, -3224.0156202334906, -4210.018123390451, -3252.0447077804456, -10313.810147501248, -15499.59367508813, 0.014, -0.106, 0.992, 192.0, 0.0, 0.0, 0.0, 0.0, 0.0, 0.0, 0.0, 0.0, 0.0, 1.645921487052929E9, 0.0, 2022-02-27 11:24:47.052
244.0, -1243.9863376601145, -4446.83485589443, -1773.4768120618835, -10177.039823179224, -640.4445338779133, 193.96843838315468, -5496.875106915844, -1627.050534135167, -1834.1617982580422, -6239.824740865796, -4340.082924375883, -2971.9549980109928, -3958.583350012702, -2884.559677190742, -9897.86653493244, -14421.054949886198, 0.012, -0.10400000000000001, 0.988, 192.0, 0.0, 48.0, 126.0, 96.0, 15.0, 112.0, 0.0, 0.0, 0.0, 1.645921487060861E9, 0.0, 2022-02-27 11:24:47.060
246.0, -1719.8773288580574, -4830.346087258588, -2178.1104419363073, -10619.067921527378, -1107.3724755492779, -202.1938803427077, -5886.823640683132, -2118.833615640833, -4652.7167740722625, -7249.788314078845, -4380.226657417615, -3179.0439103894128, -3864.2366366668507, -3002.7780536148616, -10365.800305104292, -15741.93128847257, 0.012, -0.10400000000000001, 0.988, 192.0, 0.0, 0.0, 0.0, 0.0, 0.0, 0.0, 0.0, 0.0, 0.0, 1.645921487068009E9, 0.0, 2022-02-27 11:24:47.068
248.0, -1683.6451510960044, -4786.044929748169, -2077.5052401429703, -10497.0273968014, -1031.6447653346975, -103.35446636133986, -5659.461696083748, -1803.2493356763525, -1756.0871548756547, -6565.891988979815, -4594.24461057718, -3071.822592237305, -4216.656591493677, -3148.1537995521785, -10001.958608860805, -14656.284708533849, 0.012, -0.10400000000000001, 0.988, 192.0, 0.0, 0.0, 0.0, 0.0, 0.0, 0.0, 0.0, 0.0, 0.0, 1.645921487075691E9, 0.0, 2022-02-27 11:24:47.075
250.0, -1194.0748922914138, -4408.591021131399, -1782.6633790330147, -10181.800744748205, -617.5563475556788, 196.78475818452338, -5600.922477355299, -1777.4107190860177, -3388.8150321024696, -6604.247582465123, -4214.756693214977, -3012.2998967528224, -3748.5440073661816, -2808.69785650943, -10088.392804669476, -15013.934971563218, 0.012, -0.10400000000000001, 0.988, 192.0, 0.0, 0.0, 0.0, 0.0, 0.0, 0.0, 0.0, 0.0, 0.0, 1.645921487082644E9, 0.0, 2022-02-27 11:24:47.082
252.0, -1983.0467680748427, -5022.794607018782, -2329.297641432004, -10769.472809967137, -1326.3748677223764, -342.339318077483, -5893.618570997545, -2102.963877077565, -3582.2693803631523, -7225.447264367016, -4645.988898991215, -3221.8251492768704, -4176.244637518482, -3247.7531728450267, -10318.079330692211, -15525.029960278269, 0.012, -0.10400000000000001, 0.988, 192.0, 0.0, 0.0, 0.0, 0.0, 0.0, 0.0, 0.0, 0.0, 0.0, 1.645921487090522E9, 0.0, 2022-02-27 11:24:47.090
254.0, -1254.4022505762878, -4458.904797900295, -1780.3164458652075, -10173.888227211026, -642.6126530900781, 187.3299702799285, -5512.655438501291, -1638.338165085097, -1796.9684954844113, -6228.4700546825, -4342.653374988243, -2958.8345240157278, -3964.774783226822, -2908.1407675910914, -9904.884982691407, -14421.524336519758, 0.014, -0.108, 0.99, 192.0, 0.0, 56.0, 126.0, 80.0, 15.0, 120.0, 0.0, 0.0, 0.0, 1.645921487097715E9, 0.0, 2022-02-27 11:24:47.097
0.0, -1726.0911138166325, -4835.062305338658, -2177.9986832140307, -10611.513031901482, -1104.1761760921688, -209.07821763494226, -5895.093786131595, -2139.866607173277, -4646.055954224581, -7257.186741493552, -4376.136288182293, -3165.0964218493014, -3854.938310973443, -2999.179422757557, -10362.559302158274, -15729.30255285532, 0.014, -0.108, 0.99, 192.0, 0.0, 0.0, 0.0, 0.0, 0.0, 0.0, 0.0, 0.0, 0.0, 1.645921487105247E9, 0.0, 2022-02-27 11:24:47.105
2.0, -1700.1630902484765, -4801.132357255502, -2083.674321612635, -10502.213001515032, -1046.106343997281, -108.51771933051579, -5667.374213620927, -1813.0617514922324, -1769.20762887092, -6575.3020733955, -4603.252363592668, -3071.8672957262156, -4218.534138027923, -3148.1090960632678, -10003.433823994854, -14659.771580668878, 0.014, -0.108, 0.99, 192.0, 0.0, 0.0, 0.0, 0.0, 0.0, 0.0, 0.0, 0.0, 0.0, 1.645921487113139E9, 0.0, 2022-02-27 11:24:47.113
4.0, -1202.9708865846262, -4425.243070750603, -1783.1551174110316, -10179.453811580397, -620.5961848016005, 181.0044265990766, -5600.274276766095, -1763.1503061235317, -3373.302921450487, -6626.2193472646895, -4222.177472374138, -3017.954888100015, -3755.920083036433, -2810.3295338546677, -10088.973950025314, -14998.06523299995, 0.014, -0.108, 0.99, 192.0, 0.0, 0.0, 0.0, 0.0, 0.0, 0.0, 0.0, 0.0, 0.0, 1.645921487120243E9, 0.0, 2022-02-27 11:24:47.120
6.0, -1995.2061170585296, -5034.126941457623, -2332.203368211194, -10770.433934978717, -1325.324335732977, -340.88645468788803, -5901.285219345716, -2100.4604816985707, -3624.5141773836826, -7272.408279467617, -4649.96750950426, -3222.6745155661724, -4176.289341007393, -3255.106896770823, -10325.343647640188, -15536.965791817403, 0.014, -0.108, 0.99, 192.0, 0.0, 0.0, 0.0, 0.0, 0.0, 0.0, 0.0, 0.0, 0.0, 1.645921487127804E9, 0.0, 2022-02-27 11:24:47.127
8.0, -1273.4012333632986, -4466.8173154374745, -1787.0890244351656, -10179.744384258316, -653.9896910178294, 178.59043819790344, -5504.608810497381, -1639.0534209076668, -1787.6701697910037, -6243.490426956467, -4344.486218033579, -2966.1435444526132, -3956.7058034784563, -2908.990133880393, -9900.347578566978, -14416.271676572762, 0.014, -0.108, 0.992, 192.0, 0.0, 56.0, 126.0, 80.0, 15.5, 0.0, 0.0, 0.0, 0.0, 1.645921487142875E9, 0.0, 2022-02-27 11:24:47.142
10.0, -1727.1639975504872, -4836.917500128448, -2171.4943255775365, -10605.701578343103, -1093.7155596870853, -192.62733371583627, -5877.391204522992, -2112.642182426713, -4653.543788617109, -7244.178026220564, -4372.1353259247935, -3176.875791177248, -3841.8625404670884, -2991.1998499870124, -10356.345517199697, -15725.033369664357, 0.014, -0.108, 0.992, 192.0, 0.0, 0.0, 0.0, 0.0, 0.0, 0.0, 0.0, 0.0, 0.0, 1.645921487151368E9, 0.0, 2022-02-27 11:24:47.151
12.0, -1723.4089044819957, -4825.674572667429, -2087.898801314688, -10513.791205142881, -1047.5368556424207, -119.09009445787603, -5663.909693230355, -1816.3474579271626, -1792.0734634486992, -6577.894875752316, -4606.940401427794, -3078.595170807263, -4216.589536260311, -3163.3529857817875, -10008.172393819379, -14677.071830877285, 0.014, -0.108, 0.992, 192.0, 0.0, 0.0, 0.0, 0.0, 0.0, 0.0, 0.0, 0.0, 0.0, 1.64592148715758E9, 0.0, 2022-02-27 11:24:47.157
14.0, -1216.6725059357293, -4447.237187294625, -1777.4777743193836, -10180.191419147422, -611.3425625971034, 185.38536851231677, -5591.53474468407, -1762.0550706452216, -3348.224264171632, -6625.772312375583, -4222.557452029879, -3024.0792660807692, -3756.4118214144496, -2838.1798074459803, -10082.33548192209, -14992.164372463749, 0.014, -0.108, 0.992, 192.0, 0.0, 0.0, 0.0, 0.0, 0.0, 0.0, 0.0, 0.0, 0.0, 1.645921487165473E9, 0.0, 2022-02-27 11:24:47.165
16.0, -2024.8445302062669, -5068.3027587297875, -2337.500731647102, -10784.873161896845, -1326.1066467889127, -341.62406225491316, -5894.758509964766, -2101.3321997323274, -3691.9046869164335, -7290.468488987504, -4649.96750950426, -3243.5063413985185, -4169.4497072040685, -3253.363460703309, -10328.271726163832, -15559.473998483898, 0.014, -0.108, 0.992, 192.0, 0.0, 0.0, 0.0, 0.0, 0.0, 0.0, 0.0, 0.0, 0.0, 1.645921487173433E9, 0.0, 2022-02-27 11:24:47.173
18.0, -1298.9045737868041, -4497.84153674144, -1792.2522774043416, -10187.992177962326, -657.3424526861254, 184.29013303400674, -5499.557316250482, -1620.2556038207538, -1772.2251143723863, -6258.600206208254, -4355.3491658388575, -2985.6342656176407, -3964.3053965932604, -2918.668439229541, -9893.977331397216, -14407.532144490737, 0.014, -0.1, 0.994, 192.0, 0.0, 56.0, 126.0, 112.0, 15.5, 8.0, 0.0, 0.0, 0.0, 1.645921487180004E9, 0.0, 2022-02-27 11:24:47.180
20.0, -1718.6479829130153, -4835.822264650138, -2160.698433005623, -10592.223476436553, -1066.7370041295296, -168.6886154042024, -5862.192018293384, -2106.3389904903165, -4643.530207101132, -7246.05557275481, -4360.668881019221, -3177.568695255363, -3830.3513920726054, -2980.627474859652, -10346.913081039558, -15706.883753166647, 0.014, -0.1, 0.994, 192.0, 0.0, 0.0, 0.0, 0.0, 0.0, 0.0, 0.0, 0.0, 0.0, 1.645921487188091E9, 0.0, 2022-02-27 11:24:47.188
22.0, -1748.9345966499563, -4845.969956632848, -2106.6519149126907, -10529.727998939516, -1049.8390853213175, -112.63044031029229, -5656.801838493567, -1812.4359026474838, -1835.5699581587266, -6622.330143729466, -4612.304820097068, -3100.8351565402936, -4216.321315326848, -3159.374375268743, -10011.279286298668, -14693.43330781857, 0.014, -0.1, 0.994, 192.0, 0.0, 0.0, 0.0, 0.0, 0.0, 0.0, 0.0, 0.0, 0.0, 1.645921487195057E9, 0.0, 2022-02-27 11:24:47.195
24.0, -1219.712343181651, -4443.347983759401, -1776.7401667523584, -10172.68123301044, -591.2036408428718, 202.37269429835015, -5570.904084551822, -1749.6498524725262, -3301.8890979157804, -6591.9988265036145, -4231.006411433985, -3034.1375510856574, -3756.8365045591004, -2819.4937490813436, -10066.130467191992, -14954.367572589825, 0.014, -0.1, 0.994, 192.0, 0.0, 0.0, 0.0, 0.0, 0.0, 0.0, 0.0, 0.0, 0.0, 1.64592148720312E9, 0.0, 2022-02-27 11:24:47.203
26.0, -2027.8396639632779, -5068.5933314077065, -2338.8641880588757, -10786.460135753172, -1319.7587513636056, -339.18772210928466, -5889.371739551037, -2110.138787047719, -3732.6072135695476, -7293.933009378077, -4641.853826266984, -3241.718201842094, -4159.145553010172, -3236.778466317471, -10327.779987785816, -15569.1746555775, 0.014, -0.1, 0.994, 192.0, 0.0, 0.0, 0.0, 0.0, 0.0, 0.0, 0.0, 0.0, 0.0, 1.645921487209742E9, 0.0, 2022-02-27 11:24:47.209
28.0, -1318.4399984407423, -4514.158310193814, -1802.8693560206123, -10199.704492056906, -660.6505108655108, 180.80326089897883, -5497.031569127032, -1626.536444012695, -1757.7188322208922, -6252.945214861062, -4366.748555511064, -2997.570097156775, -3972.2402658748947, -2918.6237357406303, -9886.310683049045, -14404.112327589075, 0.014, -0.098, 0.992, 192.0, 0.0, 56.0, 126.0, 120.0, 15.5, 0.0, 0.0, 0.0, 0.0, 1.645921487217843E9, 0.0, 2022-02-27 11:24:47.217
30.0, -1718.8044451242024, -4833.72120067134, -2155.9375114366426, -10585.026214721944, -1055.561131901876, -157.84801934337847, -5863.533122960702, -2107.210708524073, -4644.87131176845, -7225.782540533846, -4360.95945369714, -3185.436509303631, -3823.623516991558, -2962.790782784317, -10335.737208811905, -15696.19961931701, 0.014, -0.098, 0.992, 192.0, 0.0, 0.0, 0.0, 0.0, 0.0, 0.0, 0.0, 0.0, 0.0, 1.645921487225721E9, 0.0, 2022-02-27 11:24:47.225
32.0, -1754.7460502083363, -4853.256625325278, -2105.1096445452745, -10525.45881574855, -1047.0674690088595, -110.59643156485934, -5668.894132243888, -1827.880958066101, -1851.909083355556, -6636.478797969676, -4611.5672125300425, -3105.618429853729, -4219.562318272868, -3155.462819989064, -10009.692312442341, -14703.178668401084, 0.014, -0.098, 0.992, 192.0, 0.0, 0.0, 0.0, 0.0, 0.0, 0.0, 0.0, 0.0, 0.0, 1.645921487232781E9, 0.0, 2022-02-27 11:24:47.232
34.0, -1204.9601918411483, -4426.941803329206, -1768.9617596819116, -10169.619044020063, -575.2668470462379, 213.10153163689753, -5571.0605467630085, -1744.4195442699845, -3256.068021782401, -6578.654835063796, -4212.342704813803, -3040.530149999875, -3749.7062980778574, -2822.1983101604355, -10058.03913569917, -14944.465749796123, 0.014, -0.098, 0.992, 192.0, 0.0, 0.0, 0.0, 0.0, 0.0, 0.0, 0.0, 0.0, 0.0, 1.64592148724034E9, 0.0, 2022-02-27 11:24:47.240
36.0, -2025.962117429032, -5063.631244138628, -2338.439504914225, -10788.315330542962, -1307.8005680800163, -329.95645164924287, -5870.976253864319, -2101.1086822877746, -3773.399147200483, -7298.11278559122, -4631.370858117444, -3255.799800848937, -4141.733544079488, -3222.1157219547895, -10325.678923807016, -15583.166847606522, 0.014, -0.098, 0.992, 192.0, 0.0, 0.0, 0.0, 0.0, 0.0, 0.0, 0.0, 0.0, 0.0, 1.64592148724842E9, 0.0, 2022-02-27 11:24:47.248
38.0, -1317.8141495959937, -4518.092217217948, -1796.0520739617436, -10201.626742080063, -660.0917172541282, 177.9198858642442, -5474.121031060342, -1615.7405514407817, -1725.6440789275264, -6250.575929948799, -4353.382212326791, -2992.272733720867, -3973.2907978642943, -2918.5343287628093, -9876.319453277523, -14396.758603663278, 0.016, -0.1, 0.996, 192.0, 0.0, 64.0, 126.0, 112.0, 15.5, 16.0, 0.0, 0.0, 0.0, 1.645921487261971E9, 0.0, 2022-02-27 11:24:47.261
40.0, -1674.4809358693285, -4798.04781652067, -2129.2048250680955, -10564.216740634054, -1026.8167885323512, -132.67995508670273, -5836.688677869878, -2080.7462430889896, -4621.424331834833, -7209.421063592561, -4330.806950426931, -3173.8583056757816, -3813.1629005864743, -2960.2650356608674, -10323.622563317129, -15684.57671220025, 0.016, -0.1, 0.996, 192.0, 0.0, 0.0, 0.0, 0.0, 0.0, 0.0, 0.0, 0.0, 0.0, 1.645921487270128E9, 0.0, 2022-02-27 11:24:47.270
42.0, -1762.077422389677, -4847.109895600069, -2117.738380162523, -10540.814464189347, -1062.244303494013, -112.22810891009676, -5660.199303650774, -1834.5417779137824, -1909.4648253279718, -6636.523501458586, -4602.380645558911, -3109.3958746666763, -4216.790701960409, -3154.1887705551117, -10016.040207867647, -14738.91910778512, 0.016, -0.1, 0.996, 192.0, 0.0, 0.0, 0.0, 0.0, 0.0, 0.0, 0.0, 0.0, 0.0, 1.645921487278076E9, 0.0, 2022-02-27 11:24:47.278
44.0, -1187.749348610562, -4409.261573465058, -1754.9248641639788, -10148.653107720984, -565.6555969304559, 226.19965388770748, -5538.650517302814, -1738.2504628003196, -3170.6620062186726, -6541.662697990263, -4199.289286051904, -3009.796501373828, -3740.8997107624664, -2790.682350478453, -10040.872995957494, -14906.110156310817, 0.016, -0.1, 0.996, 192.0, 0.0, 0.0, 0.0, 0.0, 0.0, 0.0, 0.0, 0.0, 0.0, 1.6459214872852E9, 0.0, 2022-02-27 11:24:47.285
46.0, -2015.4567975350378, -5050.957805032469, -2336.3607926798813, -10779.017004849555, -1318.194129251734, -332.370440050416, -5877.100631845073, -2083.2943419568946, -3795.683836422424, -7296.30229429034, -4617.110445154959, -3235.7726378169823, -4138.403134155647, -3205.7318932690496, -10327.265897663343, -15589.827667454205, 0.016, -0.101, 0.992, 192.0, 0.0, 64.0, 126.0, 104.0, 15.0, 112.0, 0.0, 0.0, 0.0, 1.645921487292624E9, 0.0, 2022-02-27 11:24:47.292
48.0, -1315.0425332835357, -4514.806510783018, -1804.3222194102073, -10200.68796881294, -667.3336824576477, 181.94319986619948, -5481.385348008317, -1605.279935035698, -1699.0231512812557, -6247.0890578137705, -4352.5775495264, -2983.9355330390376, -3971.1226786521293, -2900.161194820547, -9877.772316667119, -14384.643958168503, 0.016, -0.101, 0.992, 192.0, 0.0, 0.0, 0.0, 0.0, 0.0, 0.0, 0.0, 0.0, 0.0, 1.645921487300767E9, 0.0, 2022-02-27 11:24:47.300
50.0, -1670.8152497786582, -4800.439453177387, -2127.416685511671, -10564.104981911776, -1031.9353380126165, -132.12116147532004, -5861.722631659822, -2075.873562797733, -4598.647904234875, -7184.3871098026175, -4322.223880556093, -3162.9953578705026, -3798.142528312508, -2923.183491609513, -10324.42722611752, -15672.931453339035, 0.016, -0.101, 0.992, 192.0, 0.0, 0.0, 0.0, 0.0, 0.0, 0.0, 0.0, 0.0, 0.0, 1.645921487308754E9, 0.0, 2022-02-27 11:24:47.308
52.0, -1763.3738235680848, -4852.384907291521, -2112.5527754488917, -10544.055467135366, -1078.3822629907445, -125.86267302783406, -5676.426670125326, -1834.2288534914082, -1896.5455170328044, -6654.851931911938, -4600.078415880014, -3116.3472671922764, -4215.851928693286, -3177.1440121107116, -10026.657286483918, -14741.757779330943, 0.016, -0.101, 0.992, 192.0, 0.0, 0.0, 0.0, 0.0, 0.0, 0.0, 0.0, 0.0, 0.0, 1.645921487314911E9, 0.0, 2022-02-27 11:24:47.314
54.0, -1198.7017033936625, -4430.205158019681, -1752.1308961070654, -10156.185645602423, -581.7041494493664, 216.4319415607383, -5544.283156905551, -1739.5021604898168, -3182.5754860133516, -6559.275872621045, -4207.7829489449205, -3027.9461178715374, -3756.367117925539, -2804.9874669298492, -10050.305432117633, -14916.906048882729, 0.016, -0.101, 0.992, 192.0, 0.0, 0.0, 0.0, 0.0, 0.0, 0.0, 0.0, 0.0, 0.0, 1.645921487322239E9, 0.0, 2022-02-27 11:24:47.322
56.0, -2013.3110300673284, -5060.569055148251, -2337.433676413736, -10788.941179387712, -1321.1445595198345, -337.9136726753322, -5891.472803529836, -2117.023124339953, -3860.5038953428148, -7319.123425379208, -4610.807253218562, -3247.5743588893843, -4128.613070084223, -3209.9787247155577, -10332.675019821527, -15618.326141634721, 0.012, -0.1015, 0.989, 192.0, 0.0, 32.0, 126.0, 104.0, 15.0, 104.0, 0.0, 0.0, 0.0, 1.64592148733032E9, 0.0, 2022-02-27 11:24:47.330
58.0, -1333.3933154813428, -4513.5995165824315, -1813.397027659062, -10217.1612044765, -684.321008243681, 168.6662636597471, -5485.9451038771995, -1624.6588974784493, -1673.5868660911162, -6236.8743105976955, -4367.530866567, -3000.2970099803224, -3979.5269345673246, -2918.444921784988, -9873.86076138744, -14388.935493103922, 0.012, -0.1015, 0.989, 192.0, 0.0, 0.0, 0.0, 0.0, 0.0, 0.0, 0.0, 0.0, 0.0, 1.64592148733824E9, 0.0, 2022-02-27 11:24:47.338
60.0, -1667.5295433437282, -4795.656179863951, -2111.6140021817687, -10541.75323745647, -1019.4183611176445, -119.58183283589278, -5834.207634235338, -2051.577216574814, -4589.818965175029, -7181.056699878776, -4326.269546302503, -3173.9253609091475, -3802.076435336642, -2938.0026981833817, -10313.810147501248, -15650.356191439176, 0.012, -0.1015, 0.989, 192.0, 0.0, 0.0, 0.0, 0.0, 0.0, 0.0, 0.0, 0.0, 0.0, 1.645921487344931E9, 0.0, 2022-02-27 11:24:47.344
62.0, -1816.0121817603329, -4902.408111382498, -2135.3292030488496, -10557.980603931022, -1107.819510438384, -139.36312667883954, -5678.572437593036, -1837.6263186486149, -1979.939875595555, -6690.32415036251, -4622.564270802053, -3129.2442237429887, -4228.905347455186, -3160.938997380614, -10038.928394189883, -14771.73146864551, 0.012, -0.1015, 0.989, 192.0, 0.0, 0.0, 0.0, 0.0, 0.0, 0.0, 0.0, 0.0, 0.0, 1.645921487353001E9, 0.0, 2022-02-27 11:24:47.353
64.0, -1234.0174596330476, -4470.795925950519, -1748.2863960607526, -10144.249814063289, -579.4913267482909, 225.12677015385273, -5536.169473668275, -1720.2349567693423, -3106.892479287682, -6535.046581631492, -4221.015181662462, -3023.654582936118, -3764.7713738407347, -2794.7950714582294, -10032.826367953583, -14869.319184937382, 0.012, -0.1015, 0.989, 192.0, 0.0, 0.0, 0.0, 0.0, 0.0, 0.0, 0.0, 0.0, 0.0, 1.645921487360913E9, 0.0, 2022-02-27 11:24:47.360
66.0, -2095.9454293185986, -5142.264681132398, -2335.8690543018647, -10784.023795607543, -1322.5750711649741, -335.5667395075249, -5899.765300722755, -2120.4876447305255, -3907.3755034655937, -7336.624841287714, -4621.647849279386, -3258.8619898393144, -4127.964869495019, -3198.5122798099856, -10339.559357113762, -15621.835365514204, 0.011, -0.10375000000000001, 0.9884999999999999, 192.0, 0.0, 40.0, 126.0, 88.0, 15.0, 112.0, 0.0, 0.0, 0.0, 1.645921487368129E9, 0.0, 2022-02-27 11:24:47.368
68.0, -1451.2764157386323, -4657.187122963324, -1808.591402601171, -10219.754006833316, -678.5542581742118, 162.49718219008236, -5487.621484711348, -1639.1651796299434, -1694.016360523267, -6266.646834212164, -4386.887477265296, -3015.0044578319144, -3987.506507337869, -2910.4877007588984, -9872.273787531112, -14383.28050175673, 0.011, -0.10375000000000001, 0.9884999999999999, 192.0, 0.0, 0.0, 0.0, 0.0, 0.0, 0.0, 0.0, 0.0, 0.0, 1.645921487375513E9, 0.0, 2022-02-27 11:24:47.375
70.0, -1800.9247542530006, -4952.78894338476, -2107.210708524073, -10546.42475204763, -990.1599276256476, -109.72471353110237, -5824.708142841833, -2055.064088709842, -4621.692552768297, -7213.645543294614, -4352.041107659472, -3206.849480491815, -3787.860725863067, -2931.3195265912445, -10306.903458464558, -15646.399932670587, 0.011, -0.10375000000000001, 0.9884999999999999, 192.0, 0.0, 0.0, 0.0, 0.0, 0.0, 0.0, 0.0, 0.0, 0.0, 1.645921487390669E9, 0.0, 2022-02-27 11:24:47.390
72.0, -1982.1750500410856, -5079.299817001798, -2136.290328060428, -10580.220589664053, -1085.1548415607026, -123.96277474913298, -5674.459716613259, -1824.0811615086989, -2033.7852279883896, -6748.125761523934, -4671.5592946480865, -3183.424852302653, -4230.112341655772, -3169.6338259737286, -10027.529004517675, -14772.737297145999, 0.011, -0.10375000000000001, 0.9884999999999999, 192.0, 0.0, 0.0, 0.0, 0.0, 0.0, 0.0, 0.0, 0.0, 0.0, 1.645921487397221E9, 0.0, 2022-02-27 11:24:47.397
74.0, -1388.7138830082279, -4620.619669034442, -1754.0307943857665, -10155.828017691138, -554.6808904029001, 241.5329505840481, -5531.587366054937, -1710.1990235089092, -3152.4229827431423, -6571.636387304829, -4279.08501375735, -3095.6048483377517, -3771.4098419439606, -2793.9457051689274, -10021.248164325734, -14860.736115066544, 0.011, -0.10375000000000001, 0.9884999999999999, 192.0, 0.0, 0.0, 0.0, 0.0, 0.0, 0.0, 0.0, 0.0, 0.0, 1.645921487405214E9, 0.0, 2022-02-27 11:24:47.405
76.0, -2213.6273638757903, -5254.492790042495, -2344.8321038284425, -10794.976150390643, -1309.1193210028794, -317.4618264987262, -5889.617608740045, -2133.8539879147993, -4035.898034083609, -7393.554734415381, -4664.294977700112, -3306.60531599585, -4123.382761881681, -3190.242134361522, -10340.989868758901, -15650.736171094915, 0.0115, -0.104875, 0.98925, 192.0, 0.0, 48.0, 126.0, 88.0, 15.0, 120.0, 0.0, 0.0, 0.0, 1.64592148741327E9, 0.0, 2022-02-27 11:24:47.413
78.0, -1547.4783238742739, -4739.575653025586, -1831.5466441567714, -10238.238899497856, -692.5240984587787, 173.82951662892302, -5480.111298574365, -1615.9640688853347, -1702.0406367827222, -6306.589401553799, -4438.341193001413, -3060.780830476383, -4007.2207459474503, -2933.1747213810354, -9870.61975844142, -14389.360176248572, 0.0115, -0.104875, 0.98925, 192.0, 0.0, 0.0, 0.0, 0.0, 0.0, 0.0, 0.0, 0.0, 0.0, 1.645921487420331E9, 0.0, 2022-02-27 11:24:47.420
80.0, -1799.4718908634056, -4943.781190369272, -2090.3351414603167, -10527.693990194082, -959.7168516775193, -84.22137310759702, -5790.197049402839, -2047.419792106127, -4606.314552583045, -7211.030389193344, -4360.355956596846, -3205.1507479132115, -3787.6372084185136, -2934.2699568593453, -10294.56529552523, -15625.769272538339, 0.0115, -0.104875, 0.98925, 192.0, 0.0, 0.0, 0.0, 0.0, 0.0, 0.0, 0.0, 0.0, 0.0, 1.645921487427852E9, 0.0, 2022-02-27 11:24:47.427
82.0, -1969.6357214016584, -5051.136618988111, -2149.254339844506, -10586.546133344906, -1092.4415102531327, -138.84903655636748, -5671.59869332298, -1837.7604291153466, -2096.41481595216, -6759.122819795945, -4674.599131894009, -3169.3209015513544, -4226.983097432029, -3160.715479936061, -10040.425961068388, -14810.735262720022, 0.0115, -0.104875, 0.98925, 192.0, 0.0, 0.0, 0.0, 0.0, 0.0, 0.0, 0.0, 0.0, 0.0, 1.64592148743591E9, 0.0, 2022-02-27 11:24:47.435
84.0, -1329.9958503241362, -4560.024089816105, -1736.954061621912, -10152.050572878192, -551.9316258348973, 247.61262507589163, -5517.215194370174, -1681.119403972555, -3050.566083260308, -6523.222508814634, -4255.615682079278, -3061.6078450212294, -3764.8384290741005, -2790.8164609451846, -10008.395911263933, -14821.039416913918, 0.0115, -0.104875, 0.98925, 192.0, 0.0, 0.0, 0.0, 0.0, 0.0, 0.0, 0.0, 0.0, 0.0, 1.645921487442873E9, 0.0, 2022-02-27 11:24:47.442
86.0, -2150.9977759120197, -5192.26553347892, -2336.494903146613, -10797.658359725281, -1306.3030012015106, -319.49583524415914, -5890.601085496079, -2114.050342327397, -4009.970010515453, -7378.98139703052, -4639.998631477193, -3297.1505280912556, -4114.866747244209, -3187.8281459603486, -10340.229909447422, -15640.432016901019, 0.01175, -0.10543749999999999, 0.989625, 192.0, 0.0, 48.0, 126.0, 88.0, 15.0, 120.0, 0.0, 0.0, 0.0, 1.645921487450022E9, 0.0, 2022-02-27 11:24:47.450
88.0, -1469.448383980797, -4653.58849210602, -1821.0860277516877, -10234.439102940452, -689.5736681906782, 168.37569098182811, -5478.70313867368, -1613.1253973395108, -1673.0057207352784, -6280.214343096536, -4413.195480489192, -3036.8644639092045, -3995.7990045307884, -2920.3895235525997, -9866.976424095204, -14375.211522008363, 0.01175, -0.10543749999999999, 0.989625, 192.0, 0.0, 0.0, 0.0, 0.0, 0.0, 0.0, 0.0, 0.0, 0.0, 1.645921487457468E9, 0.0, 2022-02-27 11:24:47.457
90.0, -1724.5041399603058, -4862.197323107401, -2084.1437082461966, -10519.312086023341, -965.9306366360947, -81.963846917611, -5795.606171561024, -2040.6248617917136, -4583.404014516355, -7181.8613626791675, -4344.463866289123, -3191.650294262206, -3788.8442026191, -2925.9998114108816, -10297.627484515606, -15622.148289936578, 0.01175, -0.10543749999999999, 0.989625, 192.0, 0.0, 0.0, 0.0, 0.0, 0.0, 0.0, 0.0, 0.0, 0.0, 1.645921487465505E9, 0.0, 2022-02-27 11:24:47.465
92.0, -1902.3346188467287, -4980.750975698349, -2150.28252008945, -10591.463517125072, -1108.5571180054092, -140.39130692378367, -5683.333359162016, -1856.3123770132515, -2090.4469001825933, -6760.307462252076, -4661.478657898743, -3167.1527823391893, -4234.225062635549, -3171.8690004192595, -10046.259766371222, -14825.330951849337, 0.01175, -0.10543749999999999, 0.989625, 192.0, 0.0, 0.0, 0.0, 0.0, 0.0, 0.0, 0.0, 0.0, 0.0, 1.645921487473557E9, 0.0, 2022-02-27 11:24:47.473
94.0, -1258.3361576004218, -4483.98345517915, -1735.5235499767723, -10146.283822808722, -550.4787624453023, 255.23456993515134, -5517.014028670076, -1694.463395412373, -2996.4078064450987, -6509.498537719076, -4244.752734273999, -3052.264815838911, -3773.8908855785, -2799.198365115925, -10005.892515884938, -14821.575858780845, 0.01175, -0.10543749999999999, 0.989625, 192.0, 0.0, 0.0, 0.0, 0.0, 0.0, 0.0, 0.0, 0.0, 0.0, 1.645921487480173E9, 0.0, 2022-02-27 11:24:47.480
96.0, -2078.22049596554, -5116.738988964437, -2330.236414699127, -10796.317255057962, -1313.1426350048346, -325.3296405469943, -5900.949943178885, -2133.876339659255, -4057.780391905355, -7365.279777679418, -4618.697419011285, -3278.240952282066, -4103.1767848940835, -3181.2567330904885, -10350.467008407952, -15674.429020217542, 0.011875, -0.10371875, 0.9918125, 192.0, 0.0, 48.0, 126.0, 104.0, 15.5, 8.0, 0.0, 0.0, 0.0, 1.645921487488235E9, 0.0, 2022-02-27 11:24:47.488
98.0, -1424.0743427365235, -4599.787843202096, -1826.0481150207659, -10241.971640821892, -706.5162904878009, 162.13955427879742, -5516.969325181166, -1632.437304548896, -1627.117589368533, -6252.207607294036, -4409.798015331986, -3026.783827159861, -4013.546289628302, -2931.9453754359934, -9877.012357355638, -14389.382527993028, 0.011875, -0.10371875, 0.9918125, 192.0, 0.0, 0.0, 0.0, 0.0, 0.0, 0.0, 0.0, 0.0, 0.0, 1.645921487496189E9, 0.0, 2022-02-27 11:24:47.496
100.0, -1662.8356770081136, -4792.23636296229, -2072.990187762998, -10514.417053987629, -959.8286103997959, -75.9512276591334, -5787.2466191347385, -2040.2448821359733, -4534.744266837152, -7131.5028824213605, -4318.3123252764135, -3166.504581749986, -3781.401071715483, -2906.017351867837, -10291.838382701682, -15606.211496139944, 0.011875, -0.10371875, 0.9918125, 192.0, 0.0, 0.0, 0.0, 0.0, 0.0, 0.0, 0.0, 0.0, 0.0, 1.645921487509702E9, 0.0, 2022-02-27 11:24:47.509
102.0, -1854.881865368112, -4929.520777406786, -2145.119267120274, -10589.988301991023, -1108.1324348607582, -137.08324874439822, -5663.373251363427, -1846.522312941827, -2090.8268798383333, -6741.129665509423, -4652.806181050084, -3153.473514732542, -4238.158969659683, -3172.047814374902, -10049.925452461894, -14829.533079806934, 0.011875, -0.10371875, 0.9918125, 192.0, 0.0, 0.0, 0.0, 0.0, 0.0, 0.0, 0.0, 0.0, 0.0, 1.645921487517813E9, 0.0, 2022-02-27 11:24:47.517
104.0, -1208.9835058431038, -4427.008858562572, -1725.4205614829734, -10137.611345960064, -542.0521547856516, 264.19761946172946, -5505.592287253415, -1683.4886888848173, -2974.4807451344427, -6487.258551986045, -4232.369867845759, -3040.530149999875, -3772.1921529998963, -2789.4306527889553, -10006.808937407606, -14811.361111564769, 0.011875, -0.10371875, 0.9918125, 192.0, 0.0, 0.0, 0.0, 0.0, 0.0, 0.0, 0.0, 0.0, 0.0, 1.645921487525834E9, 0.0, 2022-02-27 11:24:47.525
106.0, -2051.130181685708, -5089.067529328768, -2324.9166995187643, -10793.925618401245, -1306.6382773683404, -303.2908205140615, -5883.649692970478, -2133.4963600035144, -4079.930970660564, -7363.26812067844, -4605.889869438394, -3272.965940590613, -4098.058235413818, -3187.358759326787, -10350.869339808147, -15678.027651074846, 0.0099375, -0.101859375, 0.99090625, 192.0, 0.0, 32.0, 126.0, 112.0, 15.0, 120.0, 0.0, 0.0, 0.0, 1.645921487532371E9, 0.0, 2022-02-27 11:24:47.532
108.0, -1395.1511854113562, -4575.916180123828, -1821.3766004296067, -10247.827797869182, -710.8972324010412, 165.04528105798735, -5479.776022407535, -1623.3177928111306, -1615.2041095738543, -6254.733354417486, -4396.610486103355, -3007.2036990170122, -4008.6289058481348, -2915.9415264059935, -9867.825790384506, -14380.218312766352, 0.0099375, -0.101859375, 0.99090625, 192.0, 0.0, 0.0, 0.0, 0.0, 0.0, 0.0, 0.0, 0.0, 0.0, 1.64592148754031E9, 0.0, 2022-02-27 11:24:47.540
110.0, -1611.2925542941755, -4747.018783929203, -2053.4100596201492, -10502.972960826512, -947.2669300159133, -43.854122621312456, -5794.823860505087, -2021.0223819044093, -4510.246754914136, -7117.577745625705, -4294.842993598341, -3156.7368694230163, -3762.8714755620335, -2907.380808279611, -10281.288359318776, -15594.901513445559, 0.0099375, -0.101859375, 0.99090625, 192.0, 0.0, 0.0, 0.0, 0.0, 0.0, 0.0, 0.0, 0.0, 0.0, 1.645921487548518E9, 0.0, 2022-02-27 11:24:47.548
112.0, -1839.3474029716735, -4899.927067747959, -2152.3388805793384, -10597.252618938997, -1128.137246148258, -137.28441444449598, -5694.2633622006615, -1855.328900257218, -2121.4040662531934, -6738.0451247745905, -4642.770247789651, -3152.825314143338, -4231.922832956652, -3179.490945278519, -10057.502693832243, -14858.880920276753, 0.0099375, -0.101859375, 0.99090625, 192.0, 0.0, 0.0, 0.0, 0.0, 0.0, 0.0, 0.0, 0.0, 0.0, 1.645921487555527E9, 0.0, 2022-02-27 11:24:47.555
114.0, -1179.6803688621962, -4398.756253571064, -1713.7082473883925, -10122.52391845273, -552.8927508464755, 271.2160672206959, -5515.650572258302, -1686.9755610198451, -2909.0348373693037, -6443.717353787107, -4222.624507263245, -3019.02777183387, -3776.3048739796727, -2790.727053967363, -10000.662207682397, -14792.853867155776, 0.0099375, -0.101859375, 0.99090625, 192.0, 0.0, 0.0, 0.0, 0.0, 0.0, 0.0, 0.0, 0.0, 0.0, 1.645921487562069E9, 0.0, 2022-02-27 11:24:47.562
116.0, -2010.517062010415, -5048.342650931198, -2321.273365172549, -10783.554408973981, -1309.9463355477258, -308.67759092779056, -5897.485422788313, -2150.8189619563773, -4102.081549415773, -7363.379879400716, -4580.297122037068, -3256.5597601604177, -4078.835735182254, -3166.8622096612708, -10352.724534597937, -15692.824505904258, 0.008, -0.10400000000000001, 0.99, 192.0, 0.0, 32.0, 126.0, 96.0, 15.0, 120.0, 0.0, 0.0, 0.0, 1.645921487570106E9, 0.0, 2022-02-27 11:24:47.570
118.0, -1382.902429449848, -4549.451714688744, -1829.780856344802, -10247.581928680174, -724.1294651185829, 164.41943221323876, -5495.42224352625, -1641.7803337312143, -1583.9787225697903, -6251.805275893841, -4395.2023262026705, -2999.9617338134926, -4015.200318717995, -2918.467273529443, -9869.636281685387, -14384.398088979495, 0.008, -0.10400000000000001, 0.99, 192.0, 0.0, 0.0, 0.0, 0.0, 0.0, 0.0, 0.0, 0.0, 0.0, 1.64592148757817E9, 0.0, 2022-02-27 11:24:47.578
120.0, -1571.1488212524441, -4705.377484008966, -2034.0087454329428, -10481.671748360604, -929.2737757293911, -43.921177854678376, -5799.785947774166, -2040.2672338804286, -4470.5724085059655, -7079.512724818316, -4277.98977827904, -3141.0906483043013, -3759.228141215818, -2882.123337045114, -10277.399155783552, -15578.003594637346, 0.008, -0.10400000000000001, 0.99, 192.0, 0.0, 0.0, 0.0, 0.0, 0.0, 0.0, 0.0, 0.0, 0.0, 1.645921487585089E9, 0.0, 2022-02-27 11:24:47.585
122.0, -1827.5009784103609, -4892.752157777805, -2149.6790229891567, -10597.878467783747, -1131.4900078165542, -151.6342343848031, -5702.645266371402, -1870.7292521869247, -2139.2631100729836, -6765.560122199074, -4630.320326128045, -3135.569767423841, -4232.548681801401, -3174.3500440537982, -10072.545417850664, -14877.321109452381, 0.008, -0.10400000000000001, 0.99, 192.0, 0.0, 0.0, 0.0, 0.0, 0.0, 0.0, 0.0, 0.0, 0.0, 1.645921487592615E9, 0.0, 2022-02-27 11:24:47.592
124.0, -1168.8621245458276, -4389.077948221916, -1705.6392676400267, -10128.313020266654, -550.5234659342129, 271.35017768742773, -5501.568973251459, -1681.2088109503761, -2873.0038253073485, -6437.6823827841745, -4216.209556604571, -3011.115254296691, -3774.5390861677038, -2801.9699814283827, -9999.254047781713, -14784.49431472949, 0.008, -0.10400000000000001, 0.99, 192.0, 0.0, 0.0, 0.0, 0.0, 0.0, 0.0, 0.0, 0.0, 0.0, 1.645921487600742E9, 0.0, 2022-02-27 11:24:47.600
126.0, -1999.162375827119, -5035.9597845029575, -2316.0877604589177, -10785.387252019316, -1315.5342716615526, -309.37049500590507, -5903.565097280157, -2136.4244385271595, -4148.796695327365, -7360.7200218105345, -4573.166915555825, -3255.0174897930015, -4075.5947322362344, -3168.4044800286865, -10356.792552088804, -15705.117965354679, 0.008, -0.10400000000000001, 0.99, 192.0, 0.0, 32.0, 126.0, 96.0, 15.0, 120.0, 0.0, 0.0, 0.0, 1.645921487607881E9, 0.0, 2022-02-27 11:24:47.607
128.0, -1387.9092202078368, -4552.893883334861, -1832.9995075463662, -10258.623690441096, -739.127485648094, 143.4087924252501, -5500.3843307953275, -1643.0096796762562, -1570.4335654298743, -6250.28535727088, -4395.8505267918745, -2993.725597110462, -4020.4306269205367, -2934.7169917484516, -9871.826752642006, -14381.738231389312, 0.008, -0.10400000000000001, 0.99, 192.0, 0.0, 0.0, 0.0, 0.0, 0.0, 0.0, 0.0, 0.0, 0.0, 1.645921487615444E9, 0.0, 2022-02-27 11:24:47.615
130.0, -1559.280044946676, -4695.632123426452, -2021.7823412158898, -10473.848637801248, -921.2942029588465, -40.680174908658856, -5780.719909753789, -2026.8785389516997, -4451.327556529946, -7077.344605606152, -4273.340615432336, -3136.5755959243293, -3755.7859725697012, -2867.66175838253, -10272.012385369824, -15560.3233647732, 0.008, -0.10400000000000001, 0.99, 192.0, 0.0, 0.0, 0.0, 0.0, 0.0, 0.0, 0.0, 0.0, 0.0, 1.645921487623332E9, 0.0, 2022-02-27 11:24:47.623
132.0, -1842.0966675396762, -4898.943590991926, -2154.6634620026903, -10605.701578343103, -1144.811647511917, -157.959778065655, -5699.784243081122, -1881.0110546363658, -2200.1939654581506, -6781.899247395903, -4637.4505326092885, -3143.236415772011, -4235.588519047323, -3189.5045267944965, -10076.702842319351, -14900.075185307884, 0.008, -0.10400000000000001, 0.99, 192.0, 0.0, 0.0, 0.0, 0.0, 0.0, 0.0, 0.0, 0.0, 0.0, 1.645921487637389E9, 0.0, 2022-02-27 11:24:47.637
134.0, -1156.009871484026, -4370.81657300193, -1700.4089594374848, -10113.404406714966, -535.9501285493527, 284.15772726031867, -5494.170545836752, -1678.504249871284, -2803.378141329067, -6413.542498772443, -4211.40393154668, -2999.112367524191, -3774.829658845623, -2788.0001411438157, -9982.02085280667, -14749.82675907931, 0.008, -0.10400000000000001, 0.99, 192.0, 0.0, 0.0, 0.0, 0.0, 0.0, 0.0, 0.0, 0.0, 0.0, 1.645921487644939E9, 0.0, 2022-02-27 11:24:47.644
136.0, -1981.7727186408902, -5014.636220292595, -2303.213155652661, -10767.304690754974, -1293.4060446507985, -309.7504746616453, -5916.864385231064, -2176.3670058687935, -4179.172716042128, -7341.721039023524, -4547.037726287571, -3231.235233692555, -4046.5598161887906, -3147.4832472185194, -10361.598177146696, -15719.847764950726, 0.014, -0.11, 0.986, 192.0, 0.0, 56.0, 126.0, 72.0, 15.0, 104.0, 0.0, 0.0, 0.0, 1.645921487652906E9, 0.0, 2022-02-27 11:24:47.652
138.0, -1410.3727233854204, -4567.735441653185, -1839.235644249397, -10263.026984098791, -752.3373666211804, 135.27275744351834, -5477.697310173191, -1636.5947290175832, -1549.1770564528772, -6251.38059274919, -4403.114843739849, -2996.0054750449035, -4029.0136967913745, -2940.4837418179204, -9874.084278831993, -14387.817905881157, 0.014, -0.11, 0.986, 192.0, 0.0, 0.0, 0.0, 0.0, 0.0, 0.0, 0.0, 0.0, 0.0, 1.645921487661051E9, 0.0, 2022-02-27 11:24:47.661
140.0, -1549.8029052976258, -4687.272571000168, -2015.6356114906803, -10461.912806262113, -918.0308482683716, -33.25939574949691, -5766.593607258035, -2013.8251201898004, -4415.698875868186, -7049.471980270384, -4271.396013664725, -3135.3909534681984, -3753.1261149795196, -2877.5859329206864, -10258.958966607925, -15534.887079583059, 0.014, -0.11, 0.986, 192.0, 0.0, 0.0, 0.0, 0.0, 0.0, 0.0, 0.0, 0.0, 0.0, 1.645921487667523E9, 0.0, 2022-02-27 11:24:47.667
142.0, -1839.0344785492991, -4896.104919446101, -2156.8762847037656, -10609.233153967041, -1147.8067812689283, -163.346548479384, -5709.931935063832, -1893.0362931533211, -2203.7255410820894, -6780.021700861657, -4633.628384307431, -3141.850607615782, -4228.726533499544, -3185.7047302370943, -10077.552208608653, -14908.993531345552, 0.014, -0.11, 0.986, 192.0, 0.0, 0.0, 0.0, 0.0, 0.0, 0.0, 0.0, 0.0, 0.0, 1.645921487675732E9, 0.0, 2022-02-27 11:24:47.675
144.0, -1146.756249279529, -4371.263607891036, -1694.463395412373, -10116.868927105537, -537.8723785725092, 264.8681717953887, -5500.876069173345, -1681.633494095027, -2775.9525508824054, -6419.443359308643, -4210.599268746289, -2997.0113035453924, -3770.247551232285, -2791.777585956763, -9976.276454481656, -14740.439026408081, 0.014, -0.11, 0.986, 192.0, 0.0, 0.0, 0.0, 0.0, 0.0, 0.0, 0.0, 0.0, 0.0, 1.645921487683727E9, 0.0, 2022-02-27 11:24:47.683
146.0, -1981.7950703853453, -5017.676057538517, -2303.660190541767, -10782.637987451315, -1304.4701581561756, -324.86025391343287, -5885.5048877602685, -2164.8111539853994, -4195.9812278725185, -7348.694783293579, -4542.701487863242, -3243.8639693098035, -4039.7872376188325, -3149.271386774944, -10353.171569487044, -15723.82637546377, 0.016, -0.108, 0.99, 192.0, 0.0, 64.0, 126.0, 80.0, 15.0, 120.0, 0.0, 0.0, 0.0, 1.645921487690712E9, 0.0, 2022-02-27 11:24:47.690
148.0, -1407.6011070729623, -4560.0911450494705, -1841.2473012503747, -10276.773306938805, -764.6308260715994, 122.42050438171678, -5490.37074927935, -1644.0602116656557, -1544.4161348838968, -6247.446685725055, -4401.907849539262, -3000.073492535769, -4029.840711336221, -2946.6528232875853, -9862.215502526225, -14385.247455268796, 0.016, -0.108, 0.99, 192.0, 0.0, 0.0, 0.0, 0.0, 0.0, 0.0, 0.0, 0.0, 0.0, 1.645921487697204E9, 0.0, 2022-02-27 11:24:47.697
150.0, -1510.3297245895535, -4656.1812944628355, -1989.9311053670772, -10436.834148983258, -890.8511270107183, -20.92123281016741, -5761.89974092242, -1997.9777333709876, -4398.800957059974, -7027.187291048443, -4259.884865270241, -3119.208290482556, -3740.363268895539, -2884.76084289084, -10247.492521702352, -15521.297218954232, 0.016, -0.108, 0.99, 192.0, 0.0, 0.0, 0.0, 0.0, 0.0, 0.0, 0.0, 0.0, 0.0, 1.645921487705319E9, 0.0, 2022-02-27 11:24:47.705
152.0, -1848.3104524982516, -4905.9396870064365, -2165.6158167857907, -10624.05236054091, -1161.7989732979504, -187.62054295784748, -5695.425652912338, -1910.716523017469, -2286.8069752224656, -6814.488090811741, -4633.114294184958, -3143.5493401943854, -4218.467082794557, -3191.627942517751, -10078.625092342507, -14945.851557952352, 0.016, -0.108, 0.99, 192.0, 0.0, 0.0, 0.0, 0.0, 0.0, 0.0, 0.0, 0.0, 0.0, 1.645921487713228E9, 0.0, 2022-02-27 11:24:47.713
154.0, -1152.6347580712745, -4372.448250347167, -1699.1125582590769, -10118.053569561669, -546.9918903102745, 261.87303803837756, -5479.239580540608, -1663.66269155296, -2728.7233148483415, -6407.149899858225, -4217.327143827337, -2995.603143644708, -3777.2659989912513, -2778.6571119614973, -9961.88193105244, -14719.651904064645, 0.016, -0.108, 0.99, 192.0, 0.0, 0.0, 0.0, 0.0, 0.0, 0.0, 0.0, 0.0, 0.0, 1.645921487720334E9, 0.0, 2022-02-27 11:24:47.720
156.0, -1974.1507737816303, -5010.925830713014, -2304.889536486809, -10773.205551291174, -1308.3146582024883, -319.4511317552485, -5897.440719299402, -2142.727630463556, -4230.112341655772, -7350.102943194264, -4552.357441467934, -3231.1681784591888, -4045.5763394327573, -3159.1955613131004, -10354.57972938773, -15719.803061461815, 0.016, -0.106, 0.994, 192.0, 0.0, 64.0, 126.0, 88.0, 15.5, 8.0, 0.0, 0.0, 0.0, 1.645921487727863E9, 0.0, 2022-02-27 11:24:47.727
158.0, -1399.867403491426, -4556.671328147809, -1842.4319437065058, -10269.821914413204, -765.8378202721859, 117.03373396798779, -5494.32700804794, -1652.7550402587701, -1531.697992288827, -6249.19012179257, -4404.902983296273, -2982.9073527940936, -4027.1808537460392, -2955.9958524699036, -9862.930758348795, -14380.307719744173, 0.016, -0.106, 0.994, 192.0, 0.0, 0.0, 0.0, 0.0, 0.0, 0.0, 0.0, 0.0, 0.0, 1.64592148773601E9, 0.0, 2022-02-27 11:24:47.736
160.0, -1493.1188813589672, -4644.357221645978, -1981.9515325965326, -10431.849709969725, -885.2184874079809, -22.239985733030526, -5742.476074990759, -1996.5919252147587, -4363.418145587224, -7017.598392677116, -4249.513655842979, -3108.7253223330167, -3731.1319984354973, -2867.1700200045134, -10237.277774486278, -15502.678215822962, 0.016, -0.106, 0.994, 192.0, 0.0, 0.0, 0.0, 0.0, 0.0, 0.0, 0.0, 0.0, 0.0, 1.645921487743022E9, 0.0, 2022-02-27 11:24:47.743
162.0, -1830.8090365897463, -4889.131175176046, -2160.1619911386956, -10615.178717992154, -1166.3140256779225, -188.51461273605977, -5712.36827520946, -1912.9293457185443, -2277.7098152291555, -6812.63289602195, -4627.705172026775, -3136.195616268589, -4216.857757193775, -3182.910762180181, -10080.927322021404, -14948.489063798079, 0.016, -0.106, 0.994, 192.0, 0.0, 0.0, 0.0, 0.0, 0.0, 0.0, 0.0, 0.0, 0.0, 1.645921487757531E9, 0.0, 2022-02-27 11:24:47.757
164.0, -1134.239272384557, -4355.550331538955, -1688.0260930092447, -10107.660008389952, -538.6993931173555, 258.8108490480005, -5474.3221967604395, -1666.210790420865, -2685.4056340939565, -6375.030443075949, -4207.626486733733, -2980.0686812482695, -3772.303911722173, -2799.488937793844, -9960.049088007103, -14711.024130704896, 0.016, -0.106, 0.994, 192.0, 0.0, 0.0, 0.0, 0.0, 0.0, 0.0, 0.0, 0.0, 0.0, 1.645921487765523E9, 0.0, 2022-02-27 11:24:47.765
166.0, -1959.7562503524127, -4997.157156128545, -2299.9050974732754, -10769.092830311398, -1307.4429401687314, -321.8427684119664, -5897.820698955143, -2151.7130317345895, -4251.726478544054, -7356.182617686108, -4534.163121481314, -3232.30811742641, -4027.493778168414, -3145.8515698732817, -10357.887787567113, -15736.052779680824, 0.012, -0.106, 0.994, 192.0, 0.0, 48.0, 126.0, 88.0, 15.5, 8.0, 0.0, 0.0, 0.0, 1.645921487772668E9, 0.0, 2022-02-27 11:24:47.772
168.0, -1397.9898569571803, -4548.557644910532, -1849.4056879765617, -10277.08623136118, -766.2401516723814, 102.84037623886779, -5498.685598216724, -1666.4119561209627, -1511.7602362346931, -6253.5487119613545, -4400.700855338676, -2983.1979254720122, -4031.159464259084, -2960.3320908942333, -9867.021127584116, -14380.844161611101, 0.012, -0.106, 0.994, 192.0, 0.0, 0.0, 0.0, 0.0, 0.0, 0.0, 0.0, 0.0, 0.0, 1.645921487780085E9, 0.0, 2022-02-27 11:24:47.780
170.0, -1485.094605099512, -4634.5224540856425, -1980.1186895511973, -10426.619401767184, -883.0280164513608, -12.360514683784805, -5743.168979068873, -1987.58417219927, -4335.456113273634, -6994.933723799435, -4239.433019093635, -3106.892479287682, -3727.4439606003716, -2870.9698165619156, -10238.685934386962, -15493.44694536292, 0.012, -0.106, 0.994, 192.0, 0.0, 0.0, 0.0, 0.0, 0.0, 0.0, 0.0, 0.0, 0.0, 1.645921487788099E9, 0.0, 2022-02-27 11:24:47.788
172.0, -1851.2832345108075, -4899.234163669845, -2174.66827329019, -10635.764674635491, -1181.7367293520845, -203.93731641022163, -5726.248708516206, -1907.3637613491728, -2332.3151269334708, -6842.271309169688, -4638.210491920769, -3154.501694977486, -4227.765408487965, -3186.375282570754, -10099.792194341684, -14965.319927372924, 0.012, -0.106, 0.994, 192.0, 0.0, 0.0, 0.0, 0.0, 0.0, 0.0, 0.0, 0.0, 0.0, 1.645921487796229E9, 0.0, 2022-02-27 11:24:47.796
174.0, -1142.7105835331183, -4366.256817133048, -1689.7024738433927, -10114.678456148918, -546.3436897210705, 245.48920935263746, -5475.059804327465, -1669.272979411242, -2649.5981394765545, -6391.906010139705, -4212.432111791624, -2991.691588365029, -3784.820888617145, -2812.4529495779216, -9960.943157785316, -14690.013490916908, 0.012, -0.106, 0.994, 192.0, 0.0, 0.0, 0.0, 0.0, 0.0, 0.0, 0.0, 0.0, 0.0, 1.645921487802692E9, 0.0, 2022-02-27 11:24:47.802
176.0, -1970.48508769096, -5008.891821967581, -2300.8662224848536, -10776.021871092544, -1306.459463412698, -334.69502147376795, -5892.076300630129, -2166.3757760972712, -4288.986836551051, -7369.45955389256, -4532.173816224792, -3234.610347105306, -4026.4432461790143, -3140.2859855039105, -10358.558339900774, -15739.87492798268, 0.018000000000000002, -0.10400000000000001, 0.99, 192.0, 0.0, 72.0, 126.0, 96.0, 15.0, 120.0, 0.0, 0.0, 0.0, 1.645921487809675E9, 0.0, 2022-02-27 11:24:47.809
178.0, -1433.6185376189396, -4583.985159872193, -1861.0509468377766, -10289.402042556054, -787.7872333272974, 96.00074243554383, -5511.80607221199, -1672.0669474681554, -1515.9400124478357, -6274.0899651157815, -4418.068160780449, -2998.084187279247, -4041.79889461981, -2975.374814912655, -9866.641147928376, -14384.46514421286, 0.018000000000000002, -0.10400000000000001, 0.99, 192.0, 0.0, 0.0, 0.0, 0.0, 0.0, 0.0, 0.0, 0.0, 0.0, 1.645921487817928E9, 0.0, 2022-02-27 11:24:47.817
180.0, -1506.2393553542324, -4655.555445618087, -1975.3354162377616, -10419.757416219403, -874.087318669238, -13.276936206452396, -5739.503292978203, -1978.419956972594, -4326.448360258146, -7007.696569883415, -4255.347461145814, -3114.8273485693157, -3735.624699071014, -2875.9319038309936, -10239.2670797428, -15473.486837564331, 0.018000000000000002, -0.10400000000000001, 0.99, 192.0, 0.0, 0.0, 0.0, 0.0, 0.0, 0.0, 0.0, 0.0, 0.0, 1.645921487825809E9, 0.0, 2022-02-27 11:24:47.825
182.0, -1916.5950318092148, -4962.824876645193, -2187.676988563179, -10646.694677674137, -1191.7279591236068, -215.29200259351762, -5727.612164927979, -1920.461883599983, -2386.7639764265987, -6879.866943343514, -4656.293053185112, -3162.280102047933, -4235.566167302867, -3218.360628886298, -10109.068168290636, -14990.197418951682, 0.018000000000000002, -0.10400000000000001, 0.99, 192.0, 0.0, 0.0, 0.0, 0.0, 0.0, 0.0, 0.0, 0.0, 0.0, 1.645921487832493E9, 0.0, 2022-02-27 11:24:47.832
184.0, -1224.875596150827, -4436.5307017005325, -1695.2233547238536, -10116.868927105537, -539.9063873179421, 257.9167792697882, -5472.221132781641, -1664.9143892424572, -2642.4232295064007, -6402.411330033699, -4236.415533592169, -3006.756664127906, -3790.8335078756227, -2807.9155454534944, -9959.132666484436, -14681.38571755716, 0.018000000000000002, -0.10400000000000001, 0.99, 192.0, 0.0, 0.0, 0.0, 0.0, 0.0, 0.0, 0.0, 0.0, 0.0, 1.645921487840319E9, 0.0, 2022-02-27 11:24:47.840
186.0, -2086.8482693252886, -5123.220994856477, -2308.6893330442113, -10778.525266471537, -1286.6558178252958, -316.88068114288825, -5882.755623192265, -2143.2417205860284, -4354.186875127181, -7402.718949642057, -4553.3409182239675, -3261.030109051479, -4013.7251035839445, -3144.62222392824, -10363.989813803413, -15747.675686797582, 0.014, -0.10200000000000001, 0.99, 192.0, 0.0, 56.0, 126.0, 104.0, 15.0, 120.0, 0.0, 0.0, 0.0, 1.645921487848501E9, 0.0, 2022-02-27 11:24:47.848
188.0, -1611.5160717387287, -4754.3278043660885, -1884.363816304662, -10311.306752122255, -781.3946344130796, 98.1018064143427, -5489.8790109013335, -1649.178761145921, -1560.1964664693435, -6321.654477316675, -4463.956292147194, -3044.754629701928, -4044.838731865732, -2981.4097859155877, -9868.563397951531, -14385.51567620226, 0.014, -0.10200000000000001, 0.99, 192.0, 0.0, 0.0, 0.0, 0.0, 0.0, 0.0, 0.0, 0.0, 0.0, 1.645921487854983E9, 0.0, 2022-02-27 11:24:47.854
190.0, -1684.8074418076806, -4835.732857672317, -1980.0069308289208, -10418.192794107532, -838.7268589409422, 12.09229375032112, -5713.08353103203, -1951.5308083928596, -4369.1401921677825, -7056.043393140244, -4304.275429758481, -3171.623131230251, -3733.0095449697433, -2873.5849706631866, -10229.275849971276, -15452.252680331789, 0.014, -0.10200000000000001, 0.99, 192.0, 0.0, 0.0, 0.0, 0.0, 0.0, 0.0, 0.0, 0.0, 0.0, 1.645921487863735E9, 0.0, 2022-02-27 11:24:47.863
192.0, -2132.1776070806513, -5185.738824097971, -2220.9810878015865, -10672.041555886455, -1187.749348610562, -211.15692986928582, -5715.944554322309, -1919.3666481216728, -2548.5459027941115, -6964.71416529586, -4719.526138249175, -3242.388754175753, -4233.554510301889, -3226.4743121235747, -10119.841709118095, -15025.602582168887, 0.014, -0.10200000000000001, 0.99, 192.0, 0.0, 0.0, 0.0, 0.0, 0.0, 0.0, 0.0, 0.0, 0.0, 1.645921487870428E9, 0.0, 2022-02-27 11:24:47.870
194.0, -1412.4290838753086, -4639.037506465615, -1720.726695147359, -10133.05159009118, -536.4865704162801, 270.1655352312965, -5447.9694900476325, -1635.499493539273, -2647.072392353105, -6461.598749351353, -4301.190889023649, -3069.4533073250423, -3800.2882957802176, -2818.420865347489, -9942.01123023167, -14645.555871195302, 0.014, -0.10400000000000001, 0.991, 192.0, 0.0, 56.0, 126.0, 88.0, 15.5, 0.0, 0.0, 0.0, 0.0, 1.645921487885369E9, 0.0, 2022-02-27 11:24:47.885
196.0, -2220.86932907931, -5267.255636126475, -2327.1742257087503, -10787.801240420491, -1282.4983933566086, -304.6542769258353, -5882.979140636819, -2150.0813543893523, -4470.483001528144, -7468.0754504293745, -4595.5410117555875, -3320.6645632582386, -4013.5015861393913, -3137.7602383804606, -10363.38631670312, -15752.458960111018, 0.014, -0.10400000000000001, 0.991, 192.0, 0.0, 0.0, 0.0, 0.0, 0.0, 0.0, 0.0, 0.0, 0.0, 1.645921487892309E9, 0.0, 2022-02-27 11:24:47.892
198.0, -1727.0298870837555, -4861.839695196116, -1915.9691829644662, -10337.681810579517, -803.8134341017526, 86.79182371995732, -5493.857621414379, -1658.2312176503203, -1629.4421707918848, -6395.415234019189, -4527.748170822641, -3103.696179830573, -4075.4606217695027, -2989.992855786426, -9878.375813767412, -14400.960731620877, 0.014, -0.10400000000000001, 0.991, 192.0, 0.0, 0.0, 0.0, 0.0, 0.0, 0.0, 0.0, 0.0, 0.0, 1.645921487900074E9, 0.0, 2022-02-27 11:24:47.900
200.0, -1710.4225409534624, -4860.878570184537, -1981.1468697961416, -10417.67870398506, -827.7521524133864, 18.082561264343415, -5698.286676202617, -1954.2800729608623, -4350.0070989140395, -7046.320384302186, -4320.703961933132, -3195.941829197625, -3734.775332781712, -2865.9406740594713, -10219.329323688666, -15433.208994055867, 0.014, -0.10400000000000001, 0.991, 192.0, 0.0, 0.0, 0.0, 0.0, 0.0, 0.0, 0.0, 0.0, 0.0, 1.645921487908099E9, 0.0, 2022-02-27 11:24:47.908
202.0, -2132.8034559253997, -5175.16644897061, -2226.121989026307, -10679.8199629569, -1187.9058108217491, -212.699200236702, -5705.707455361779, -1923.7699417793683, -2561.800487256108, -6988.42936616294, -4722.320106306089, -3250.0554025239235, -4232.705144012588, -3250.0330507794683, -10117.159499783456, -15033.380989239335, 0.014, -0.10400000000000001, 0.991, 192.0, 0.0, 0.0, 0.0, 0.0, 0.0, 0.0, 0.0, 0.0, 0.0, 1.645921487915963E9, 0.0, 2022-02-27 11:24:47.915
204.0, -1384.0423684170687, -4599.899601924372, -1728.4156952399846, -10132.470444735342, -530.4292476688919, 273.1383172438523, -5450.294071470985, -1639.9921941747898, -2637.125866070493, -6456.614310337819, -4304.498947203034, -3070.727356758995, -3804.199851059896, -2827.4956735963433, -9945.051067477592, -14642.359571738192, 0.013000000000000001, -0.10500000000000001, 0.9904999999999999, 192.0, 0.0, 48.0, 126.0, 88.0, 15.0, 120.0, 0.0, 0.0, 0.0, 1.645921487922606E9, 0.0, 2022-02-27 11:24:47.922
206.0, -2168.700357520623, -5213.164414544633, -2324.98375475213, -10781.006310106077, -1262.940616958215, -299.98276233467607, -5873.390242265492, -2149.857836944799, -4471.019443395072, -7443.153255361707, -4576.05029059056, -3304.0572171279455, -3996.871888264643, -3145.3821832397207, -10366.627319649138, -15760.55029160384, 0.013000000000000001, -0.10500000000000001, 0.9904999999999999, 192.0, 0.0, 0.0, 0.0, 0.0, 0.0, 0.0, 0.0, 0.0, 0.0, 1.64592148793068E9, 0.0, 2022-02-27 11:24:47.930
208.0, -1650.2292931353204, -4785.03910124768, -1913.644601541114, -10327.243545918887, -789.2400967168924, 102.5274518164935, -5501.166641851264, -1655.6160635490494, -1584.7833853701813, -6372.482344208043, -4496.4110250963, -3076.918789973115, -4052.706545914, -3000.5205274248756, -9874.173685809814, -14396.42332749645, 0.013000000000000001, -0.10500000000000001, 0.9904999999999999, 192.0, 0.0, 0.0, 0.0, 0.0, 0.0, 0.0, 0.0, 0.0, 0.0, 1.64592148793903E9, 0.0, 2022-02-27 11:24:47.939
210.0, -1607.2915920366756, -4762.553246325641, -1954.972977038977, -10386.967407103468, -791.832899073708, 49.21854129058615, -5690.5082691321695, -1960.8961893196333, -4289.9032580737185, -6990.016340019267, -4279.532048646456, -3151.4171542426534, -3702.7229312328022, -2845.667641838508, -10212.73555907435, -15415.953447336371, 0.013000000000000001, -0.10500000000000001, 0.9904999999999999, 192.0, 0.0, 0.0, 0.0, 0.0, 0.0, 0.0, 0.0, 0.0, 0.0, 1.645921487947161E9, 0.0, 2022-02-27 11:24:47.947
212.0, -2066.3293679153167, -5106.278372559354, -2236.4261432202034, -10676.847180944345, -1198.9252208382156, -215.8731479493556, -5720.101978790996, -1922.2053196674967, -2622.396066474446, -6988.407014418485, -4685.596190166019, -3221.3781143877645, -4209.8393094348085, -3216.1254544407675, -10131.017581345748, -15077.838608960941, 0.013000000000000001, -0.10500000000000001, 0.9904999999999999, 192.0, 0.0, 0.0, 0.0, 0.0, 0.0, 0.0, 0.0, 0.0, 0.0, 1.645921487953329E9, 0.0, 2022-02-27 11:24:47.953
214.0, -1310.7509983481168, -4524.306002176524, -1726.5157969612835, -10123.485043464309, -537.8276750835986, 280.4026341918271, -5444.0355830234985, -1619.5403479981837, -2528.9881263957177, -6394.051777607415, -4269.6078741083, -3034.4951789969423, -3805.2950865382063, -2809.7483884988296, -9930.947116726295, -14613.235248712928, 0.0125, -0.10450000000000001, 0.98825, 192.0, 0.0, 48.0, 126.0, 96.0, 15.0, 104.0, 0.0, 0.0, 0.0, 1.64592148796067E9, 0.0, 2022-02-27 11:24:47.960
216.0, -2096.168946763152, -5130.552367037817, -2324.536719863024, -10776.22303679264, -1280.196163677712, -306.2636025266174, -5896.256076843271, -2168.2533226315168, -4466.012652637083, -7429.831615666344, -4545.070772775504, -3294.803594923448, -3989.1828881720176, -3130.495921432486, -10368.795438861303, -15761.444361382051, 0.0125, -0.10450000000000001, 0.98825, 192.0, 0.0, 0.0, 0.0, 0.0, 0.0, 0.0, 0.0, 0.0, 0.0, 1.645921487968252E9, 0.0, 2022-02-27 11:24:47.968
218.0, -1604.3635135130303, -4747.309356607122, -1912.1917381515193, -10330.529252353817, -814.3858092291129, 83.81904170740148, -5513.482453046138, -1670.8376015231136, -1561.2917019476536, -6343.805056071885, -4477.680263242753, -3060.043222909358, -4070.967921133986, -2996.184289000546, -9876.38650851089, -14404.961693878377, 0.0125, -0.10450000000000001, 0.98825, 192.0, 0.0, 0.0, 0.0, 0.0, 0.0, 0.0, 0.0, 0.0, 0.0, 1.645921487975452E9, 0.0, 2022-02-27 11:24:47.975
220.0, -1553.4015361549302, -4715.614582969497, -1959.5327329078596, -10387.570904203762, -814.8998993515848, 42.62477667627057, -5704.388702438915, -1947.3957356686278, -4268.982025263551, -6981.008587003778, -4269.898446786219, -3150.165456553156, -3728.628603056503, -2855.770630332307, -10211.126233473567, -15406.81158385415, 0.0125, -0.10450000000000001, 0.98825, 192.0, 0.0, 0.0, 0.0, 0.0, 0.0, 0.0, 0.0, 0.0, 0.0, 1.645921487983002E9, 0.0, 2022-02-27 11:24:47.983
222.0, -2005.0185328744094, -5044.207578206966, -2229.541805927969, -10678.59061701186, -1209.3187820099333, -221.2375666186293, -5737.737505166234, -1952.4919334044378, -2602.860641820507, -6957.651014047982, -4675.962588305782, -3212.5715270723736, -4229.575899788845, -3200.032198432946, -10139.466540749854, -15078.59856827242, 0.0125, -0.10450000000000001, 0.98825, 192.0, 0.0, 0.0, 0.0, 0.0, 0.0, 0.0, 0.0, 0.0, 0.0, 1.64592148799092E9, 0.0, 2022-02-27 11:24:47.990
224.0, -1249.9319016852262, -4459.642405467321, -1714.7140758888813, -10117.025389316725, -546.1872275098834, 266.00811076260936, -5466.096754800887, -1623.2730893222201, -2499.394416736891, -6358.512503923476, -4252.575844833355, -3019.944193356537, -3810.1454150850077, -2816.0068769463155, -9937.2950121516, -14615.738644091922, 0.01225, -0.10625000000000001, 0.989125, 192.0, 0.0, 48.0, 126.0, 80.0, 15.0, 120.0, 0.0, 0.0, 0.0, 1.645921488005131E9, 0.0, 2022-02-27 11:24:48.005
226.0, -2026.5209110404148, -5067.140468018111, -2300.8438707403984, -10765.203626776174, -1268.1485734163016, -306.0624368265196, -5891.539858763202, -2166.129906908263, -4473.947521918717, -7399.790871118412, -4514.158310193814, -3263.555856174929, -3982.7232340244336, -3120.817616083338, -10370.784744117826, -15773.179027221087, 0.01225, -0.10625000000000001, 0.989125, 192.0, 0.0, 0.0, 0.0, 0.0, 0.0, 0.0, 0.0, 0.0, 0.0, 1.645921488012596E9, 0.0, 2022-02-27 11:24:48.012
228.0, -1557.9836437682682, -4697.397911238421, -1909.1742526500527, -10333.52438611083, -823.7064866669758, 73.87251542478984, -5526.982906697143, -1677.721938815348, -1540.2363586707543, -6334.953765267583, -4467.510219515589, -3043.5476355013416, -4068.263360054894, -2991.468070920476, -9879.783973668096, -14413.365949793571, 0.01225, -0.10625000000000001, 0.989125, 192.0, 0.0, 0.0, 0.0, 0.0, 0.0, 0.0, 0.0, 0.0, 0.0, 1.645921488020529E9, 0.0, 2022-02-27 11:24:48.020
230.0, -1471.2365235372215, -4638.925747743338, -1926.7203720474688, -10364.548607414796, -792.2799339628142, 58.5392187284492, -5703.449929171793, -1936.130456463153, -4187.0628818348505, -6924.36926655403, -4234.1356556577275, -3114.715589847039, -3716.625716284003, -2826.3333828846676, -10205.895925271026, -15383.319900431623, 0.01225, -0.10625000000000001, 0.989125, 192.0, 0.0, 0.0, 0.0, 0.0, 0.0, 0.0, 0.0, 0.0, 0.0, 1.645921488027737E9, 0.0, 2022-02-27 11:24:48.027
232.0, -1949.1168199916865, -4991.435109547986, -2216.577794143891, -10669.001718640533, -1209.6093546878524, -220.03057241804274, -5743.548958724614, -1944.7358780784464, -2603.464138920801, -6954.0523831906785, -4651.956814760782, -3188.386939571731, -4219.159986872672, -3201.462710078086, -10142.685191951417, -15083.404193330312, 0.01225, -0.10625000000000001, 0.989125, 192.0, 0.0, 0.0, 0.0, 0.0, 0.0, 0.0, 0.0, 0.0, 0.0, 1.645921488035245E9, 0.0, 2022-02-27 11:24:48.035
234.0, -1190.0292265450032, -4406.646419363788, -1698.821985581158, -10105.648351388974, -554.3903177249811, 258.02853799206474, -5484.738109676613, -1651.9280257139237, -2435.334317127981, -6329.209366942569, -4227.541891043412, -2984.270809205867, -3798.7907289017116, -2803.087568651148, -9940.82658777554, -14597.276103171838, 0.012125, -0.108125, 0.9905625, 192.0, 0.0, 48.0, 126.0, 72.0, 15.5, 0.0, 0.0, 0.0, 0.0, 1.645921488043527E9, 0.0, 2022-02-27 11:24:48.043
236.0, -1965.2994829773288, -5011.126996413112, -2293.3336846034153, -10752.776056859024, -1283.0124834790806, -314.69021018626813, -5922.184100411428, -2175.227066901573, -4464.202161336203, -7361.122353210731, -4491.404234338312, -3237.9184052846917, -3976.2188763879394, -3107.0712932433244, -10381.67004366756, -15779.057536012833, 0.012125, -0.108125, 0.9905625, 192.0, 0.0, 0.0, 0.0, 0.0, 0.0, 0.0, 0.0, 0.0, 0.0, 1.645921488051222E9, 0.0, 2022-02-27 11:24:48.051
238.0, -1505.769968720671, -4638.836340765517, -1905.195642137008, -10338.262955935354, -837.8998443960959, 60.7743931739799, -5532.302621877507, -1697.8385088251246, -1504.0488843976123, -6317.854680759273, -4452.758068175086, -3020.8606148792046, -4071.6608252121005, -2988.383530185644, -9889.574037739521, -14413.99179863832, 0.012125, -0.108125, 0.9905625, 192.0, 0.0, 0.0, 0.0, 0.0, 0.0, 0.0, 0.0, 0.0, 0.0, 1.645921488057399E9, 0.0, 2022-02-27 11:24:48.057
240.0, -1407.3775896284092, -4568.76362189813, -1906.8496712267008, -10342.554490870774, -786.8037565712639, 43.22827377656386, -5712.770606609655, -1963.2431224874406, -4130.043581729363, -6891.311036504631, -4216.164853115661, -3094.7107785595394, -3705.8968789454557, -2818.0408856917484, -10195.658826310495, -15374.89329277197, 0.012125, -0.108125, 0.9905625, 192.0, 0.0, 0.0, 0.0, 0.0, 0.0, 0.0, 0.0, 0.0, 0.0, 1.645921488064842E9, 0.0, 2022-02-27 11:24:48.064
242.0, -1909.3307148612398, -4959.114487065612, -2216.354276699338, -10665.894826161246, -1223.3780292723216, -242.29290989552857, -5771.287473593649, -1975.357767982217, -2635.6059474475323, -6949.85025523308, -4635.77415177514, -3167.2198375725557, -4207.671190222644, -3196.724140253561, -10153.324622312144, -15129.85111830844, 0.012125, -0.108125, 0.9905625, 192.0, 0.0, 0.0, 0.0, 0.0, 0.0, 0.0, 0.0, 0.0, 0.0, 1.645921488072866E9, 0.0, 2022-02-27 11:24:48.072
244.0, -1146.1751039236908, -4365.563913054933, -1689.4119011654736, -10095.210086728346, -551.1493147789615, 265.4046136623161, -5486.816821910957, -1632.7725807157256, -2352.722269621166, -6301.716721262542, -4217.707123483076, -2959.9744629829484, -3800.176537057941, -2777.8971526500172, -9925.985029457215, -14583.418021609548, 0.013062500000000001, -0.1060625, 0.98828125, 192.0, 0.0, 56.0, 126.0, 96.0, 15.0, 104.0, 0.0, 0.0, 0.0, 1.645921488080833E9, 0.0, 2022-02-27 11:24:48.080
246.0, -1906.7379125044242, -4955.225283530389, -2274.0664808829406, -10728.479710636106, -1258.3138058559664, -295.6018204214359, -5924.843958001609, -2180.14445068174, -4457.228417066147, -7336.311916865339, -4458.88244615584, -3205.7095415245944, -3947.809809185244, -3068.6933480135617, -10378.876075610648, -15779.459867413028, 0.013062500000000001, -0.1060625, 0.98828125, 192.0, 0.0, 0.0, 0.0, 0.0, 0.0, 0.0, 0.0, 0.0, 0.0, 1.645921488087374E9, 0.0, 2022-02-27 11:24:48.087
