%OpenBCI Raw EEG Data
%Number of channels = 16
%Sample Rate = 125 Hz
%Board = OpenBCI_GUI$BoardCytonSerialDaisy
Sample Index, EXG Channel 0, EXG Channel 1, EXG Channel 2, EXG Channel 3, EXG Channel 4, EXG Channel 5, EXG Channel 6, EXG Channel 7, EXG Channel 8, EXG Channel 9, EXG Channel 10, EXG Channel 11, EXG Channel 12, EXG Channel 13, EXG Channel 14, EXG Channel 15, Accel Channel 0, Accel Channel 1, Accel Channel 2, Other, Other, Other, Other, Other, Other, Other, Analog Channel 0, Analog Channel 1, Analog Channel 2, Timestamp, Other, Timestamp (Formatted)
92.0, -2141.319470562872, -5382.545934026949, -2263.2929400554826, -10892.317997493506, -1029.8342740338176, -94.74904474604664, -5829.089084755074, -1774.4826405623724, -2552.032774929139, -6978.885171280524, -4567.936607353283, -3280.297312771954, -4312.702037418132, -3183.5813145138404, -10068.119772448514, -14682.324490824281, 0.0, 0.0, 0.0, 192.0, 0.0, 0.0, 0.0, 0.0, 0.0, 0.0, 0.0, 0.0, 0.0, 1.645921286394209E9, 0.0, 2022-02-27 11:21:26.394
94.0, -1836.106400025654, -5138.531939808362, -2077.572295376336, -10697.12021316531, -778.6900733339875, 92.7150360006137, -5800.590610574557, -1749.1357623500542, -3737.457542116349, -7197.664046009069, -4448.622995450854, -3371.2689127050535, -4152.283567462393, -3099.270534428422, -10262.64700444305, -15034.587983439922, 0.0, 0.0, 0.0, 192.0, 0.0, 0.0, 0.0, 0.0, 0.0, 0.0, 0.0, 0.0, 0.0, 1.645921286394212E9, 0.0, 2022-02-27 11:21:26.394
0.0, -1066.9381698296274, -2702.7505877912745, -1230.8658636648493, -5502.328932562939, -576.9655796248412, -72.41965203519489, -3072.470792826509, -1014.4562738485663, -1285.0688439689688, -3551.669842203837, -2311.9750394791413, -1647.1671041449433, -2181.6196658157905, -1619.562699742639, -5039.625470593628, -7384.971664544543, 0.002, -0.049, 0.494, 192.0, 0.0, 16.0, 126.0, 120.0, 15.0, 112.0, 0.0, 0.0, 0.0, 1.645921286507127E9, 0.0, 2022-02-27 11:21:26.507
2.0, -2329.9681937656637, -5540.975098726166, -2527.065876372561, -11074.037679915153, -1297.7646348195833, -213.10153163689753, -6044.29168037077, -1870.5280864868269, -3183.782480213938, -7350.125294938719, -4730.813769199106, -3487.4979838726504, -4531.905595291329, -3438.8829396823576, -10358.133656756123, -15226.656523544376, 0.002, -0.049, 0.494, 192.0, 0.0, 0.0, 0.0, 0.0, 0.0, 0.0, 0.0, 0.0, 0.0, 1.645921286514601E9, 0.0, 2022-02-27 11:21:26.514
4.0, -1683.0640057401665, -5053.617662622651, -2078.6898825991016, -10581.740508287014, -706.4715869988903, 229.1053806668974, -5778.574142286079, -1565.471478160796, -2754.3384139941236, -6769.2705117786545, -4382.461831863146, -3297.46345251363, -4199.244582562993, -3094.4425576260755, -10134.1915290584, -14680.022261145385, 0.002, -0.049, 0.494, 192.0, 0.0, 0.0, 0.0, 0.0, 0.0, 0.0, 0.0, 0.0, 0.0, 1.645921286521075E9, 0.0, 2022-02-27 11:21:26.521
6.0, -2305.627144053834, -5536.1918254127295, -2551.809257484586, -11102.670264562401, -1286.298189914011, -232.16756965727447, -6139.085428605727, -2038.2108733905404, -4713.871146901983, -7667.318900503982, -4563.846238117962, -3508.3074579605413, -4298.0616447999055, -3324.2855458599984, -10532.521966996428, -15739.070265182288, 0.002, -0.049, 0.494, 192.0, 0.0, 0.0, 0.0, 0.0, 0.0, 0.0, 0.0, 0.0, 0.0, 1.64592128652913E9, 0.0, 2022-02-27 11:21:26.529
8.0, -1978.6434744171472, -5280.420813610651, -2266.9586261461527, -10782.302711284485, -961.5273429783992, 44.74819239952474, -5845.96465181883, -1621.4849497657956, -2058.372146889227, -6814.622201278473, -4574.2397992896795, -3318.3399818348867, -4413.977791545128, -3250.9271205576806, -10093.556057638652, -14575.483152327914, 0.008, -0.10200000000000001, 0.984, 192.0, 0.0, 32.0, 126.0, 104.0, 15.0, 96.0, 0.0, 0.0, 0.0, 1.645921286537183E9, 0.0, 2022-02-27 11:21:26.537
10.0, -1846.7905338752907, -5185.090623508767, -2236.0238118200077, -10757.179350516719, -875.6966442700201, 75.10186136983172, -5972.028490546762, -1802.2211554314085, -4274.927589288663, -7242.993383764432, -4362.233503131092, -3393.419491460263, -4112.989200709963, -3108.4571013995533, -10363.945110314502, -15325.495937525742, 0.008, -0.10200000000000001, 0.984, 192.0, 0.0, 0.0, 0.0, 0.0, 0.0, 0.0, 0.0, 0.0, 0.0, 1.645921286544238E9, 0.0, 2022-02-27 11:21:26.544
12.0, -2329.0741239874515, -5545.400744128317, -2523.35548679298, -11067.19804611183, -1293.4283963952537, -214.8449677044115, -6021.805825448731, -1875.9595603894666, -3203.6084775457953, -7391.386615203216, -4731.5513767661305, -3468.342538874452, -4532.531444136077, -3439.933471671757, -10352.031630519823, -15228.601125311987, 0.008, -0.10200000000000001, 0.984, 192.0, 0.0, 0.0, 0.0, 0.0, 0.0, 0.0, 0.0, 0.0, 0.0, 1.645921286551733E9, 0.0, 2022-02-27 11:21:26.551
14.0, -1682.3263981731413, -5051.695412599494, -2076.991150020498, -10580.064127452866, -709.6231829670886, 226.73609575463485, -5791.7616715147105, -1574.3674724540083, -2758.5852454406318, -6758.519322695652, -4387.468622621134, -3288.8356791538813, -4209.638143734711, -3111.3181246898325, -10127.888337122004, -14679.57522625628, 0.008, -0.10200000000000001, 0.984, 192.0, 0.0, 0.0, 0.0, 0.0, 0.0, 0.0, 0.0, 0.0, 0.0, 1.645921286559747E9, 0.0, 2022-02-27 11:21:26.559
16.0, -2294.1606991482618, -5516.835214714434, -2538.8228939560527, -11092.455517346325, -1281.7607857895835, -223.0927614084198, -6129.6306407011325, -2025.3586203287389, -4716.419245769888, -7661.775667879066, -4561.253435761147, -3502.0713212575106, -4298.575734922378, -3326.5877755388947, -10531.829062918314, -15727.961448188002, 0.008, -0.10300000000000001, 0.985, 192.0, 0.0, 32.0, 126.0, 96.0, 15.0, 104.0, 0.0, 0.0, 0.0, 1.645921286574051E9, 0.0, 2022-02-27 11:21:26.574
18.0, -1995.3402275252615, -5291.976665494045, -2278.9615129186527, -10801.636970238325, -985.9801514125052, 27.604404402304223, -5840.175550004906, -1674.95032250289, -2084.255466968473, -6817.706742013305, -4586.1532790843585, -3322.206833625655, -4427.9029283407845, -3259.778411361982, -10102.42970018741, -14585.40732686607, 0.008, -0.10300000000000001, 0.985, 192.0, 0.0, 0.0, 0.0, 0.0, 0.0, 0.0, 0.0, 0.0, 0.0, 1.645921286581308E9, 0.0, 2022-02-27 11:21:26.581
20.0, -1807.138539211576, -5157.150942939633, -2200.082206735874, -10716.655637819247, -843.6218909766544, 108.897698986256, -5934.455208117391, -1760.8480764446351, -4179.977378842518, -7214.3831508616395, -4371.129497424305, -3387.7868518575256, -4132.099942219251, -3129.33363072081, -10360.972328301947, -15292.88474236545, 0.008, -0.10300000000000001, 0.985, 192.0, 0.0, 0.0, 0.0, 0.0, 0.0, 0.0, 0.0, 0.0, 0.0, 1.645921286589506E9, 0.0, 2022-02-27 11:21:26.589
22.0, -2042.9270914706103, -5304.873622044757, -2307.2588213990716, -10853.157741207808, -1034.1928642026025, 2.3469331678072414, -5922.809949256176, -1769.9228846934898, -3699.0348933976766, -7419.750978917001, -4603.542936270587, -3390.1114332808775, -4375.845715504374, -3305.9571154066466, -10340.90046178108, -15370.512350858731, 0.008, -0.10300000000000001, 0.985, 192.0, 0.0, 0.0, 0.0, 0.0, 0.0, 0.0, 0.0, 0.0, 0.0, 1.645921286596558E9, 0.0, 2022-02-27 11:21:26.596
24.0, -2184.48068910607, -5465.292092000495, -2466.716166343232, -11000.679254612834, -1187.7717003550174, -173.20366778417443, -6101.467442687445, -1932.1518459501085, -3338.545958822484, -7166.818638660746, -4544.713144864219, -3402.516651453573, -4332.528034749989, -3254.4139926927082, -10285.132859365089, -15126.476004895689, 0.008, -0.10300000000000001, 0.985, 192.0, 0.0, 0.0, 0.0, 0.0, 0.0, 0.0, 0.0, 0.0, 0.0, 1.64592128660398E9, 0.0, 2022-02-27 11:21:26.603
26.0, -1943.8194565557787, -5225.971964117523, -2232.179311773695, -10761.090905796398, -939.3320607342793, 73.82781193587923, -5865.231855539305, -1680.113575472066, -3396.5934391729165, -7229.38117139115, -4612.081302652515, -3485.5980855939492, -4409.507442654067, -3344.4021158697747, -10370.091840039711, -15118.585839102965, 0.007, -0.10450000000000001, 0.9855, 192.0, 0.0, 24.0, 126.0, 88.0, 15.0, 104.0, 0.0, 0.0, 0.0, 1.645921286612071E9, 0.0, 2022-02-27 11:21:26.612
28.0, -2029.9183761976215, -5313.411988426685, -2324.693182074211, -10864.355965179917, -1030.8624542787618, -29.14667476972041, -5976.2529702488155, -1806.9150217670228, -3269.009681822024, -6997.52652615625, -4402.846622806385, -3255.777449104482, -4189.812146402854, -3119.8564910717596, -10153.794008945706, -15007.520020904545, 0.007, -0.10450000000000001, 0.9855, 192.0, 0.0, 0.0, 0.0, 0.0, 0.0, 0.0, 0.0, 0.0, 0.0, 1.645921286620208E9, 0.0, 2022-02-27 11:21:26.620
30.0, -2133.876339659255, -5409.770358773513, -2421.364476843414, -10946.655088264357, -1141.2130166546126, -115.71498104512466, -6054.685241542487, -1856.8041153912684, -3537.543539708083, -7318.4528730455495, -4665.703137600796, -3556.900150406379, -4467.26435032658, -3404.8859363658353, -10435.87302397168, -15241.095750462504, 0.007, -0.10450000000000001, 0.9855, 192.0, 0.0, 0.0, 0.0, 0.0, 0.0, 0.0, 0.0, 0.0, 0.0, 1.645921286626167E9, 0.0, 2022-02-27 11:21:26.626
32.0, -1889.527069273838, -5195.685350380582, -2190.67212232019, -10717.16972794172, -888.0124554648943, 124.32040266041788, -5845.942300074375, -1644.0602116656557, -3217.354800385809, -7034.563366718694, -4411.675561866232, -3271.937760345669, -4210.018123390451, -3119.074180015824, -10177.44215457942, -14952.870005711318, 0.007, -0.10450000000000001, 0.9855, 192.0, 0.0, 0.0, 0.0, 0.0, 0.0, 0.0, 0.0, 0.0, 0.0, 1.645921286633678E9, 0.0, 2022-02-27 11:21:26.633
34.0, -2178.2669041474946, -5472.17642929273, -2467.5655326325336, -10995.605408621479, -1176.5064211495426, -162.2960164899846, -6104.239058999903, -1920.8642150001783, -3460.7205940151925, -7200.122737899153, -4533.939604036761, -3385.0152355450673, -4324.280241045981, -3242.5675681313955, -10308.043397431778, -15168.13965656038, 0.007, -0.10450000000000001, 0.9855, 192.0, 0.0, 0.0, 0.0, 0.0, 0.0, 0.0, 0.0, 0.0, 0.0, 1.645921286641794E9, 0.0, 2022-02-27 11:21:26.641
36.0, -1943.3500699222172, -5238.444237523585, -2233.319250740916, -10756.777019116524, -931.3971914526453, 82.09795738434283, -5871.646806197979, -1669.3623863890632, -3412.8655091363803, -7255.890340315144, -4613.1541863863695, -3500.8419753124685, -4411.362637443857, -3336.6013570548726, -10385.402784991596, -15127.593592118454, 0.0095, -0.10325000000000001, 0.98775, 192.0, 0.0, 48.0, 126.0, 104.0, 15.0, 120.0, 0.0, 0.0, 0.0, 1.645921286649462E9, 0.0, 2022-02-27 11:21:26.649
38.0, -2028.2643471079289, -5323.313811220385, -2314.2325656691273, -10853.604776096914, -1015.2832883934127, -9.834767560335107, -5958.863313062587, -1798.1307861960872, -3281.7948796504593, -7024.281564269253, -4393.101262223871, -3249.273091467988, -4164.487619934991, -3094.4202058816204, -10161.751229971795, -15011.006893039572, 0.0095, -0.10325000000000001, 0.98775, 192.0, 0.0, 0.0, 0.0, 0.0, 0.0, 0.0, 0.0, 0.0, 0.0, 1.645921286657072E9, 0.0, 2022-02-27 11:21:26.657
40.0, -2167.1357354087518, -5450.674051126725, -2426.974764701696, -10961.161370415852, -1138.7096212756182, -121.01234448103244, -6040.201311135449, -1856.0665078242432, -3554.1061823494656, -7336.937765710088, -4672.341605704022, -3562.376327797929, -4460.201199078703, -3385.328159967442, -10441.975050207979, -15246.72839006524, 0.0095, -0.10325000000000001, 0.98775, 192.0, 0.0, 0.0, 0.0, 0.0, 0.0, 0.0, 0.0, 0.0, 0.0, 1.645921286664095E9, 0.0, 2022-02-27 11:21:26.664
42.0, -1951.1284769926642, -5240.27708056892, -2184.5924478283464, -10721.036579732488, -877.7083012709977, 129.90833877424464, -5842.567186661624, -1626.6705544794268, -3237.3819634177644, -7045.4486662684285, -4425.8465678508965, -3290.333246032387, -4202.843213420298, -3123.656287629162, -10185.689948283429, -14956.178063890704, 0.0095, -0.10325000000000001, 0.98775, 192.0, 0.0, 0.0, 0.0, 0.0, 0.0, 0.0, 0.0, 0.0, 0.0, 1.645921286671519E9, 0.0, 2022-02-27 11:21:26.671
44.0, -2278.849754196376, -5567.171343227786, -2468.660768110844, -11002.959132547276, -1172.3713484253108, -160.84315310038963, -6092.124413505127, -1909.6212875391589, -3498.36093167793, -7226.520148100871, -4558.727688637697, -3426.9247563987683, -4320.748665422042, -3242.5899198758507, -10307.439900331487, -15166.753848404152, 0.0095, -0.10325000000000001, 0.98775, 192.0, 0.0, 0.0, 0.0, 0.0, 0.0, 0.0, 0.0, 0.0, 0.0, 1.645921286679742E9, 0.0, 2022-02-27 11:21:26.679
46.0, -2098.8958595866993, -5392.425405076195, -2236.3367362423824, -10762.9908040751, -924.5575576493213, 89.5634400324154, -5857.2746345132155, -1654.3867176040076, -3467.157896418321, -7293.351864022239, -4660.673995098352, -3542.7738479106247, -4422.918489327251, -3340.2670431455426, -10389.783726904838, -15125.917211284306, 0.00975, -0.10162500000000001, 0.9878750000000001, 192.0, 0.0, 40.0, 126.0, 112.0, 15.0, 112.0, 0.0, 0.0, 0.0, 1.645921286693811E9, 0.0, 2022-02-27 11:21:26.693
48.0, -2241.1647130447286, -5538.337592880439, -2319.798150038499, -10859.237415699652, -1000.2182126305357, -8.493662893016683, -5958.393926429025, -1760.915131678001, -3357.9249212652353, -7085.167716165509, -4449.606472206888, -3301.8667461713253, -4174.009463072952, -3097.460043127542, -10149.703639710384, -15000.322759189936, 0.00975, -0.10162500000000001, 0.9878750000000001, 192.0, 0.0, 0.0, 0.0, 0.0, 0.0, 0.0, 0.0, 0.0, 0.0, 1.645921286702607E9, 0.0, 2022-02-27 11:21:26.702
50.0, -2409.2498313486376, -5692.430519155326, -2434.7308200276875, -10959.864969237444, -1122.1916821231464, -106.05902744043202, -6035.4180378220135, -1841.3814117171064, -3637.277023467663, -7404.954124087588, -4740.827350715083, -3625.6094128619925, -4468.1137166158815, -3388.703273380193, -10437.68351527256, -15238.860576016972, 0.00975, -0.10162500000000001, 0.9878750000000001, 192.0, 0.0, 0.0, 0.0, 0.0, 0.0, 0.0, 0.0, 0.0, 0.0, 1.645921286709185E9, 0.0, 2022-02-27 11:21:26.709
52.0, -2157.323319592872, -5459.570045419937, -2181.172630926684, -10716.92385875271, -856.4517922940007, 152.41654544073887, -5820.304849184138, -1622.4237230329184, -3322.810330725948, -7103.630257085593, -4492.1194901608815, -3352.6499095737827, -4203.3796552872245, -3115.006162524958, -10173.351785344099, -14944.108121884838, 0.00975, -0.10162500000000001, 0.9878750000000001, 192.0, 0.0, 0.0, 0.0, 0.0, 0.0, 0.0, 0.0, 0.0, 0.0, 1.645921286717304E9, 0.0, 2022-02-27 11:21:26.717
54.0, -2451.405221391347, -5729.08738006203, -2464.101012241961, -11002.422690680349, -1156.367499395311, -142.82764706941214, -6107.770634623842, -1896.523165288349, -3552.340394537496, -7239.57356686277, -4598.178517601314, -3468.2084284077205, -4310.489214717057, -3227.6366028352504, -10301.360225839642, -15162.28349951309, 0.00975, -0.10162500000000001, 0.9878750000000001, 192.0, 0.0, 0.0, 0.0, 0.0, 0.0, 0.0, 0.0, 0.0, 0.0, 1.645921286723937E9, 0.0, 2022-02-27 11:21:26.723
56.0, -2217.4271604331925, -5507.8498134434, -2237.923710098709, -10761.247368007585, -916.3321156897683, 85.67423649719197, -5865.4330212394025, -1657.6053688055717, -3515.862347586435, -7332.6015272857585, -4697.979056594259, -3588.7513862551914, -4427.21002426267, -3346.5031798485734, -10397.472726997463, -15126.90068804034, 0.012875000000000001, -0.1028125, 0.9879375, 192.0, 0.0, 64.0, 126.0, 96.0, 15.0, 112.0, 0.0, 0.0, 0.0, 1.645921286731889E9, 0.0, 2022-02-27 11:21:26.731
58.0, -2275.83226869491, -5563.773878070579, -2307.88467024382, -10845.021706226076, -993.7809102274073, -2.3916366567178557, -5952.627176359556, -1767.888875948057, -3370.9559882826793, -7082.999596953345, -4457.0719548549605, -3322.7209237481266, -4173.115393294739, -3108.367694421732, -10161.952395671893, -15000.747442334587, 0.012875000000000001, -0.1028125, 0.9879375, 192.0, 0.0, 0.0, 0.0, 0.0, 0.0, 0.0, 0.0, 0.0, 0.0, 1.645921286739974E9, 0.0, 2022-02-27 11:21:26.739
60.0, -2404.3547993129255, -5681.254646927673, -2444.587939332478, -10960.826094249021, -1140.9000922322384, -122.04052472597657, -6051.399535107557, -1855.4183072350393, -3631.3538111870066, -7400.03674030742, -4734.993545412248, -3616.6463633354147, -4469.655986983298, -3388.1444797688105, -10445.104294431721, -15239.598183583998, 0.012875000000000001, -0.1028125, 0.9879375, 192.0, 0.0, 0.0, 0.0, 0.0, 0.0, 0.0, 0.0, 0.0, 0.0, 1.645921286747091E9, 0.0, 2022-02-27 11:21:26.747
62.0, -2125.0697523438635, -5410.575021573904, -2193.890773521754, -10712.900544750757, -868.991120933428, 140.10073424586466, -5819.187261961372, -1621.9990398882676, -3323.816159226437, -7099.115204705621, -4493.505298317111, -3353.119296207344, -4224.904385197686, -3124.818578340838, -10196.977579233358, -14953.361744089336, 0.012875000000000001, -0.1028125, 0.9879375, 192.0, 0.0, 0.0, 0.0, 0.0, 0.0, 0.0, 0.0, 0.0, 0.0, 1.64592128675362E9, 0.0, 2022-02-27 11:21:26.753
64.0, -2400.4432440332466, -5685.03209174062, -2469.554837889056, -10997.50530690018, -1165.8222872999058, -162.85481010136726, -6083.541343634289, -1900.7699967348574, -3533.252004772664, -7242.769866319879, -4591.696511709275, -3446.840160708447, -4326.135435835771, -3251.6423763802504, -10302.366054340131, -15153.611022664432, 0.012875000000000001, -0.1028125, 0.9879375, 192.0, 0.0, 0.0, 0.0, 0.0, 0.0, 0.0, 0.0, 0.0, 0.0, 1.645921286761562E9, 0.0, 2022-02-27 11:21:26.761
66.0, -2137.765543194478, -5427.74116131558, -2238.482503710092, -10764.197798275685, -933.1629792646146, 73.26901832449656, -5859.822733381121, -1660.4440403513959, -3497.8244898110024, -7304.147756594152, -4680.991730808226, -3564.1644673543537, -4432.194463276203, -3357.053203231478, -10403.574753233761, -15133.494452654655, 0.0144375, -0.10640625000000001, 0.9859687500000001, 192.0, 0.0, 64.0, 126.0, 72.0, 15.0, 96.0, 0.0, 0.0, 0.0, 1.645921286769577E9, 0.0, 2022-02-27 11:21:26.769
68.0, -2179.5856570703577, -5468.220170524141, -2303.50372833058, -10840.529005590559, -1007.080198178315, -7.666648348170322, -5977.594074916134, -1781.076405176688, -3329.739371507093, -7073.54480904875, -4426.584175417921, -3282.5771907063954, -4176.736375896499, -3103.8079385528495, -10164.411087561975, -15005.329549947925, 0.0144375, -0.10640625000000001, 0.9859687500000001, 192.0, 0.0, 0.0, 0.0, 0.0, 0.0, 0.0, 0.0, 0.0, 0.0, 1.645921286777237E9, 0.0, 2022-02-27 11:21:26.777
70.0, -2300.5532980624794, -5571.0605467630085, -2434.0379159495733, -10956.31104186905, -1147.5162085910092, -135.4962748880714, -6078.758070320853, -1873.0538336102766, -3581.6435315184035, -7354.394478129683, -4699.230754283757, -3585.085700164521, -4469.253655583102, -3384.6352558893273, -10455.229634669977, -15245.052009231093, 0.0144375, -0.10640625000000001, 0.9859687500000001, 192.0, 0.0, 0.0, 0.0, 0.0, 0.0, 0.0, 0.0, 0.0, 0.0, 1.645921286784146E9, 0.0, 2022-02-27 11:21:26.784
72.0, -2015.546204512859, -5307.891107546224, -2179.6750640481787, -10704.920971980211, -870.376929089657, 126.13089396129776, -5851.038497810185, -1638.3605168295524, -3283.5383157179735, -7060.558445520216, -4451.953405374695, -3316.395380067275, -4220.12111188425, -3140.4200959706423, -10204.376006648065, -14967.264529140537, 0.0144375, -0.10640625000000001, 0.9859687500000001, 192.0, 0.0, 0.0, 0.0, 0.0, 0.0, 0.0, 0.0, 0.0, 0.0, 1.64592128679224E9, 0.0, 2022-02-27 11:21:26.792
74.0, -2298.720455017144, -5581.275293979084, -2463.363404674936, -10992.565571375559, -1174.0253775150034, -168.04041481499848, -6134.011582614373, -1921.0206772113654, -3491.2977804300526, -7202.693188511514, -4555.3972787138555, -3405.131805554844, -4325.621345713299, -3234.945623272136, -10314.883031235104, -15170.66540368383, 0.0144375, -0.10640625000000001, 0.9859687500000001, 192.0, 0.0, 0.0, 0.0, 0.0, 0.0, 0.0, 0.0, 0.0, 0.0, 1.645921286799352E9, 0.0, 2022-02-27 11:21:26.799
76.0, -2046.3916118611828, -5334.690849148136, -2240.315346755427, -10761.202664518674, -935.308746732324, 69.67038746719211, -5880.252227813271, -1666.8813427545242, -3459.223027136687, -7251.777619335368, -4647.888797269917, -3535.2413100291865, -4437.760047645575, -3352.42639212923, -10414.750625461415, -15144.71502837122, 0.01521875, -0.10620312500000001, 0.983984375, 192.0, 0.0, 64.0, 126.0, 88.0, 15.0, 88.0, 0.0, 0.0, 0.0, 1.64592128680682E9, 0.0, 2022-02-27 11:21:26.806
78.0, -2108.9094411026767, -5400.40497784674, -2310.2986586449933, -10845.893424259833, -1011.5281953249212, -14.930965296145118, -5961.254949719304, -1768.850000959635, -3307.7676067075263, -7047.303861058219, -4405.998218774584, -3265.4781061980852, -4183.77717539992, -3090.7992232798606, -10165.528674784742, -15008.97288429414, 0.01521875, -0.10620312500000001, 0.983984375, 192.0, 0.0, 0.0, 0.0, 0.0, 0.0, 0.0, 0.0, 0.0, 0.0, 1.645921286821899E9, 0.0, 2022-02-27 11:21:26.821
80.0, -2227.9771838160973, -5505.681694231235, -2437.2789188955926, -10965.072925695531, -1158.4462116296545, -142.87235055832275, -6103.233230499414, -1874.685510955514, -3561.0799266195213, -7329.7852074843895, -4680.231771496746, -3567.8972086783897, -4475.758013219597, -3377.3932906858076, -10450.513416589907, -15248.293012177111, 0.01521875, -0.10620312500000001, 0.983984375, 192.0, 0.0, 0.0, 0.0, 0.0, 0.0, 0.0, 0.0, 0.0, 0.0, 1.645921286829117E9, 0.0, 2022-02-27 11:21:26.829
82.0, -1947.5298461353598, -5237.438409023096, -2177.4622413471034, -10705.591524313872, -884.0561966963049, 120.87823401430059, -5887.985931394807, -1646.1612756444545, -3260.650129395739, -7037.133817331054, -4431.166283031259, -3316.5071387895514, -4226.714876498566, -3121.8681480727373, -10212.288524185244, -14973.29950014347, 0.01521875, -0.10620312500000001, 0.983984375, 192.0, 0.0, 0.0, 0.0, 0.0, 0.0, 0.0, 0.0, 0.0, 0.0, 1.645921286836544E9, 0.0, 2022-02-27 11:21:26.836
84.0, -2232.3581257293376, -5522.669020017269, -2458.7142418282324, -10988.855181795978, -1171.4549269026431, -174.03068232902078, -6106.87656484563, -1930.6989825605135, -3468.476649341184, -7190.891467439112, -4531.726781335686, -3386.28928497902, -4323.609688712321, -3230.0505912364238, -10305.696464263972, -15164.965708847727, 0.01521875, -0.10620312500000001, 0.983984375, 192.0, 0.0, 0.0, 0.0, 0.0, 0.0, 0.0, 0.0, 0.0, 0.0, 1.645921286844523E9, 0.0, 2022-02-27 11:21:26.844
86.0, -1990.5122507229153, -5280.152592677187, -2235.666183908723, -10758.542806928494, -936.761610121919, 62.3613670303067, -5883.269713314738, -1690.596543621605, -3442.8391984509467, -7233.918575515578, -4629.627422049931, -3521.472635444717, -4440.196387791203, -3349.744182794593, -10414.035369638845, -15148.492473184166, 0.012609374999999999, -0.1061015625, 0.9859921875, 192.0, 0.0, 40.0, 126.0, 88.0, 15.0, 112.0, 0.0, 0.0, 0.0, 1.645921286852846E9, 0.0, 2022-02-27 11:21:26.852
88.0, -2051.130181685708, -5348.012488843499, -2298.4522340836807, -10836.170415421775, -1005.8508522332731, -11.555851883393752, -5972.073194035673, -1753.4943525188392, -3292.456661755641, -7027.0755323261665, -4387.2227534321255, -3245.8085710774153, -4181.676111421122, -3089.4134151236317, -10157.973785158847, -15001.127421990326, 0.012609374999999999, -0.1061015625, 0.9859921875, 192.0, 0.0, 0.0, 0.0, 0.0, 0.0, 0.0, 0.0, 0.0, 0.0, 1.645921286859115E9, 0.0, 2022-02-27 11:21:26.859
90.0, -2186.648808318235, -5473.98692059361, -2433.076790937995, -10962.256605894161, -1151.5618743374198, -147.76738259403498, -6085.910628546551, -1869.7234236864358, -3551.803952670569, -7322.8561667032445, -4663.2220939662575, -3553.5920922269934, -4476.36151031989, -3373.8617150618693, -10448.59116656675, -15241.989820240715, 0.012609374999999999, -0.1061015625, 0.9859921875, 192.0, 0.0, 0.0, 0.0, 0.0, 0.0, 0.0, 0.0, 0.0, 0.0, 1.645921286867157E9, 0.0, 2022-02-27 11:21:26.867
92.0, -1907.5425753048153, -5210.9962953324675, -2172.254284889017, -10702.752852768046, -873.8861529691402, 102.32628611639574, -5848.848026853565, -1644.7084122548597, -3256.068021782401, -7038.139645831543, -4423.3208207274465, -3297.2399350690766, -4234.895614969208, -3148.600834441285, -10209.516907872785, -14971.377250120313, 0.012609374999999999, -0.1061015625, 0.9859921875, 192.0, 0.0, 0.0, 0.0, 0.0, 0.0, 0.0, 0.0, 0.0, 0.0, 1.645921286874524E9, 0.0, 2022-02-27 11:21:26.874
94.0, -2193.4213868881925, -5479.9548363631775, -2454.780334804098, -10985.837696294511, -1181.915543307727, -182.9043248777777, -6133.139864580616, -1924.5746045797594, -3461.346442859941, -7179.08974636671, -4524.395409154345, -3395.0511688055003, -4335.277299317992, -3236.8008180619263, -10308.781004998804, -15162.48466521319, 0.012609374999999999, -0.1061015625, 0.9859921875, 192.0, 0.0, 0.0, 0.0, 0.0, 0.0, 0.0, 0.0, 0.0, 0.0, 1.645921286882304E9, 0.0, 2022-02-27 11:21:26.882
96.0, -1952.0896020042424, -5239.94180440209, -2234.9062245972427, -10757.894606339289, -957.9287121210948, 50.73845991354703, -5913.668085773956, -1697.9949710363117, -3433.540872757539, -7242.658107597603, -4623.860671980461, -3518.991591810178, -4451.886350141329, -3350.7947147839923, -10422.931363932057, -15148.917156328816, 0.014, -0.108, 0.99, 192.0, 0.0, 56.0, 126.0, 80.0, 15.0, 120.0, 0.0, 0.0, 0.0, 1.645921286888755E9, 0.0, 2022-02-27 11:21:26.888
98.0, -2005.800843930345, -5301.47615688755, -2292.953704947675, -10827.654400784302, -1016.9373174831054, -15.802683329902093, -5994.693159424443, -1783.4903935778611, -3274.4858592135743, -6997.90650581199, -4374.683424792698, -3237.9631087736025, -4196.11533833925, -3087.424109867109, -10169.306119597688, -15004.748404592086, 0.014, -0.108, 0.99, 192.0, 0.0, 0.0, 0.0, 0.0, 0.0, 0.0, 0.0, 0.0, 0.0, 1.645921286896783E9, 0.0, 2022-02-27 11:21:26.896
100.0, -2162.263055117495, -5455.211455251152, -2445.7949335330645, -10968.626853063925, -1189.2245637446122, -178.94806610918835, -6120.958163852473, -1904.6368485256255, -3536.3365455074963, -7287.652169186136, -4653.543788617109, -3542.1927025547866, -4483.871696456873, -3366.7538603250814, -10458.850617271735, -15257.345468681511, 0.014, -0.108, 0.99, 192.0, 0.0, 0.0, 0.0, 0.0, 0.0, 0.0, 0.0, 0.0, 0.0, 1.645921286904818E9, 0.0, 2022-02-27 11:21:26.904
102.0, -1881.525144758838, -5186.319969453808, -2179.4962500925362, -10703.535163823983, -893.9133160010954, 88.24468710955229, -5884.2755418152265, -1667.9095229994684, -3262.5053241855294, -7055.037564639755, -4434.764913888564, -3304.1242723613113, -4263.327033916358, -3172.003110885991, -10232.382742450565, -14993.192552708693, 0.014, -0.108, 0.99, 192.0, 0.0, 0.0, 0.0, 0.0, 0.0, 0.0, 0.0, 0.0, 0.0, 1.645921286911457E9, 0.0, 2022-02-27 11:21:26.911
104.0, -2153.2329503575506, -5447.544806902982, -2453.707451070243, -10976.137039200907, -1182.362578196833, -205.85956643337803, -6163.8511614622075, -1960.069174774787, -3439.508788527106, -7149.60779543016, -4512.101949703926, -3369.5925318709055, -4338.518302264011, -3227.6366028352504, -10321.119167938134, -15176.34274677548, 0.014, -0.108, 0.99, 192.0, 0.0, 0.0, 0.0, 0.0, 0.0, 0.0, 0.0, 0.0, 0.0, 1.645921286919437E9, 0.0, 2022-02-27 11:21:26.919
106.0, -1939.170293709075, -5231.716362442537, -2253.2346550505945, -10756.374687716328, -965.3047877913461, 38.6014626743153, -5917.311420120171, -1715.2952212447192, -3433.8537971799133, -7228.487101612938, -4627.481654582221, -3516.5552516645494, -4464.313920058479, -3372.006520272079, -10438.01879143939, -15170.888921128384, 0.012, -0.108, 0.99, 192.0, 0.0, 48.0, 126.0, 80.0, 15.0, 120.0, 0.0, 0.0, 0.0, 1.645921286927426E9, 0.0, 2022-02-27 11:21:26.927
108.0, -1990.1546228116301, -5294.278895172942, -2307.5493940769907, -10827.609697295393, -1025.5874425873092, -52.12426806977607, -5993.620275690589, -1792.811071015724, -3263.555856174929, -6997.884154067535, -4376.605674815854, -3230.5423296144404, -4200.563335485856, -3097.1247669607123, -10181.756041259294, -15012.392701195802, 0.012, -0.108, 0.99, 192.0, 0.0, 0.0, 0.0, 0.0, 0.0, 0.0, 0.0, 0.0, 0.0, 1.645921286941064E9, 0.0, 2022-02-27 11:21:26.941
110.0, -2145.029860142453, -5434.849016052368, -2456.233198193693, -10969.699736797778, -1168.3256826789002, -186.30179003498438, -6116.107835305672, -1900.1888513790193, -3541.1421705653875, -7310.11567236372, -4658.081192741536, -3547.735935179703, -4485.995112180128, -3386.0434157900117, -10460.12466670569, -15259.334773938033, 0.012, -0.108, 0.99, 192.0, 0.0, 0.0, 0.0, 0.0, 0.0, 0.0, 0.0, 0.0, 0.0, 1.645921286949104E9, 0.0, 2022-02-27 11:21:26.949
112.0, -1865.9236271290335, -5172.193666958055, -2188.7945757859443, -10703.78103301299, -888.7500630319195, 82.99202716255512, -5877.413556267447, -1650.8774937245244, -3254.145771759245, -7034.429256251962, -4432.999126076595, -3313.288487587987, -4259.706051314599, -3161.00605261398, -10229.275849971276, -14988.901017773274, 0.012, -0.108, 0.99, 192.0, 0.0, 0.0, 0.0, 0.0, 0.0, 0.0, 0.0, 0.0, 0.0, 1.645921286957628E9, 0.0, 2022-02-27 11:21:26.957
114.0, -2145.5663020093803, -5431.78682706199, -2465.531523887101, -10975.980576989721, -1179.3450926953665, -179.7750806540347, -6152.183550856537, -1922.3841336231392, -3443.7556199736146, -7151.84296987569, -4517.0640369730045, -3384.836421589425, -4335.903148162741, -3241.9193675421916, -10312.200821900466, -15164.406915236345, 0.012, -0.108, 0.99, 192.0, 0.0, 0.0, 0.0, 0.0, 0.0, 0.0, 0.0, 0.0, 0.0, 1.645921286964246E9, 0.0, 2022-02-27 11:21:26.964
116.0, -1933.9176337620777, -5230.889347897691, -2263.605864477857, -10759.012193562055, -965.2600843024355, 38.13207604075385, -5934.142283695017, -1704.8346048396356, -3448.53889328705, -7250.302404201318, -4633.24840465169, -3525.7865221245916, -4468.538399760532, -3357.2096654426655, -10435.738913504949, -15162.529368702099, 0.014, -0.106, 0.994, 192.0, 0.0, 56.0, 126.0, 88.0, 15.5, 8.0, 0.0, 0.0, 0.0, 1.645921286971588E9, 0.0, 2022-02-27 11:21:26.971
118.0, -1980.9680558404991, -5284.488831101517, -2311.6844668012222, -10823.09464491542, -1017.3396488833009, -30.174855014664534, -5993.732034412866, -1785.7032162789365, -3272.8988853572473, -7006.109596027089, -4380.9419132401845, -3230.4082191477087, -4200.920963397141, -3089.5028221014527, -10169.48493355333, -15003.094375502395, 0.014, -0.106, 0.994, 192.0, 0.0, 0.0, 0.0, 0.0, 0.0, 0.0, 0.0, 0.0, 0.0, 1.645921286979701E9, 0.0, 2022-02-27 11:21:26.979
120.0, -2145.275729331461, -5437.419466664728, -2466.4479454097686, -10962.725992527723, -1178.8533543173498, -179.93154286522184, -6125.070884832249, -1911.297668373307, -3548.808818913558, -7307.9252014071, -4658.572931119554, -3544.27141478913, -4489.437280826245, -3380.0755000204445, -10454.827303269782, -15256.607861114486, 0.014, -0.106, 0.994, 192.0, 0.0, 0.0, 0.0, 0.0, 0.0, 0.0, 0.0, 0.0, 0.0, 1.645921286987708E9, 0.0, 2022-02-27 11:21:26.987
122.0, -1871.4445080094945, -5169.444402390051, -2199.9033927802316, -10697.231971887586, -893.7121503009976, 90.97159993309974, -5865.634186939501, -1662.9250839859349, -3276.296350514454, -7047.34856454713, -4444.666736682265, -3311.3438858203754, -4270.792516564431, -3160.2013898135892, -10231.891004072548, -14993.594884108888, 0.014, -0.106, 0.994, 192.0, 0.0, 0.0, 0.0, 0.0, 0.0, 0.0, 0.0, 0.0, 0.0, 1.645921286993666E9, 0.0, 2022-02-27 11:21:26.993
124.0, -2146.303909576405, -5429.842225294379, -2465.039785509084, -10967.822190263532, -1174.7406333375734, -187.53113598002625, -6129.496530234401, -1928.933194748544, -3450.7517159881254, -7134.542719667283, -4511.185528181259, -3382.511840166073, -4336.461941774123, -3229.8494255363257, -10296.688711248484, -15159.087200055981, 0.014, -0.106, 0.994, 192.0, 0.0, 0.0, 0.0, 0.0, 0.0, 0.0, 0.0, 0.0, 0.0, 1.64592128700132E9, 0.0, 2022-02-27 11:21:27.001
126.0, -1965.5006486774266, -5255.878598198724, -2282.113108886851, -10773.451420480184, -977.888819919684, 15.646221118714944, -5933.31526915017, -1705.594564151116, -3477.193829678754, -7272.005948067421, -4644.200759434791, -3547.89239739089, -4480.206010366203, -3367.2903021920088, -10434.218994881987, -15174.644014196876, 0.018000000000000002, -0.108, 0.99, 192.0, 0.0, 72.0, 126.0, 80.0, 15.0, 120.0, 0.0, 0.0, 0.0, 1.645921287009349E9, 0.0, 2022-02-27 11:21:27.009
128.0, -1995.004951358432, -5291.194354438109, -2306.923545232242, -10817.752577990601, -996.2843056064017, -18.663706620181397, -5974.353071970114, -1770.9063614495233, -3290.6014669658502, -7004.455566937396, -4389.614390088844, -3252.849370580837, -4202.776158186932, -3088.8322697677936, -10160.879511938037, -14999.16046847826, 0.018000000000000002, -0.108, 0.99, 192.0, 0.0, 0.0, 0.0, 0.0, 0.0, 0.0, 0.0, 0.0, 0.0, 1.645921287016434E9, 0.0, 2022-02-27 11:21:27.016
130.0, -2173.617741300791, -5461.715812887646, -2474.651035624866, -10977.612254334957, -1171.0749472469029, -182.2561242885738, -6102.249753743381, -1888.5435925178044, -3568.5677610120492, -7310.026265385898, -4663.423259666355, -3551.89335964839, -4486.151574391315, -3379.494354664607, -10438.689343773049, -15256.518454136665, 0.018000000000000002, -0.108, 0.99, 192.0, 0.0, 0.0, 0.0, 0.0, 0.0, 0.0, 0.0, 0.0, 0.0, 1.645921287023913E9, 0.0, 2022-02-27 11:21:27.023
132.0, -1889.7282349739355, -5187.795184587859, -2203.904355037732, -10709.503079593549, -880.4128623500899, 101.9463064606555, -5846.434038452392, -1636.214749361843, -3295.8988304017585, -7063.620634510593, -4455.641443209821, -3333.4274093422187, -4276.0451765114285, -3160.6037212137844, -10222.302105701221, -14992.365538163845, 0.018000000000000002, -0.108, 0.99, 192.0, 0.0, 0.0, 0.0, 0.0, 0.0, 0.0, 0.0, 0.0, 0.0, 1.645921287031959E9, 0.0, 2022-02-27 11:21:27.031
134.0, -2174.1988866566285, -5448.103600514365, -2474.2487042246707, -10974.393603133394, -1166.0234530000034, -168.59920842638118, -6119.281783018325, -1912.9964009519103, -3464.2968731280416, -7154.525179210327, -4517.779292795574, -3394.6041339163944, -4329.734066693076, -3223.9932684890355, -10283.836458186683, -15154.281574998091, 0.018000000000000002, -0.108, 0.99, 192.0, 0.0, 0.0, 0.0, 0.0, 0.0, 0.0, 0.0, 0.0, 0.0, 1.645921287039866E9, 0.0, 2022-02-27 11:21:27.039
136.0, -1980.5657244403035, -5262.695880257593, -2285.398815321781, -10773.27260652454, -969.5069157489438, 39.2496632635192, -5925.782731268732, -1700.1854419929318, -3495.5669636210164, -7283.20417203953, -4657.365936918966, -3556.3637085394516, -4482.687054000742, -3361.3670899113527, -10431.626192525173, -15169.011374594138, 0.016, -0.108, 0.992, 192.0, 0.0, 64.0, 126.0, 80.0, 15.5, 0.0, 0.0, 0.0, 0.0, 1.645921287046588E9, 0.0, 2022-02-27 11:21:27.046
138.0, -2014.6521347346468, -5306.348837178807, -2316.8030162814875, -10822.871127470868, -1001.760482997952, -12.382866428240114, -5975.4930109373345, -1747.3476227936296, -3301.352656048853, -7022.471072968373, -4392.989503501595, -3255.799800848937, -4201.725626197533, -3090.7768715354055, -10156.543273513707, -14995.986520765606, 0.016, -0.108, 0.992, 192.0, 0.0, 0.0, 0.0, 0.0, 0.0, 0.0, 0.0, 0.0, 0.0, 1.64592128705456E9, 0.0, 2022-02-27 11:21:27.054
140.0, -2182.513735594003, -5457.22311225213, -2477.82498333752, -10974.930045000321, -1175.7911653269728, -176.39996724128335, -6118.253602773381, -1886.107252372176, -3574.4015663148843, -7320.218660857518, -4664.607902122486, -3563.091583620499, -4488.36439709239, -3384.054110533489, -10439.918689718092, -15247.175424954346, 0.016, -0.108, 0.992, 192.0, 0.0, 0.0, 0.0, 0.0, 0.0, 0.0, 0.0, 0.0, 0.0, 1.645921287069715E9, 0.0, 2022-02-27 11:21:27.069
142.0, -1898.713636244969, -5185.001216530945, -2201.445663147648, -10699.578905055394, -882.4021676066122, 115.42440836720567, -5857.878131613509, -1636.505322039762, -3298.9163159032246, -7058.345622819141, -4453.383917019834, -3345.4302961147187, -4273.295911943425, -3165.789325927416, -10224.559631891207, -14989.549218362477, 0.016, -0.108, 0.992, 192.0, 0.0, 0.0, 0.0, 0.0, 0.0, 0.0, 0.0, 0.0, 0.0, 1.645921287076182E9, 0.0, 2022-02-27 11:21:27.076
144.0, -2183.318398394394, -5460.531170431515, -2472.6393786238887, -10970.50439959817, -1162.715394820618, -158.16094376575276, -6117.7171609064535, -1901.6640665130697, -3468.4990010856395, -7157.296795522785, -4516.482891617166, -3402.449596220207, -4331.410447527224, -3218.315925397387, -10285.468135531919, -15148.157197017337, 0.016, -0.108, 0.992, 192.0, 0.0, 0.0, 0.0, 0.0, 0.0, 0.0, 0.0, 0.0, 0.0, 1.645921287084249E9, 0.0, 2022-02-27 11:21:27.084
146.0, -1990.5793059562811, -5253.956348175568, -2290.986751435608, -10783.017967107055, -975.05014837386, 31.11362828178743, -5952.090734492628, -1710.9366310759344, -3513.6271731409042, -7274.710509146513, -4664.205570722291, -3583.56578154156, -4489.929019204262, -3365.479810891129, -10433.280221614865, -15177.236816553692, 0.014, -0.10200000000000001, 0.99, 192.0, 0.0, 56.0, 126.0, 104.0, 15.0, 120.0, 0.0, 0.0, 0.0, 1.645921287092224E9, 0.0, 2022-02-27 11:21:27.092
148.0, -2020.9776784154988, -5311.28857270343, -2314.4784348581356, -10821.172394892263, -996.6195817732313, -6.727875081047426, -5967.044051533228, -1764.1337828795652, -3307.6334962407946, -7020.43706422294, -4389.145003455282, -3267.9591498326245, -4210.331047812825, -3083.624313309707, -10163.159389872479, -15000.747442334587, 0.014, -0.10200000000000001, 0.99, 192.0, 0.0, 0.0, 0.0, 0.0, 0.0, 0.0, 0.0, 0.0, 0.0, 1.645921287099323E9, 0.0, 2022-02-27 11:21:27.099
150.0, -2190.627418831279, -5465.537961189504, -2479.1884397492936, -10983.893094526898, -1173.6677496037184, -175.05886257396492, -6107.614172412655, -1900.3453135902064, -3581.6211797739484, -7317.000009655954, -4661.903341043394, -3561.3034440640745, -4494.041740184038, -3360.8306480444253, -10436.811797238803, -15253.411561657378, 0.014, -0.10200000000000001, 0.99, 192.0, 0.0, 0.0, 0.0, 0.0, 0.0, 0.0, 0.0, 0.0, 0.0, 1.645921287106875E9, 0.0, 2022-02-27 11:21:27.106
152.0, -1900.3453135902064, -5194.835984091281, -2200.0375032469638, -10708.206678415141, -871.9639029459838, 111.0658181984208, -5849.92091058742, -1646.0271651777227, -3294.848298412359, -7062.63715775456, -4452.176922819248, -3348.4030781272745, -4283.823583581875, -3160.491962491508, -10229.208794737911, -14998.06523299995, 0.014, -0.10200000000000001, 0.99, 192.0, 0.0, 0.0, 0.0, 0.0, 0.0, 0.0, 0.0, 0.0, 0.0, 1.645921287114838E9, 0.0, 2022-02-27 11:21:27.114
154.0, -2187.185250185162, -5477.071461328443, -2469.7336518446987, -10977.276978168127, -1164.3694239103108, -167.34751073688398, -6121.718123163953, -1908.7048660164912, -3454.864436967902, -7172.451278263483, -4509.933830491761, -3409.6245061903605, -4334.852616173341, -3222.0263149769685, -10283.836458186683, -15155.734438387686, 0.014, -0.10200000000000001, 0.99, 192.0, 0.0, 0.0, 0.0, 0.0, 0.0, 0.0, 0.0, 0.0, 0.0, 1.645921287121846E9, 0.0, 2022-02-27 11:21:27.121
156.0, -2003.1409863401636, -5292.088424216321, -2289.913867701753, -10787.868295653856, -971.7420901944746, 23.60344214480426, -5922.452321344891, -1718.9832590798449, -3500.3949404233626, -7320.620992257714, -4660.361070675978, -3565.729089466225, -4498.355626863912, -3363.3116916789645, -10437.459997828008, -15184.545836990577, 0.016, -0.106, 0.988, 192.0, 0.0, 64.0, 126.0, 88.0, 15.0, 112.0, 0.0, 0.0, 0.0, 1.645921287128477E9, 0.0, 2022-02-27 11:21:27.128
158.0, -2006.9184311531105, -5282.834802011825, -2301.1120916738623, -10820.23362162514, -982.4485757885666, -1.2740494339525026, -5975.202438259415, -1777.4107190860177, -3285.058234340934, -7018.157186288498, -4380.696044051176, -3258.705527628127, -4201.189184330605, -3084.205458665545, -10151.715296711362, -15000.21100046766, 0.016, -0.106, 0.988, 192.0, 0.0, 0.0, 0.0, 0.0, 0.0, 0.0, 0.0, 0.0, 0.0, 1.645921287136512E9, 0.0, 2022-02-27 11:21:27.136
160.0, -2193.488442121559, -5477.540847962004, -2469.4430791667796, -10984.965978260754, -1173.0195490145147, -174.45536547367163, -6105.06607354475, -1903.6980752585025, -3552.7203741932362, -7304.326570549795, -4646.502989113687, -3576.1673541268533, -4480.585990021943, -3351.0852874619113, -10431.693247758538, -15249.54470986661, 0.016, -0.106, 0.988, 192.0, 0.0, 0.0, 0.0, 0.0, 0.0, 0.0, 0.0, 0.0, 0.0, 1.645921287144729E9, 0.0, 2022-02-27 11:21:27.144
162.0, -1894.0421216538098, -5197.8534695927465, -2184.8383170173547, -10693.141602652264, -876.5460105593218, 114.39622812226155, -5853.810114122643, -1639.0310691632117, -3289.0144931095238, -7097.081195960188, -4452.065164096972, -3343.1057146913668, -4278.883848057252, -3158.9943956130023, -10232.628611639573, -14997.72995683312, 0.016, -0.106, 0.988, 192.0, 0.0, 0.0, 0.0, 0.0, 0.0, 0.0, 0.0, 0.0, 0.0, 1.645921287151568E9, 0.0, 2022-02-27 11:21:27.151
164.0, -2174.1765349121733, -5466.610844923359, -2451.204055691249, -10962.54717857208, -1157.462734873621, -164.19591476868567, -6118.343009751202, -1913.5998980522036, -3435.2619570805978, -7162.661214192059, -4492.722987261175, -3370.732470838126, -4319.295802032448, -3191.7620529844826, -10279.857847673637, -15147.844272594963, 0.014, -0.106, 0.99, 192.0, 0.0, 48.0, 126.0, 88.0, 15.5, 0.0, 0.0, 0.0, 0.0, 1.645921287159124E9, 0.0, 2022-02-27 11:21:27.159
166.0, -2004.616201474214, -5283.930037490134, -2288.7068735011667, -10787.555371231481, -976.435956530089, 18.976631042555695, -5934.3434493951145, -1716.6810294009483, -3490.0013792516447, -7298.8503931582445, -4649.520474615154, -3567.092545877999, -4486.218629624681, -3350.61590082835, -10441.148035663133, -15185.953996891261, 0.014, -0.106, 0.99, 192.0, 0.0, 0.0, 0.0, 0.0, 0.0, 0.0, 0.0, 0.0, 0.0, 1.645921287167224E9, 0.0, 2022-02-27 11:21:27.167
168.0, -2040.0437164358757, -5332.276860746963, -2288.4833560566135, -10811.069406398465, -980.9510089100611, 0.24586918900837768, -5947.396868157014, -1752.3097100627078, -3279.64911218275, -7021.4428927234285, -4381.076023706916, -3265.9251410871916, -4200.988018630507, -3064.602978778241, -10153.257567078777, -14993.438421897701, 0.014, -0.106, 0.99, 192.0, 0.0, 0.0, 0.0, 0.0, 0.0, 0.0, 0.0, 0.0, 0.0, 1.645921287175144E9, 0.0, 2022-02-27 11:21:27.175
170.0, -2247.020870092019, -5530.559185809992, -2470.1583349893494, -10978.59573109099, -1177.4228426722102, -176.73524340811295, -6121.852233630685, -1900.3229618457513, -3554.150885838376, -7325.8513004602555, -4651.487428127221, -3561.4599062752613, -4479.311940587991, -3344.6032815698723, -10432.20733788101, -15250.081151733537, 0.014, -0.106, 0.99, 192.0, 0.0, 0.0, 0.0, 0.0, 0.0, 0.0, 0.0, 0.0, 0.0, 1.645921287188744E9, 0.0, 2022-02-27 11:21:27.188
172.0, -1993.3732740131945, -5297.586953352327, -2184.9500757396313, -10700.607085300337, -870.9357227010397, 113.34569613286212, -5862.594349693579, -1652.0397844362003, -3312.3720660653194, -7104.032588485788, -4474.439260296734, -3360.741241066604, -4291.490231930045, -3146.9021018626813, -10241.815178610705, -15002.245009213091, 0.014, -0.106, 0.99, 192.0, 0.0, 0.0, 0.0, 0.0, 0.0, 0.0, 0.0, 0.0, 0.0, 1.645921287196851E9, 0.0, 2022-02-27 11:21:27.196
174.0, -2316.60185058139, -5616.948678129755, -2449.9076545128414, -10971.93491124331, -1147.1809324241797, -156.70808037615782, -6130.859986646175, -1914.359857363684, -3471.695300542748, -7195.048891907799, -4529.13397897887, -3409.2445265346205, -4328.460017259124, -3185.436509303631, -10279.947254651459, -15150.481778440688, 0.012, -0.108, 0.99, 192.0, 0.0, 40.0, 126.0, 72.0, 15.0, 120.0, 0.0, 0.0, 0.0, 1.645921287204686E9, 0.0, 2022-02-27 11:21:27.204
176.0, -2216.600145888346, -5511.224926856152, -2292.886649714309, -10800.005292893087, -972.5691047393209, 17.456712419594815, -5926.565042324668, -1721.687820158937, -3539.6222519424264, -7351.376992628217, -4703.477585730265, -3613.4947673672164, -4499.584972808954, -3350.6606043172605, -10443.83024499777, -15186.445735269277, 0.012, -0.108, 0.99, 192.0, 0.0, 0.0, 0.0, 0.0, 0.0, 0.0, 0.0, 0.0, 0.0, 1.645921287211284E9, 0.0, 2022-02-27 11:21:27.211
178.0, -2249.278396282005, -5538.650517302814, -2300.1509666622837, -10820.300676858507, -974.0890233622818, 11.734665839036207, -5945.765190811777, -1765.497239291339, -3353.7227933076374, -7076.025852683289, -4448.9135681287735, -3311.187423609188, -4212.767387958454, -3064.8041444783385, -10152.810532189671, -14998.06523299995, 0.012, -0.108, 0.99, 192.0, 0.0, 0.0, 0.0, 0.0, 0.0, 0.0, 0.0, 0.0, 0.0, 1.64592128721968E9, 0.0, 2022-02-27 11:21:27.219
180.0, -2438.664727051822, -5717.263307245173, -2475.880381569908, -10990.375100418938, -1165.2187901996124, -171.8402113724007, -6122.947469108995, -1933.5823575952481, -3627.933994285345, -7355.087382207797, -4714.921678891383, -3605.3140288965737, -4484.02815866806, -3329.381743595808, -10430.285087857854, -15255.423218658356, 0.012, -0.108, 0.99, 192.0, 0.0, 0.0, 0.0, 0.0, 0.0, 0.0, 0.0, 0.0, 0.0, 1.645921287227419E9, 0.0, 2022-02-27 11:21:27.227
182.0, -2142.8393891858327, -5434.066704996432, -2189.8227560308883, -10707.446719103662, -861.637397007632, 126.10854221684245, -5843.550663417657, -1652.956205958868, -3361.1435724667995, -7123.411550928539, -4519.790949796552, -3417.4476167497182, -4289.098595273327, -3154.6805089331283, -10241.815178610705, -15011.073948272939, 0.012, -0.108, 0.99, 192.0, 0.0, 0.0, 0.0, 0.0, 0.0, 0.0, 0.0, 0.0, 0.0, 1.645921287233932E9, 0.0, 2022-02-27 11:21:27.233
184.0, -2407.23817434766, -5692.832850555522, -2459.273035439615, -10973.678347310824, -1149.5502173364423, -144.10169650336462, -6106.787157867809, -1893.7962524648015, -3513.8059870965467, -7195.317112841262, -4562.482781706189, -3422.521462741073, -4326.560118980422, -3159.419078757653, -10269.933673135482, -15145.072656282504, 0.011, -0.109, 0.991, 192.0, 0.0, 40.0, 126.0, 72.0, 15.5, 0.0, 0.0, 0.0, 0.0, 1.645921287241095E9, 0.0, 2022-02-27 11:21:27.241
186.0, -2233.051029807452, -5517.058732158987, -2298.0051991945743, -10804.050958639498, -979.9898838984828, 21.74824735501377, -5934.589318584123, -1738.0045936113113, -3561.9963481421887, -7330.7239807515125, -4721.828367928072, -3609.2255841762526, -4503.451824599722, -3355.8462090308917, -10441.237442640953, -15187.272749814125, 0.011, -0.109, 0.991, 192.0, 0.0, 0.0, 0.0, 0.0, 0.0, 0.0, 0.0, 0.0, 0.0, 1.64592128724906E9, 0.0, 2022-02-27 11:21:27.249
188.0, -2193.3766833992822, -5494.8634499148675, -2285.30940834396, -10805.481470284638, -965.7294709359969, 20.98828804353333, -5950.7049263364, -1771.822782972191, -3330.7899034964926, -7056.669241984992, -4432.797960376497, -3295.518850746018, -4197.121166839739, -3050.5213797713973, -10149.927157154938, -14995.517134132044, 0.011, -0.109, 0.991, 192.0, 0.0, 0.0, 0.0, 0.0, 0.0, 0.0, 0.0, 0.0, 0.0, 1.64592128725704E9, 0.0, 2022-02-27 11:21:27.257
190.0, -2372.727080908666, -5656.31010011555, -2479.6801781273102, -10988.184629462317, -1178.7639473395286, -179.7527289095794, -6125.5849749547215, -1915.455092841994, -3598.608505559982, -7345.207911158552, -4695.0956815595255, -3577.7543279831802, -4475.623902752865, -3347.8889880048023, -10427.669933756582, -15252.472788390254, 0.011, -0.109, 0.991, 192.0, 0.0, 0.0, 0.0, 0.0, 0.0, 0.0, 0.0, 0.0, 0.0, 1.645921287264256E9, 0.0, 2022-02-27 11:21:27.264
192.0, -2042.3012426258617, -5343.519788207983, -2178.579828569869, -10697.053157931943, -858.1058213836934, 124.32040266041788, -5843.1259802730065, -1637.5782057736167, -3325.2466708715765, -7118.337704937185, -4502.825975754974, -3386.5351541680284, -4291.08790052985, -3153.562921710363, -10247.783094380271, -15005.486012159112, 0.011, -0.109, 0.991, 192.0, 0.0, 0.0, 0.0, 0.0, 0.0, 0.0, 0.0, 0.0, 0.0, 1.645921287271747E9, 0.0, 2022-02-27 11:21:27.271
194.0, -2297.736978261111, -5597.167384286808, -2441.615157319922, -10966.592844318491, -1140.207188154124, -148.54969364997075, -6108.888221846607, -1910.4483020840053, -3463.134582416366, -7181.6825487235255, -4528.4187231563, -3396.839308361925, -4309.952772850129, -3161.274273547444, -10268.346699279155, -15138.769464346107, 0.010499999999999999, -0.10650000000000001, 0.9915, 192.0, 0.0, 40.0, 126.0, 96.0, 15.5, 0.0, 0.0, 0.0, 0.0, 1.64592128727973E9, 0.0, 2022-02-27 11:21:27.279
196.0, -2120.7335139195343, -5413.257230908541, -2287.0751961559295, -10802.03930163852, -978.8052414423515, 3.7774448129468934, -5931.370667382559, -1733.5789482091604, -3513.69422837427, -7311.099149119753, -4693.2181350252795, -3591.5230025676497, -4491.605400038409, -3368.8549243038806, -10447.78650376636, -15197.19692435228, 0.010499999999999999, -0.10650000000000001, 0.9915, 192.0, 0.0, 0.0, 0.0, 0.0, 0.0, 0.0, 0.0, 0.0, 0.0, 1.645921287286947E9, 0.0, 2022-02-27 11:21:27.286
198.0, -2088.0105600369648, -5387.955056185134, -2273.015948893541, -10803.648627239303, -961.5496947228545, 6.280840191941285, -5948.447400146413, -1757.8082391987134, -3284.767661663015, -7011.809290863192, -4399.069177993439, -3260.8065916069263, -4186.794660901387, -3054.3211763287995, -10145.657973963973, -14994.265436442547, 0.010499999999999999, -0.10650000000000001, 0.9915, 192.0, 0.0, 0.0, 0.0, 0.0, 0.0, 0.0, 0.0, 0.0, 0.0, 1.645921287294622E9, 0.0, 2022-02-27 11:21:27.294
200.0, -2273.64179773829, -5560.130543724364, -2465.375061675914, -10984.071908482541, -1179.2556857175452, -190.07923484793127, -6131.105855835182, -1922.6747063010582, -3552.765077682147, -7305.064178116821, -4658.72939333074, -3543.734972922203, -4465.856190425896, -3329.5605575514505, -10422.841956954237, -15251.422256400856, 0.010499999999999999, -0.10650000000000001, 0.9915, 192.0, 0.0, 0.0, 0.0, 0.0, 0.0, 0.0, 0.0, 0.0, 0.0, 1.645921287302364E9, 0.0, 2022-02-27 11:21:27.302
202.0, -1950.9943665259323, -5251.609415007761, -2166.509886564003, -10686.234913615575, -863.7384609864308, 121.8617107703341, -5856.961710090842, -1646.6530140224713, -3289.1262518318003, -7088.520477833806, -4475.959178919695, -3354.9074357637687, -4284.94117080464, -3150.4113257421645, -10246.084361801668, -15009.956361050174, 0.010499999999999999, -0.10650000000000001, 0.9915, 192.0, 0.0, 0.0, 0.0, 0.0, 0.0, 0.0, 0.0, 0.0, 0.0, 1.645921287316395E9, 0.0, 2022-02-27 11:21:27.316
204.0, -2209.022904517997, -5499.311447061473, -2428.1370554133723, -10953.181797645308, -1137.3238131193893, -152.41654544073887, -6094.583105395211, -1911.9011654736003, -3426.8577011654024, -7144.891577350089, -4496.522783818577, -3358.327252665431, -4303.2248977690815, -3161.8330671588265, -10260.50123697534, -15134.835557321974, 0.01125, -0.10625000000000001, 0.99375, 192.0, 0.0, 48.0, 126.0, 88.0, 15.5, 16.0, 0.0, 0.0, 0.0, 1.645921287324127E9, 0.0, 2022-02-27 11:21:27.324
206.0, -2046.6821845391019, -5330.0416863014325, -2282.4930885425915, -10790.61756022186, -987.9918084134828, 9.074808248854668, -5936.623327329556, -1742.653756458015, -3483.608780337427, -7278.5997126817365, -4664.54084688912, -3559.247083574186, -4487.492679058633, -3346.6596420597607, -10438.44347458404, -15190.044366126582, 0.01125, -0.10625000000000001, 0.99375, 192.0, 0.0, 0.0, 0.0, 0.0, 0.0, 0.0, 0.0, 0.0, 0.0, 1.645921287331944E9, 0.0, 2022-02-27 11:21:27.331
208.0, -2022.3634865717277, -5320.206918741098, -2262.1977045771723, -10788.494144498605, -969.372805282212, 21.435322932639473, -5950.101429236106, -1752.8461519296352, -3262.6617863967167, -6996.498345911306, -4375.756308526553, -3240.041821007946, -4190.370940014236, -3038.9655278880036, -10141.969936128848, -14980.317947902437, 0.01125, -0.10625000000000001, 0.99375, 192.0, 0.0, 0.0, 0.0, 0.0, 0.0, 0.0, 0.0, 0.0, 0.0, 1.645921287339977E9, 0.0, 2022-02-27 11:21:27.339
210.0, -2220.601108145846, -5506.620467498358, -2463.6763290973104, -10977.634606079413, -1180.462679918132, -173.4271852287275, -6127.4625214889675, -1920.260717899885, -3533.7213914062254, -7271.53656143386, -4638.590471576509, -3514.5882981524824, -4463.755126447097, -3319.837548713392, -10413.655389983105, -15241.051046973593, 0.01125, -0.10625000000000001, 0.99375, 192.0, 0.0, 0.0, 0.0, 0.0, 0.0, 0.0, 0.0, 0.0, 0.0, 1.645921287346587E9, 0.0, 2022-02-27 11:21:27.346
212.0, -1899.942982190011, -5194.411300946629, -2162.575979539869, -10674.366137309808, -856.3400335717242, 138.75962957854625, -5836.956898803342, -1624.6812492229044, -3278.285655770976, -7077.366957350607, -4469.812449194485, -3339.9541187231684, -4290.8420313408415, -3156.9603868675695, -10245.056181556723, -14999.473392900634, 0.01125, -0.10625000000000001, 0.99375, 192.0, 0.0, 0.0, 0.0, 0.0, 0.0, 0.0, 0.0, 0.0, 0.0, 1.645921287354668E9, 0.0, 2022-02-27 11:21:27.354
214.0, -2159.8714184607766, -5448.2600627255515, -2419.486930309168, -10938.317887582527, -1129.3442403488446, -128.72369631811338, -6101.646256643088, -1903.6980752585025, -3411.479700980151, -7116.303696191752, -4481.189487122237, -3333.002726197568, -4295.155918020716, -3156.3568897672762, -10252.454608971431, -15125.537231628567, 0.010624999999999999, -0.106125, 0.9938750000000001, 192.0, 0.0, 40.0, 126.0, 88.0, 15.5, 8.0, 0.0, 0.0, 0.0, 1.645921287362543E9, 0.0, 2022-02-27 11:21:27.362
216.0, -1998.7600444269235, -5285.449956113095, -2269.5514285029685, -10788.091813098408, -977.1065088637482, 24.855139834301454, -5936.064533718173, -1732.4613609863952, -3461.502905071128, -7240.847616296723, -4646.1453612024025, -3537.2306152857086, -4478.484926043145, -3332.332173863909, -10434.666029771093, -15187.362156791945, 0.010624999999999999, -0.106125, 0.9938750000000001, 192.0, 0.0, 0.0, 0.0, 0.0, 0.0, 0.0, 0.0, 0.0, 0.0, 1.645921287368637E9, 0.0, 2022-02-27 11:21:27.368
218.0, -1975.2683610043957, -5284.37707237924, -2242.148189800762, -10777.22886529313, -947.0210608269049, 30.174855014664534, -5924.93336497943, -1756.0200996422889, -3234.8562162943144, -6979.823944547647, -4351.616424514821, -3213.175024172667, -4170.3884804711915, -3036.4174290200986, -10128.514185966753, -14977.523979845522, 0.010624999999999999, -0.106125, 0.9938750000000001, 192.0, 0.0, 0.0, 0.0, 0.0, 0.0, 0.0, 0.0, 0.0, 0.0, 1.645921287376297E9, 0.0, 2022-02-27 11:21:27.376
220.0, -2191.6555990762236, -5482.458231742172, -2458.2225034502153, -10979.802725291578, -1174.8970955487605, -179.79743239849, -6128.177777311537, -1935.9516425075105, -3516.5552516645494, -7280.320797004795, -4621.804311490573, -3499.2102979672313, -4446.253710538592, -3319.4799208021072, -10402.099538099712, -15244.40380864189, 0.010624999999999999, -0.106125, 0.9938750000000001, 192.0, 0.0, 0.0, 0.0, 0.0, 0.0, 0.0, 0.0, 0.0, 0.0, 1.645921287384329E9, 0.0, 2022-02-27 11:21:27.384
222.0, -1879.424080780039, -5174.741765825959, -2162.6877382621456, -10680.624625757293, -865.638359265132, 125.05801022744302, -5849.764448376232, -1646.0048134332674, -3272.071870812401, -7073.455402070928, -4462.324614801957, -3340.1776361677216, -4296.072339543383, -3160.1790380691336, -10248.297184502744, -15009.934009305718, 0.010624999999999999, -0.106125, 0.9938750000000001, 192.0, 0.0, 0.0, 0.0, 0.0, 0.0, 0.0, 0.0, 0.0, 0.0, 1.645921287392238E9, 0.0, 2022-02-27 11:21:27.392
224.0, -2143.576996752858, -5428.657582838247, -2416.0000581741406, -10942.40825681785, -1140.5201125764981, -136.18917896618592, -6099.29932347528, -1910.3812468506394, -3402.606058431394, -7098.601114583149, -4470.862981183885, -3331.929842463713, -4300.386226223258, -3150.008994341969, -10251.64994617104, -15132.04158926506, 0.0113125, -0.1050625, 0.9959375, 192.0, 0.0, 48.0, 126.0, 96.0, 15.5, 24.0, 0.0, 0.0, 0.0, 1.645921287398841E9, 0.0, 2022-02-27 11:21:27.398
226.0, -1998.938858382566, -5281.650159555693, -2278.9391611741976, -10796.56312424697, -994.6302765167089, 12.159348983687043, -5950.056725747196, -1755.5730647531827, -3475.1374691888655, -7272.385927723161, -4653.1861607058245, -3544.1149525779433, -4494.734644262153, -3352.1805229402216, -10444.701963031526, -15201.95784592126, 0.0113125, -0.1050625, 0.9959375, 192.0, 0.0, 0.0, 0.0, 0.0, 0.0, 0.0, 0.0, 0.0, 0.0, 1.645921287406849E9, 0.0, 2022-02-27 11:21:27.406
228.0, -1960.516209663893, -5247.988432406, -2242.4611142231365, -10773.965510602655, -955.1347440641814, 35.53927368393823, -5944.245272188816, -1755.528361264272, -3233.716277327094, -6963.28365365072, -4351.2364448590815, -3199.9204397106696, -4177.675149163621, -3039.211397077012, -10140.852348906083, -14983.380136892813, 0.0113125, -0.1050625, 0.9959375, 192.0, 0.0, 0.0, 0.0, 0.0, 0.0, 0.0, 0.0, 0.0, 0.0, 1.645921287414892E9, 0.0, 2022-02-27 11:21:27.414
230.0, -2188.7945757859443, -5468.868371113345, -2457.9989860056626, -10980.786202047611, -1185.6259328873077, -180.9820748546213, -6134.592727970211, -1945.7864100678457, -3519.148054021365, -7259.176046750074, -4624.665334780852, -3494.181155464787, -4452.467495497167, -3323.100903403867, -10412.560154504796, -15250.796407556107, 0.0113125, -0.1050625, 0.9959375, 192.0, 0.0, 0.0, 0.0, 0.0, 0.0, 0.0, 0.0, 0.0, 0.0, 1.645921287421881E9, 0.0, 2022-02-27 11:21:27.421
232.0, -1872.8526679101788, -5163.87881802068, -2153.992909669031, -10679.909369934723, -862.2855975968358, 139.11725748983116, -5838.968555804319, -1652.0621361806557, -3276.162240047722, -7069.432088068973, -4470.527705017055, -3341.362278623853, -4301.034426812462, -3164.559979982374, -10253.952175849936, -15018.964114065662, 0.0113125, -0.1050625, 0.9959375, 192.0, 0.0, 0.0, 0.0, 0.0, 0.0, 0.0, 0.0, 0.0, 0.0, 1.645921287436491E9, 0.0, 2022-02-27 11:21:27.436
234.0, -2137.7878949389333, -5418.353428644351, -2406.14293886935, -10940.64246900588, -1132.6746502726853, -131.02592599701, -6095.4101199400575, -1910.3812468506394, -3392.8830495933357, -7115.521385135817, -4468.8736759273625, -3317.4682638011295, -4286.75166210552, -3141.71649714905, -10246.844321113149, -15130.074635752993, 0.012, -0.108, 0.992, 192.0, 0.0, 48.0, 126.0, 80.0, 15.5, 0.0, 0.0, 0.0, 0.0, 1.645921287444591E9, 0.0, 2022-02-27 11:21:27.444
236.0, -2010.8523381772445, -5285.09232820181, -2286.0693676554406, -10805.727339473646, -1004.4650440770441, 0.24586918900837768, -5947.441571645924, -1769.6770155044815, -3473.7963645215473, -7266.887398587156, -4659.9363875313275, -3542.2374060436973, -4496.545135563032, -3356.583816597917, -10446.132474676666, -15207.121098890437, 0.012, -0.108, 0.992, 192.0, 0.0, 0.0, 0.0, 0.0, 0.0, 0.0, 0.0, 0.0, 0.0, 1.645921287451604E9, 0.0, 2022-02-27 11:21:27.451
238.0, -1958.0575177738092, -5247.876673683724, -2241.2988235114603, -10774.144324558298, -955.76059290893, 30.487779437038835, -5946.860426290086, -1780.785832498769, -3237.7619430735044, -6972.894903766502, -4364.222808387614, -3209.3752276152645, -4184.939466111597, -3044.2852430683665, -10142.52872974023, -14986.285863672003, 0.012, -0.108, 0.992, 192.0, 0.0, 0.0, 0.0, 0.0, 0.0, 0.0, 0.0, 0.0, 0.0, 1.645921287459905E9, 0.0, 2022-02-27 11:21:27.459
240.0, -2184.2124681726063, -5462.431068710216, -2459.0271662506066, -10986.240027694706, -1186.6094096433415, -186.27943829052907, -6128.468349989456, -1936.6221948411699, -3506.899298059857, -7263.758154363412, -4621.133759156914, -3484.972236749201, -4450.567597218465, -3307.3876270517862, -10408.335674802742, -15250.416427900367, 0.012, -0.108, 0.992, 192.0, 0.0, 0.0, 0.0, 0.0, 0.0, 0.0, 0.0, 0.0, 0.0, 1.645921287467069E9, 0.0, 2022-02-27 11:21:27.467
242.0, -1872.137412087609, -5163.051803475833, -2156.8539329593104, -10682.502172291539, -864.2078476199923, 124.52156836051564, -5848.512750686736, -1645.758944244259, -3274.1729347911996, -7090.576838323694, -4478.730795232153, -3343.038659458001, -4308.321095504892, -3178.172192355656, -10262.60230095414, -15025.4461199577, 0.012, -0.108, 0.992, 192.0, 0.0, 0.0, 0.0, 0.0, 0.0, 0.0, 0.0, 0.0, 0.0, 1.645921287474046E9, 0.0, 2022-02-27 11:21:27.474
244.0, -2128.5789762233467, -5408.45160585065, -2401.560831256012, -10938.899032938365, -1125.9244234471826, -127.15907420624188, -6103.233230499414, -1916.1927004090192, -3380.902514565291, -7097.148251193554, -4470.125373616859, -3309.712208475138, -4285.65642662721, -3150.858360631271, -10248.207777524922, -15129.761711330619, 0.014, -0.108, 0.984, 192.0, 0.0, 56.0, 126.0, 80.0, 15.0, 96.0, 0.0, 0.0, 0.0, 1.645921287481778E9, 0.0, 2022-02-27 11:21:27.481
246.0, -2004.4150357741162, -5282.745395034003, -2280.3920245637923, -10806.621409251858, -1000.2629161194463, 2.525747123449698, -5933.650545317, -1768.402966070529, -3458.7536405031256, -7277.236256269963, -4659.109372986481, -3541.4327432433065, -4485.235152868647, -3359.1319154658217, -10442.332678119265, -15210.183287880815, 0.014, -0.108, 0.984, 192.0, 0.0, 0.0, 0.0, 0.0, 0.0, 0.0, 0.0, 0.0, 0.0, 1.645921287488899E9, 0.0, 2022-02-27 11:21:27.488
248.0, -1960.1138782636976, -5243.6968974705815, -2235.0626868084296, -10777.27356878204, -950.2173602840138, 34.39933471671757, -5923.41344635647, -1751.3485850511295, -3223.6803440666613, -6979.28750268072, -4365.586264799388, -3211.6104020607954, -4175.35056774027, -3046.274548324889, -10131.934002868415, -14982.664881070243, 0.014, -0.108, 0.984, 192.0, 0.0, 0.0, 0.0, 0.0, 0.0, 0.0, 0.0, 0.0, 0.0, 1.645921287496715E9, 0.0, 2022-02-27 11:21:27.496
250.0, -2189.509831608514, -5460.1735425202305, -2453.4168783923246, -10986.284731183618, -1185.0894910203804, -186.07827259043128, -6123.036876086817, -1946.4346106570497, -3499.12089098941, -7259.801895594824, -4622.273698124135, -3495.3657979209183, -4441.06810582496, -3330.678144774216, -10396.623360708161, -15247.510701121177, 0.014, -0.108, 0.984, 192.0, 0.0, 0.0, 0.0, 0.0, 0.0, 0.0, 0.0, 0.0, 0.0, 1.645921287503846E9, 0.0, 2022-02-27 11:21:27.503
252.0, -1875.199601077986, -5160.302538907831, -2151.735383479045, -10682.368061824807, -866.8677052101738, 122.53226310399332, -5840.935509316387, -1648.9552437013679, -3272.7647748905156, -7083.200762653442, -4485.905705202306, -3359.33308116592, -4308.745778649542, -3182.396672057709, -10261.417658498009, -15025.133195535327, 0.014, -0.108, 0.984, 192.0, 0.0, 0.0, 0.0, 0.0, 0.0, 0.0, 0.0, 0.0, 0.0, 1.645921287511942E9, 0.0, 2022-02-27 11:21:27.511
254.0, -2134.9492233931096, -5415.023018720511, -2398.1186626098947, -10939.793102716578, -1125.946775191638, -138.44670515617196, -6093.040835027795, -1922.3394301342287, -3374.554619139984, -7102.378559396096, -4469.3430625609235, -3313.1543771212555, -4279.666159113188, -3153.0488315878906, -10237.233070997367, -15123.100891482938, 0.012, -0.11, 0.984, 192.0, 0.0, 48.0, 126.0, 72.0, 15.0, 96.0, 0.0, 0.0, 0.0, 1.645921287519353E9, 0.0, 2022-02-27 11:21:27.519
0.0, -2027.7949604743674, -5310.215688969575, -2295.412396837759, -10822.558203048493, -1015.1715296711362, -26.196244501619876, -5965.613539888089, -1780.7634807543136, -3478.601989579438, -7299.185669325075, -4672.095736515014, -3549.412316013851, -4497.506260574611, -3373.928770295235, -10447.987669466456, -15222.901430475884, 0.012, -0.11, 0.984, 192.0, 0.0, 0.0, 0.0, 0.0, 0.0, 0.0, 0.0, 0.0, 0.0, 1.645921287527437E9, 0.0, 2022-02-27 11:21:27.527
2.0, -1959.9127125635998, -5244.412153293151, -2235.532073441991, -10771.998557090588, -954.4641917305222, 28.96786081407795, -5946.301632678704, -1743.7713436807805, -3232.844559293337, -6990.038691763722, -4375.4210323597235, -3218.315925397387, -4186.1241085677275, -3065.0947171562575, -10138.393657015999, -14984.542427604489, 0.012, -0.11, 0.984, 192.0, 0.0, 0.0, 0.0, 0.0, 0.0, 0.0, 0.0, 0.0, 0.0, 1.645921287534524E9, 0.0, 2022-02-27 11:21:27.534
4.0, -2189.375721141782, -5453.065687783443, -2457.037860994084, -10993.638455109412, -1190.8562410898496, -196.00244712858762, -6142.237024573926, -1956.7164131064908, -3504.530013147594, -7232.868043526179, -4623.1901196468025, -3485.0392919825667, -4443.146818059304, -3323.4361795706964, -10400.132584587644, -15251.422256400856, 0.012, -0.11, 0.984, 192.0, 0.0, 0.0, 0.0, 0.0, 0.0, 0.0, 0.0, 0.0, 0.0, 1.645921287542069E9, 0.0, 2022-02-27 11:21:27.542
6.0, -1874.9537318889777, -5148.97020446899, -2154.506999791503, -10690.30293110644, -864.0066819198945, 128.94721376266645, -5835.459331924836, -1654.9455112153903, -3284.968827363113, -7093.951951736445, -4493.79587099503, -3361.836476544914, -4310.198642039138, -3181.6814162351393, -10261.104734075634, -15033.716265406165, 0.012, -0.11, 0.984, 192.0, 0.0, 0.0, 0.0, 0.0, 0.0, 0.0, 0.0, 0.0, 0.0, 1.645921287549958E9, 0.0, 2022-02-27 11:21:27.549
8.0, -2126.99200236702, -5400.986123202578, -2400.957334155719, -10939.077846894008, -1127.198472881135, -136.61386211083678, -6096.550058907278, -1904.390979336617, -3368.5643516259615, -7096.812975026724, -4467.152591604304, -3314.160205621744, -4276.916894545186, -3172.9642358975693, -10236.763684363805, -15126.252487451136, 0.01, -0.106, 0.988, 192.0, 0.0, 40.0, 126.0, 88.0, 15.0, 112.0, 0.0, 0.0, 0.0, 1.645921287563781E9, 0.0, 2022-02-27 11:21:27.563
10.0, -2024.9786406729986, -5297.028159740944, -2300.7991672514877, -10829.621354296369, -1020.9606314850607, -28.409067202695276, -5955.801124072209, -1784.205649400431, -3479.540762846561, -7300.236201314474, -4674.68853887183, -3560.3646707969515, -4496.701597774219, -3384.6576076337824, -10447.585338066261, -15218.766357751652, 0.01, -0.106, 0.988, 192.0, 0.0, 0.0, 0.0, 0.0, 0.0, 0.0, 0.0, 0.0, 0.0, 1.645921287571665E9, 0.0, 2022-02-27 11:21:27.571
12.0, -1962.6396253871474, -5248.346060317285, -2245.612710191335, -10782.70504268468, -955.4700202310111, 16.517939152471918, -5933.337620894626, -1762.367995067596, -3232.553986615418, -6974.1913049449095, -4379.846677761874, -3223.0097917330017, -4189.767442913943, -3084.518383087919, -10142.640488462506, -14991.337357918903, 0.01, -0.106, 0.988, 192.0, 0.0, 0.0, 0.0, 0.0, 0.0, 0.0, 0.0, 0.0, 0.0, 1.645921287579789E9, 0.0, 2022-02-27 11:21:27.579
14.0, -2196.125947967285, -5465.716775145147, -2472.1029367569613, -10997.393548177904, -1190.364502711833, -191.442691259705, -6137.923137894051, -1960.6279683861696, -3512.666048129326, -7263.288767729851, -4635.193006419302, -3499.7467398341587, -4453.361565275379, -3343.5080460915624, -10404.781747434348, -15251.846939545507, 0.01, -0.106, 0.988, 192.0, 0.0, 0.0, 0.0, 0.0, 0.0, 0.0, 0.0, 0.0, 0.0, 1.645921287586823E9, 0.0, 2022-02-27 11:21:27.586
16.0, -1877.166554590053, -5162.291844164353, -2164.8111539853994, -10692.135774151777, -867.0465191658162, 121.5264346035045, -5829.781988833188, -1657.7841827612142, -3284.678254685194, -7110.045207744266, -4501.998961210127, -3365.5915696134057, -4319.005229354529, -3199.071073421368, -10274.158152837534, -15040.444140487212, 0.01, -0.106, 0.988, 192.0, 0.0, 0.0, 0.0, 0.0, 0.0, 0.0, 0.0, 0.0, 0.0, 1.645921287594308E9, 0.0, 2022-02-27 11:21:27.594
18.0, -2119.5265197189474, -5390.59256203086, -2403.1925086012493, -10934.942774169776, -1119.9565076776157, -117.90545200174475, -6071.314939417236, -1888.2753715843407, -3369.2349039596206, -7087.492297588861, -4473.746356218619, -3316.618897511828, -4276.89454280073, -3164.649386960195, -10232.092169772646, -15119.122280969892, 0.01, -0.106, 0.986, 192.0, 0.0, 40.0, 126.0, 88.0, 15.0, 104.0, 0.0, 0.0, 0.0, 1.645921287602263E9, 0.0, 2022-02-27 11:21:27.602
20.0, -2020.2177191040182, -5291.797851538402, -2309.985734222619, -10828.548470562515, -1020.9159279961501, -4.135072724231806, -5970.307406223704, -1781.366977854607, -3469.795402264047, -7282.310102261317, -4672.229846981746, -3557.257778317664, -4496.276914629569, -3375.247523218098, -10451.251024156933, -15220.53214556362, 0.01, -0.106, 0.986, 192.0, 0.0, 0.0, 0.0, 0.0, 0.0, 0.0, 0.0, 0.0, 0.0, 1.645921287609351E9, 0.0, 2022-02-27 11:21:27.609
22.0, -1963.9136748210997, -5242.89223467019, -2244.8080473909436, -10772.087964068409, -949.6362149281758, 41.283672008952145, -5923.927536478942, -1743.5701779806827, -3223.814454533393, -6969.631549076027, -4379.801974272964, -3220.9981347320245, -4185.364149256247, -3065.4746968119975, -10142.193453573402, -14977.412221123246, 0.01, -0.106, 0.986, 192.0, 0.0, 0.0, 0.0, 0.0, 0.0, 0.0, 0.0, 0.0, 0.0, 1.645921287616027E9, 0.0, 2022-02-27 11:21:27.616
24.0, -2205.0442940049525, -5466.566141434449, -2479.7025298717654, -10998.444080167304, -1205.653095919263, -202.32799080943954, -6143.064039118772, -1976.0506720603314, -3508.463920171728, -7271.402450967128, -4639.05985821007, -3493.7564723201363, -4449.807637906985, -3335.550825065473, -10404.245305567421, -15243.710904563774, 0.01, -0.106, 0.986, 192.0, 0.0, 0.0, 0.0, 0.0, 0.0, 0.0, 0.0, 0.0, 0.0, 1.645921287624055E9, 0.0, 2022-02-27 11:21:27.624
26.0, -1882.3074558147737, -5155.854541761225, -2170.376738354771, -10692.06871891841, -887.632475809154, 108.83064375289008, -5868.3610997630485, -1669.272979411242, -3296.971714135613, -7100.813937284224, -4512.437225870755, -3382.154212254788, -4331.321040549403, -3213.085617194846, -10286.988054154881, -15043.372219010856, 0.01, -0.106, 0.986, 192.0, 0.0, 0.0, 0.0, 0.0, 0.0, 0.0, 0.0, 0.0, 0.0, 1.645921287631994E9, 0.0, 2022-02-27 11:21:27.631
28.0, -2121.4934732310144, -5395.375835344295, -2399.0574358770177, -10933.087579379986, -1130.595938038342, -135.25040569906304, -6062.10602070165, -1914.2480986414075, -3354.1474764522886, -7084.988902209867, -4463.21868458017, -3306.0465223844676, -4275.732252089054, -3161.4083840141757, -10237.903623331025, -15116.238905935159, 0.01, -0.1, 0.988, 192.0, 0.0, 40.0, 126.0, 112.0, 15.0, 112.0, 0.0, 0.0, 0.0, 1.645921287639071E9, 0.0, 2022-02-27 11:21:27.639
30.0, -2026.2303383624958, -5297.296380674408, -2306.6553242987784, -10831.834176997445, -1032.8964630241946, -25.615099145781894, -5962.305481708704, -1787.111376179621, -3477.417347123307, -7290.312026776318, -4675.3143877165785, -3558.889455662901, -4500.2778768870685, -3385.998712301101, -10451.139265434655, -15226.947096222293, 0.01, -0.1, 0.988, 192.0, 0.0, 0.0, 0.0, 0.0, 0.0, 0.0, 0.0, 0.0, 0.0, 1.645921287646637E9, 0.0, 2022-02-27 11:21:27.646
32.0, -1946.81459031279, -5226.486054239996, -2233.766285630022, -10767.818780877446, -953.8830463746842, 50.649052935725805, -5933.091751705618, -1764.849038702135, -3211.520995082974, -6978.192267202409, -4372.649416047266, -3213.8232247618707, -4179.642102675689, -3077.969321962514, -10143.691020451906, -14984.341261904392, 0.01, -0.1, 0.988, 192.0, 0.0, 0.0, 0.0, 0.0, 0.0, 0.0, 0.0, 0.0, 0.0, 1.645921287654586E9, 0.0, 2022-02-27 11:21:27.654
34.0, -2192.504965365525, -5452.216321494141, -2468.101974499461, -11000.008702279176, -1201.5180231950312, -187.6875981912134, -6120.131149307626, -1966.1041457777199, -3494.672893842804, -7248.67072685608, -4622.184291146314, -3488.59321935096, -4439.391724990813, -3326.967755194635, -10395.729290929949, -15248.047142988104, 0.01, -0.1, 0.988, 192.0, 0.0, 0.0, 0.0, 0.0, 0.0, 0.0, 0.0, 0.0, 0.0, 1.6459212876627E9, 0.0, 2022-02-27 11:21:27.662
36.0, -1878.8876389131117, -5152.837056259758, -2168.745061009534, -10694.795631741958, -883.7209205294754, 108.62947805279232, -5834.945241802364, -1670.5246771007392, -3300.1903653371774, -7118.181242725997, -4511.27493515908, -3381.0813285209333, -4331.589261482866, -3218.7629602864936, -10279.813144184727, -15048.490768491123, 0.01, -0.1, 0.988, 192.0, 0.0, 0.0, 0.0, 0.0, 0.0, 0.0, 0.0, 0.0, 0.0, 1.64592128767066E9, 0.0, 2022-02-27 11:21:27.670
38.0, -2121.7169906755676, -5391.978370187088, -2401.851403933931, -10926.359704298939, -1137.9273102196826, -129.23778644058544, -6084.994207023884, -1899.652409512092, -3360.249502688587, -7089.7051202899365, -4466.750260204108, -3312.2156038541325, -4282.951865548118, -3160.268445046955, -10227.375951692577, -15108.684016309264, 0.018000000000000002, -0.10400000000000001, 0.988, 192.0, 0.0, 72.0, 126.0, 96.0, 15.0, 112.0, 0.0, 0.0, 0.0, 1.645921287684316E9, 0.0, 2022-02-27 11:21:27.684
40.0, -2035.930995456099, -5307.600534868305, -2321.9439175062084, -10835.566918321481, -1057.528085413943, -39.80845687490188, -5985.774813386776, -1821.6895248519809, -3495.5222601321057, -7292.144869821653, -4681.483469186243, -3557.861275417957, -4513.353647393424, -3393.6653606492714, -10459.968204494502, -15230.031636957126, 0.018000000000000002, -0.10400000000000001, 0.988, 192.0, 0.0, 0.0, 0.0, 0.0, 0.0, 0.0, 0.0, 0.0, 0.0, 1.645921287692356E9, 0.0, 2022-02-27 11:21:27.692
42.0, -1946.9934042684324, -5215.131368056699, -2235.666183908723, -10765.717716898647, -967.9199418926171, 42.937701098644865, -5919.188966654417, -1749.493390261339, -3227.7036580686163, -6972.693738066404, -4379.399642872768, -3227.815416790893, -4203.089082609306, -3086.775909277905, -10149.837750177116, -14984.028337482017, 0.018000000000000002, -0.10400000000000001, 0.988, 192.0, 0.0, 0.0, 0.0, 0.0, 0.0, 0.0, 0.0, 0.0, 0.0, 1.645921287698947E9, 0.0, 2022-02-27 11:21:27.698
44.0, -2192.236744432061, -5458.094830285887, -2475.947436803274, -10996.521830144147, -1218.4159420032433, -203.69144722121325, -6150.9989084004055, -1974.7989743708342, -3500.1937747232646, -7250.592976879237, -4617.803349233073, -3501.892507301868, -4448.198312306204, -3326.2077958831546, -10395.326959529753, -15243.934422008328, 0.018000000000000002, -0.10400000000000001, 0.988, 192.0, 0.0, 0.0, 0.0, 0.0, 0.0, 0.0, 0.0, 0.0, 0.0, 1.645921287706943E9, 0.0, 2022-02-27 11:21:27.706
46.0, -1873.2549993103744, -5159.162599940611, -2172.924837222676, -10689.520620050505, -894.0697782122825, 112.20575716564146, -5859.487457214291, -1680.6500173389934, -3309.3322288193976, -7119.768216582324, -4514.918269505295, -3381.5283634100397, -4347.838979701874, -3227.480140624063, -10301.829612473204, -15056.358582539391, 0.017, -0.10400000000000001, 0.989, 192.0, 0.0, 64.0, 126.0, 96.0, 15.0, 120.0, 0.0, 0.0, 0.0, 1.645921287715011E9, 0.0, 2022-02-27 11:21:27.715
48.0, -2101.4886619435147, -5376.39920430174, -2392.240153818149, -10918.87186990641, -1127.399638581233, -127.38259165079495, -6072.946616762473, -1916.259755642385, -3347.285490904509, -7077.456364328428, -4451.5510739745, -3296.457624013141, -4275.329920688859, -3153.4511629880863, -10226.973620292381, -15110.449804121234, 0.017, -0.10400000000000001, 0.989, 192.0, 0.0, 0.0, 0.0, 0.0, 0.0, 0.0, 0.0, 0.0, 0.0, 1.645921287722019E9, 0.0, 2022-02-27 11:21:27.722
50.0, -2030.7453907424679, -5301.990247010022, -2324.827292540943, -10834.695200287724, -1057.013995291471, -41.26132026449684, -5986.624179676078, -1810.3795421575956, -3486.7603763056254, -7297.7328059354795, -4673.615655137975, -3557.660109717859, -4513.264240415602, -3383.092985521911, -10456.570739337294, -15233.876137003439, 0.017, -0.10400000000000001, 0.989, 192.0, 0.0, 0.0, 0.0, 0.0, 0.0, 0.0, 0.0, 0.0, 0.0, 1.645921287729609E9, 0.0, 2022-02-27 11:21:27.729
52.0, -1941.9195582770776, -5215.399588990163, -2237.8790066097986, -10755.882949338311, -959.4262789996004, 36.76861962898012, -5929.22489991485, -1741.335003535152, -3216.4160271186865, -6971.240874676809, -4378.706738794654, -3221.3110591543987, -4197.970533129041, -3069.810935236327, -10147.736686198317, -14984.274206671025, 0.017, -0.10400000000000001, 0.989, 192.0, 0.0, 0.0, 0.0, 0.0, 0.0, 0.0, 0.0, 0.0, 0.0, 1.645921287736601E9, 0.0, 2022-02-27 11:21:27.736
54.0, -2188.0346164744637, -5450.405830193261, -2476.2827129701036, -10986.88822828391, -1207.8212151314278, -206.6195257448585, -6139.64422221711, -1965.2771312328734, -3491.7001118302483, -7251.934081546555, -4616.551651543576, -3477.506754101128, -4442.409210492278, -3316.5741940229173, -10390.029596093846, -15242.280392918634, 0.017, -0.10400000000000001, 0.989, 192.0, 0.0, 0.0, 0.0, 0.0, 0.0, 0.0, 0.0, 0.0, 0.0, 1.645921287744794E9, 0.0, 2022-02-27 11:21:27.744
56.0, -1870.2375138089078, -5158.268530162398, -2172.969540711587, -10686.123154893297, -887.2971996423245, 113.83743451087886, -5849.384468720493, -1671.3293399011302, -3302.649057227261, -7127.79249284178, -4515.521766605588, -3385.1493460117995, -4342.09458137686, -3220.7075620541054, -10294.878219947603, -15058.25848081809, 0.0165, -0.10500000000000001, 0.9875, 192.0, 0.0, 64.0, 126.0, 88.0, 15.0, 104.0, 0.0, 0.0, 0.0, 1.645921287751247E9, 0.0, 2022-02-27 11:21:27.751
58.0, -2104.5061474449813, -5382.076547393388, -2395.8611364199087, -10916.346122782961, -1119.3753623217776, -119.24655666906318, -6060.384936378591, -1910.1130259171757, -3341.9881274686013, -7079.691538773959, -4453.495675742111, -3300.1233101038115, -4267.283292684948, -3144.5104652059636, -10218.323495188177, -15106.314731397002, 0.0165, -0.10500000000000001, 0.9875, 192.0, 0.0, 0.0, 0.0, 0.0, 0.0, 0.0, 0.0, 0.0, 0.0, 1.645921287759223E9, 0.0, 2022-02-27 11:21:27.759
60.0, -2045.2740246384174, -5325.6383926437375, -2335.600833368401, -10843.05475271401, -1059.2044662480912, -47.363346500795664, -5983.673749407977, -1815.2298707043972, -3497.1762892217985, -7313.356675309739, -4679.360053462989, -3567.8078017005687, -4509.665609558298, -3391.0502065480005, -10454.35791663622, -15238.3464858945, 0.0165, -0.10500000000000001, 0.9875, 192.0, 0.0, 0.0, 0.0, 0.0, 0.0, 0.0, 0.0, 0.0, 0.0, 1.645921287767073E9, 0.0, 2022-02-27 11:21:27.767
62.0, -1955.643529372636, -5242.17697884762, -2241.678803167201, -10759.36982147334, -957.727546420997, 46.11164881129847, -5907.7448734933, -1744.3748407810738, -3229.5812046028623, -6989.032863263234, -4385.032282475506, -3238.3654401737977, -4200.183355830116, -3071.688481770573, -10149.234253076822, -14987.314043916947, 0.0165, -0.10500000000000001, 0.9875, 192.0, 0.0, 0.0, 0.0, 0.0, 0.0, 0.0, 0.0, 0.0, 0.0, 1.645921287775571E9, 0.0, 2022-02-27 11:21:27.775
64.0, -2209.179366729184, -5480.2454090410965, -2483.1223467734276, -10999.56166739007, -1212.850357633872, -195.66717096175802, -6130.032972101328, -1967.0429190448428, -3512.1072545179436, -7257.00792753791, -4623.234823135713, -3492.9965130086557, -4440.844588380407, -3306.0912258733783, -10389.247285037909, -15243.06270397457, 0.0165, -0.10500000000000001, 0.9875, 192.0, 0.0, 0.0, 0.0, 0.0, 0.0, 0.0, 0.0, 0.0, 0.0, 1.645921287781713E9, 0.0, 2022-02-27 11:21:27.781
66.0, -1910.582412550737, -5193.852507335247, -2188.1016717078296, -10696.69553002066, -891.7228450444753, 112.47397809910514, -5840.197901749361, -1662.433345607918, -3325.380781338308, -7146.344440739685, -4532.911423791817, -3408.439863734229, -4345.760267467531, -3215.7901782739377, -10297.247504859866, -15061.991222142127, 0.01625, -0.10550000000000001, 0.98775, 192.0, 0.0, 64.0, 126.0, 88.0, 15.0, 112.0, 0.0, 0.0, 0.0, 1.645921287789851E9, 0.0, 2022-02-27 11:21:27.789
68.0, -2145.990985154031, -5430.848053794868, -2411.5520610275344, -10925.68915196528, -1129.5677577933977, -119.26890841351849, -6078.422794154024, -1882.7991941927903, -3373.0794040059336, -7092.789661024769, -4478.84255395443, -3320.910432447247, -4278.816792823886, -3158.9943956130023, -10227.778283092772, -15104.638350562855, 0.01625, -0.10550000000000001, 0.98775, 192.0, 0.0, 0.0, 0.0, 0.0, 0.0, 0.0, 0.0, 0.0, 0.0, 1.645921287797807E9, 0.0, 2022-02-27 11:21:27.797
70.0, -2100.058150298375, -5388.983236430077, -2356.052679545007, -10853.984755752654, -1064.5688849173648, -45.2622825219968, -5986.199496531427, -1796.9908472288666, -3531.441513471784, -7343.375068113216, -4708.707893932807, -3588.930200210834, -4517.332257906468, -3395.2299827611428, -10463.656242329627, -15235.708980048774, 0.01625, -0.10550000000000001, 0.98775, 192.0, 0.0, 0.0, 0.0, 0.0, 0.0, 0.0, 0.0, 0.0, 0.0, 1.645921287811507E9, 0.0, 2022-02-27 11:21:27.811
72.0, -2011.2323178329848, -5298.883354530734, -2250.820666649421, -10765.181275031719, -962.6225784567092, 47.07277382287668, -5908.191908382405, -1736.663488943993, -3254.6598618817166, -7014.580907175649, -4404.165375729248, -3261.9241788296913, -4202.6420477202, -3074.951836461048, -10151.089447866612, -14980.876741513819, 0.01625, -0.10550000000000001, 0.98775, 192.0, 0.0, 0.0, 0.0, 0.0, 0.0, 0.0, 0.0, 0.0, 0.0, 1.645921287819286E9, 0.0, 2022-02-27 11:21:27.819
74.0, -2300.5309463180242, -5586.505602181626, -2500.266134770648, -11004.389644192415, -1221.299317037978, -204.51846176605963, -6139.353649539191, -1962.3714044536835, -3539.801065898069, -7301.107919348231, -4642.613785578464, -3519.88566158839, -4446.92426287225, -3318.742313235082, -10388.86730538217, -15236.468939360255, 0.01625, -0.10550000000000001, 0.98775, 192.0, 0.0, 0.0, 0.0, 0.0, 0.0, 0.0, 0.0, 0.0, 0.0, 1.645921287827414E9, 0.0, 2022-02-27 11:21:27.827
76.0, -2015.6579632351356, -5315.602459383304, -2204.217279460106, -10704.339826624373, -890.9405339885395, 110.88700424277833, -5840.10849477154, -1662.3215868856416, -3377.929732552735, -7190.153859872086, -4567.757793397641, -3442.325108328475, -4357.740802495576, -3235.392658161242, -10306.679941020006, -15060.672469219266, 0.014125, -0.10575000000000001, 0.986875, 192.0, 0.0, 48.0, 126.0, 88.0, 15.0, 104.0, 0.0, 0.0, 0.0, 1.645921287834039E9, 0.0, 2022-02-27 11:21:27.834
78.0, -2286.762271733555, -5582.482288179671, -2423.331430355481, -10932.97582065771, -1112.200452351624, -113.56921357741518, -6056.719250287921, -1881.9721796479441, -3412.5525847140057, -7144.332783738707, -4507.721007790686, -3356.6061683423723, -4273.072394498872, -3149.584311197318, -10216.3118381872, -15090.422641089279, 0.014125, -0.10575000000000001, 0.986875, 192.0, 0.0, 0.0, 0.0, 0.0, 0.0, 0.0, 0.0, 0.0, 0.0, 1.6459212878419E9, 0.0, 2022-02-27 11:21:27.841
80.0, -2282.2919228424935, -5565.517314138093, -2372.4141564862916, -10867.57461638148, -1053.4824196675324, -41.17191328667561, -5987.89822911003, -1770.2134573714088, -3579.430708817328, -7384.234056977518, -4745.834141473072, -3636.7182298562802, -4514.56064159401, -3393.6206571603607, -10457.107181204223, -15226.745930522196, 0.014125, -0.10575000000000001, 0.986875, 192.0, 0.0, 0.0, 0.0, 0.0, 0.0, 0.0, 0.0, 0.0, 0.0, 1.645921287851581E9, 0.0, 2022-02-27 11:21:27.851
82.0, -2207.4582824061254, -5497.143327849309, -2267.5174197575357, -10769.361051244861, -938.5721014227988, 59.030957106465955, -5886.823640683132, -1706.399226951507, -3316.03775215599, -7068.470963057395, -4454.948539131706, -3303.5654787499284, -4204.743111698998, -3078.1928394070674, -10144.182758829924, -14961.34131685988, 0.014125, -0.10575000000000001, 0.986875, 192.0, 0.0, 0.0, 0.0, 0.0, 0.0, 0.0, 0.0, 0.0, 0.0, 1.645921287857558E9, 0.0, 2022-02-27 11:21:27.857
84.0, -2482.9211810733295, -5761.542113011135, -2508.4692249857458, -11024.37210373546, -1201.8980028507713, -194.46017676117145, -6127.730742422431, -1944.0876774892424, -3593.467604335261, -7323.012628914432, -4686.154983777402, -3559.7164702077475, -4435.681335411231, -3315.32249633342, -10376.663252909571, -15223.281410131623, 0.014125, -0.10575000000000001, 0.986875, 192.0, 0.0, 0.0, 0.0, 0.0, 0.0, 0.0, 0.0, 0.0, 0.0, 1.645921287863644E9, 0.0, 2022-02-27 11:21:27.863
86.0, -2186.5594013404134, -5475.529190961027, -2212.15214874174, -10726.937440268688, -879.764661760886, 117.34665839036208, -5827.0997794985515, -1647.0329936782116, -3438.3241460709746, -7200.61447627717, -4615.3893608319, -3514.5882981524824, -4365.899189221763, -3247.4849519115633, -10306.389368342087, -15061.924166908762, 0.0150625, -0.106875, 0.9884375, 192.0, 0.0, 64.0, 126.0, 80.0, 15.0, 120.0, 0.0, 0.0, 0.0, 1.645921287871726E9, 0.0, 2022-02-27 11:21:27.871
88.0, -2391.815470673498, -5669.005890966165, -2412.691999994755, -10937.468521293225, -1095.2801817989566, -99.06293142592091, -6023.415151049513, -1863.8002114057795, -3452.405745077818, -7180.430851034028, -4531.726781335686, -3397.9792473291454, -4271.954807276107, -3168.4044800286865, -10206.052387482214, -15086.086402664949, 0.0150625, -0.106875, 0.9884375, 192.0, 0.0, 0.0, 0.0, 0.0, 0.0, 0.0, 0.0, 0.0, 0.0, 1.645921287879753E9, 0.0, 2022-02-27 11:21:27.879
90.0, -2333.4103624117806, -5616.792215918567, -2372.369452997381, -10880.739793865658, -1050.7331550995298, -47.69862266762527, -5966.172333499472, -1788.8548122471348, -3616.7357703132357, -7402.651894408691, -4767.694147550363, -3649.503427684716, -4522.249641686635, -3412.999619603112, -10450.11108518971, -15229.428139856833, 0.0150625, -0.106875, 0.9884375, 192.0, 0.0, 0.0, 0.0, 0.0, 0.0, 0.0, 0.0, 0.0, 0.0, 1.645921287886328E9, 0.0, 2022-02-27 11:21:27.886
92.0, -2195.0754159778853, -5488.783775423023, -2262.0635941104406, -10781.252179295085, -935.8675403437068, 58.74038442854696, -5888.142393605995, -1695.0445407682112, -3318.2058713681545, -7089.16867842301, -4465.252693325602, -3311.2097753536436, -4209.436978034613, -3099.6058105952516, -10146.350878042089, -14967.10806692935, 0.0150625, -0.106875, 0.9884375, 192.0, 0.0, 0.0, 0.0, 0.0, 0.0, 0.0, 0.0, 0.0, 0.0, 1.645921287894256E9, 0.0, 2022-02-27 11:21:27.894
94.0, -2429.142883913861, -5704.7463303502, -2514.168919821849, -11026.18259503634, -1200.5792499279082, -194.5942872279033, -6129.697695934498, -1946.2334449569519, -3580.7494617401912, -7329.740503995479, -4680.745861619218, -3556.65428121737, -4435.658983666776, -3324.0173249265345, -10378.563151188273, -15224.77897701013, 0.0150625, -0.106875, 0.9884375, 192.0, 0.0, 0.0, 0.0, 0.0, 0.0, 0.0, 0.0, 0.0, 0.0, 1.645921287902566E9, 0.0, 2022-02-27 11:21:27.902
96.0, -2099.6558188981794, -5391.978370187088, -2214.2085092316283, -10724.366989656328, -890.247629910425, 110.86465249832303, -5842.053096539152, -1638.986365674301, -3409.2892300235308, -7204.034293178832, -4602.693569981286, -3492.6612368418264, -4372.3141398804355, -3257.431478194175, -10313.720740523428, -15062.326498308958, 0.014531249999999999, -0.10743749999999999, 0.9902187499999999, 192.0, 0.0, 56.0, 126.0, 80.0, 15.5, 0.0, 0.0, 0.0, 0.0, 1.645921287909583E9, 0.0, 2022-02-27 11:21:27.909
98.0, -2290.0256264240297, -5580.4482794342375, -2415.329505840481, -10940.307192839051, -1110.3452575618337, -116.1396641897755, -6054.506427586845, -1873.3667580326508, -3412.641991691827, -7150.881844864112, -4508.391560124345, -3358.908398021269, -4278.32505444587, -3158.4132502571647, -10215.21660270889, -15083.784172986052, 0.014531249999999999, -0.10743749999999999, 0.9902187499999999, 192.0, 0.0, 0.0, 0.0, 0.0, 0.0, 0.0, 0.0, 0.0, 0.0, 1.645921287917021E9, 0.0, 2022-02-27 11:21:27.917
100.0, -2223.81975934741, -5513.035418157032, -2367.072089561473, -10889.948712581243, -1063.5407046724206, -66.09410835434298, -5995.90015362503, -1800.6788850639923, -3562.890417920401, -7369.481905637015, -4726.432827285866, -3621.541395371127, -4520.796778297041, -3409.870375379369, -10459.945852750046, -15234.233764914725, 0.014531249999999999, -0.10743749999999999, 0.9902187499999999, 192.0, 0.0, 0.0, 0.0, 0.0, 0.0, 0.0, 0.0, 0.0, 0.0, 1.645921287932098E9, 0.0, 2022-02-27 11:21:27.932
102.0, -2094.134938017719, -5385.2728468504965, -2248.4513817371585, -10781.676862439735, -937.342755477757, 37.95326208511139, -5899.810004211665, -1731.6566981860042, -3266.0816032983785, -7038.653735954015, -4419.051637536483, -3282.800708150948, -4198.730492440521, -3091.7827000358943, -10149.189549587913, -14970.796104764475, 0.014531249999999999, -0.10743749999999999, 0.9902187499999999, 192.0, 0.0, 0.0, 0.0, 0.0, 0.0, 0.0, 0.0, 0.0, 0.0, 1.645921287939168E9, 0.0, 2022-02-27 11:21:27.939
104.0, -2330.8399117994204, -5616.568698474014, -2499.170899292338, -11023.410978723881, -1208.71528490964, -216.00725841608747, -6167.427440575057, -1981.4821459629711, -3540.7174874207367, -7297.77750942439, -4641.831474522528, -3526.0100395691443, -4424.974849817139, -3320.329287091409, -10374.606892419684, -15228.399959611888, 0.014531249999999999, -0.10743749999999999, 0.9902187499999999, 192.0, 0.0, 0.0, 0.0, 0.0, 0.0, 0.0, 0.0, 0.0, 0.0, 1.645921287946602E9, 0.0, 2022-02-27 11:21:27.946
106.0, -2022.4975970384596, -5312.093235503821, -2206.921840539198, -10726.780978057503, -906.3632376627014, 89.76460573251316, -5856.82759962411, -1657.627720550027, -3374.1746394842435, -7158.235568789908, -4565.52261895211, -3464.2968731280416, -4378.304407394458, -3274.418803980208, -10326.528290096318, -15077.749201983119, 0.015265625, -0.10771875, 0.987109375, 192.0, 0.0, 64.0, 126.0, 80.0, 15.0, 96.0, 0.0, 0.0, 0.0, 1.645921287954683E9, 0.0, 2022-02-27 11:21:27.954
108.0, -2215.1025790098406, -5509.146214621808, -2404.7347789686655, -10938.541405027081, -1117.3860570652553, -132.97052776462172, -6045.029287937795, -1898.5124705448713, -3383.6070756443833, -7131.07819927671, -4477.367338820379, -3352.582854340417, -4281.342539947336, -3158.525008979441, -10215.21660270889, -15087.516914310088, 0.015265625, -0.10771875, 0.987109375, 192.0, 0.0, 0.0, 0.0, 0.0, 0.0, 0.0, 0.0, 0.0, 0.0, 1.645921287961712E9, 0.0, 2022-02-27 11:21:27.961
110.0, -2172.4554505891147, -5467.370804234839, -2372.0565285750067, -10896.274256262095, -1082.2491147815126, -93.49734705654944, -6000.526964727279, -1836.329917470207, -3543.89143513339, -7362.17288520013, -4707.925582876871, -3611.796034788613, -4526.004734755127, -3424.3990092753183, -10466.986652253468, -15247.264831932169, 0.015265625, -0.10771875, 0.987109375, 192.0, 0.0, 0.0, 0.0, 0.0, 0.0, 0.0, 0.0, 0.0, 0.0, 1.645921287969191E9, 0.0, 2022-02-27 11:21:27.969
112.0, -2029.3372308417836, -5330.846349101824, -2241.4999892115584, -10778.61467344936, -941.2543107574357, 37.30506149590749, -5892.366873308048, -1729.108599318099, -3256.2691874824986, -7039.525453987772, -4410.602678132377, -3267.512114943518, -4210.30869606837, -3112.6145258682404, -10151.067096122159, -14975.467619355633, 0.015265625, -0.10771875, 0.987109375, 192.0, 0.0, 0.0, 0.0, 0.0, 0.0, 0.0, 0.0, 0.0, 0.0, 1.645921287977342E9, 0.0, 2022-02-27 11:21:27.977
114.0, -2268.0091581355523, -5540.058677203498, -2496.1757655353267, -11024.260345013183, -1207.6424011757854, -214.15206362629698, -6144.807475186286, -1987.6735791770911, -3511.1684812508206, -7254.48218041446, -4618.3174393555455, -3506.4299114262953, -4427.232376007125, -3309.265173586032, -10372.327014485243, -15223.527279320631, 0.015265625, -0.10771875, 0.987109375, 192.0, 0.0, 0.0, 0.0, 0.0, 0.0, 0.0, 0.0, 0.0, 0.0, 1.645921287984342E9, 0.0, 2022-02-27 11:21:27.984
116.0, -1948.5356746358484, -5243.071048625833, -2197.2435351900504, -10720.902469265757, -891.8793072556624, 90.21164062161931, -5851.150256532462, -1658.6111973060606, -3350.571197339439, -7161.834199647213, -4551.731592623186, -3446.1472566303323, -4373.901113736762, -3261.7677166185044, -10321.812072016248, -15073.144742625325, 0.016, -0.1, 0.984, 192.0, 0.0, 64.0, 126.0, 112.0, 15.0, 96.0, 0.0, 0.0, 0.0, 1.645921287991576E9, 0.0, 2022-02-27 11:21:27.991
118.0, -2143.6217002417684, -5438.738219587591, -2389.6473514613335, -10926.292649065572, -1097.5153562444873, -113.88213799978948, -6049.142008917572, -1876.1160226006537, -3332.913319219747, -7085.324178376696, -4443.727963415142, -3312.9085079322467, -4259.996623992518, -3160.9613491250693, -10204.35365490361, -15076.050469404516, 0.016, -0.1, 0.984, 192.0, 0.0, 0.0, 0.0, 0.0, 0.0, 0.0, 0.0, 0.0, 0.0, 1.645921287998962E9, 0.0, 2022-02-27 11:21:27.998
120.0, -2104.260278255973, -5396.44871907815, -2364.859266860398, -10887.601779413437, -1068.8604198527837, -80.19805910564175, -6029.092494141161, -1833.1559697575535, -3509.827376583502, -7336.893062221177, -4680.1870680078355, -3577.1955343717977, -4510.403217125323, -3395.7887763725257, -10455.430800370073, -15235.373703881945, 0.016, -0.1, 0.984, 192.0, 0.0, 0.0, 0.0, 0.0, 0.0, 0.0, 0.0, 0.0, 0.0, 1.645921288007011E9, 0.0, 2022-02-27 11:21:28.007
122.0, -1965.3441864662393, -5268.552037304883, -2234.928576341698, -10767.863484366357, -938.2815287448799, 33.14763702722038, -5899.966466422852, -1732.1484365640208, -3210.850442749315, -6995.358406944086, -4376.940950982685, -3246.2779577109764, -4200.004541874474, -3093.2802669144, -10155.872721180049, -14970.952566975662, 0.016, -0.1, 0.984, 192.0, 0.0, 0.0, 0.0, 0.0, 0.0, 0.0, 0.0, 0.0, 0.0, 1.645921288014923E9, 0.0, 2022-02-27 11:21:28.014
124.0, -2227.507797182536, -5515.069426902464, -2493.0241695671284, -11022.539260690124, -1208.0447325759808, -219.98586892913212, -6122.612192942166, -1964.0254335433763, -3485.419271638307, -7237.6289650951585, -4595.898639666872, -3466.2414748956535, -4422.404399204779, -3316.5071387895514, -10369.108363283678, -15223.259058387168, 0.016, -0.1, 0.984, 192.0, 0.0, 0.0, 0.0, 0.0, 0.0, 0.0, 0.0, 0.0, 0.0, 1.645921288021447E9, 0.0, 2022-02-27 11:21:28.021
126.0, -1916.3044591312957, -5206.369484230218, -2199.366950913304, -10724.210527445142, -895.6567520686093, 88.44585280965005, -5846.2328727522945, -1685.6121046080716, -3337.8530547443697, -7165.298720037785, -4549.451714688744, -3444.6273380073712, -4378.527924839011, -3267.6462254102503, -10331.512729109852, -15080.096135150927, 0.014, -0.106, 0.986, 192.0, 0.0, 56.0, 126.0, 88.0, 15.0, 104.0, 0.0, 0.0, 0.0, 1.645921288029641E9, 0.0, 2022-02-27 11:21:28.029
128.0, -2094.7607868624673, -5371.258303077019, -2381.2877990350485, -10916.167308827318, -1089.7369491740405, -110.99876296505488, -6064.72117480292, -1892.812775708768, -3304.906583417247, -7028.886023627046, -4429.020515563549, -3296.077644357401, -4248.664289553677, -3143.3481744942874, -10204.264247925788, -15083.381841585857, 0.014, -0.106, 0.986, 192.0, 0.0, 0.0, 0.0, 0.0, 0.0, 0.0, 0.0, 0.0, 0.0, 1.645921288037514E9, 0.0, 2022-02-27 11:21:28.037
130.0, -2074.8230308083334, -5356.372041269785, -2369.6425401738334, -10888.451145702738, -1081.913838614683, -101.05223668244324, -6019.548299258745, -1846.7234786419249, -3495.544611876561, -7312.283791575885, -4673.347434204511, -3565.147944110387, -4508.413911868801, -3396.459328706185, -10469.132419721178, -15246.460169131777, 0.014, -0.106, 0.986, 192.0, 0.0, 0.0, 0.0, 0.0, 0.0, 0.0, 0.0, 0.0, 0.0, 1.645921288044684E9, 0.0, 2022-02-27 11:21:28.044
132.0, -1928.8214360262677, -5225.480225739507, -2230.704096639645, -10755.502969682571, -930.9054530746286, 32.85706434930138, -5907.923687448942, -1737.6022622111157, -3198.199355387611, -6986.820040562158, -4371.777698013509, -3222.6968673106276, -4202.105605853272, -3087.625275567207, -10164.366384073066, -14975.981709478106, 0.014, -0.106, 0.986, 192.0, 0.0, 0.0, 0.0, 0.0, 0.0, 0.0, 0.0, 0.0, 0.0, 1.645921288059301E9, 0.0, 2022-02-27 11:21:28.059
134.0, -2191.566192098402, -5475.529190961027, -2486.296294486081, -11011.6986646293, -1207.4188837312322, -221.46108406318237, -6163.247664361914, -1984.387872742161, -3459.223027136687, -7221.1333776871425, -4577.033767346593, -3451.802247977525, -4410.155643243271, -3297.84343216937, -10378.049061065802, -15226.947096222293, 0.014, -0.106, 0.986, 192.0, 0.0, 0.0, 0.0, 0.0, 0.0, 0.0, 0.0, 0.0, 0.0, 1.645921288067273E9, 0.0, 2022-02-27 11:21:28.067
136.0, -1894.6903222430137, -5191.080891022789, -2197.6905700791563, -10716.45447211915, -900.1941561930366, 82.76850971800205, -5867.176457306917, -1693.1893459784205, -3329.6276127848164, -7140.041248803288, -4539.3710779394005, -3419.191052817232, -4381.165430684738, -3260.292501484454, -10344.052057749279, -15085.549960798022, 0.014, -0.108, 0.99, 192.0, 0.0, 56.0, 126.0, 80.0, 15.0, 120.0, 0.0, 0.0, 0.0, 1.645921288074399E9, 0.0, 2022-02-27 11:21:28.074
138.0, -2083.5625628903585, -5370.654805976726, -2380.0584530900064, -10913.149823325852, -1094.9225538876717, -114.59739382235931, -6065.615244581133, -1911.7447032624132, -3308.9522491636576, -7054.299957072731, -4427.478245196134, -3264.2487602530437, -4250.564187832379, -3119.632973627207, -10215.775396320272, -15080.565521784489, 0.014, -0.108, 0.99, 192.0, 0.0, 0.0, 0.0, 0.0, 0.0, 0.0, 0.0, 0.0, 0.0, 1.645921288082477E9, 0.0, 2022-02-27 11:21:28.082
140.0, -2075.1359552307076, -5351.007622600511, -2372.4141564862916, -10898.285913263073, -1093.849670153817, -91.15041388874221, -6041.251843124848, -1868.5164294858491, -3506.116987003921, -7282.064233072309, -4675.873181327961, -3556.922502150834, -4511.051417714527, -3384.9258285672463, -10475.681480846582, -15250.25996568918, 0.014, -0.108, 0.99, 192.0, 0.0, 0.0, 0.0, 0.0, 0.0, 0.0, 0.0, 0.0, 0.0, 1.645921288089851E9, 0.0, 2022-02-27 11:21:28.089
142.0, -1928.62027032617, -5216.718341913026, -2223.886814580776, -10765.248330265085, -942.5954154247542, 40.5237126974717, -5925.872138246553, -1745.760648937303, -3209.2187654040777, -6974.906560767479, -4376.829192260408, -3234.275070938477, -4205.88305066622, -3075.2647608834222, -10174.044689422213, -14977.836904267897, 0.014, -0.108, 0.99, 192.0, 0.0, 0.0, 0.0, 0.0, 0.0, 0.0, 0.0, 0.0, 0.0, 1.645921288097089E9, 0.0, 2022-02-27 11:21:28.097
144.0, -2200.998628258542, -5475.0821560719205, -2485.4692799412346, -11022.360446734483, -1219.4664739926427, -226.2890608655287, -6161.414821316579, -1987.7182826660019, -3479.250190168642, -7234.700886571513, -4588.0308256186045, -3452.6516142668265, -4422.270288738047, -3309.8910224307806, -10384.821639635758, -15222.566154309054, 0.014, -0.108, 0.99, 192.0, 0.0, 0.0, 0.0, 0.0, 0.0, 0.0, 0.0, 0.0, 0.0, 1.645921288105204E9, 0.0, 2022-02-27 11:21:28.105
146.0, -1895.874964699145, -5176.105222237733, -2193.3543316548266, -10726.512757124037, -904.3068771728132, 83.41671030720596, -5872.987910865297, -1691.4235581664514, -3346.9502147376797, -7152.89350186509, -4552.446848445756, -3440.000526905123, -4390.150831955771, -3268.517943444007, -10350.154083985577, -15091.048489934026, 0.016, -0.112, 0.988, 192.0, 0.0, 64.0, 126.0, 64.0, 15.0, 112.0, 0.0, 0.0, 0.0, 1.645921288112315E9, 0.0, 2022-02-27 11:21:28.112
148.0, -2082.735548345512, -5364.418669273695, -2368.144973295328, -10904.700863921746, -1085.3113037718897, -99.0405796814656, -6050.550168818256, -1874.685510955514, -3312.617935254328, -7050.544864004239, -4427.344134729402, -3253.2740537254876, -4251.502961099501, -3122.292831217388, -10210.567439862185, -15064.941652410229, 0.016, -0.112, 0.988, 192.0, 0.0, 0.0, 0.0, 0.0, 0.0, 0.0, 0.0, 0.0, 0.0, 1.645921288118688E9, 0.0, 2022-02-27 11:21:28.118
150.0, -2077.0358535094088, -5356.193227314142, -2369.2849122625485, -10900.834012130977, -1090.1839840631467, -101.47691982709406, -6029.76304647482, -1862.7943829052906, -3513.962449307734, -7298.202192569041, -4679.963550563282, -3559.1353248519094, -4514.94062124975, -3379.5614098979727, -10470.898207533146, -15243.621497585953, 0.016, -0.112, 0.988, 192.0, 0.0, 0.0, 0.0, 0.0, 0.0, 0.0, 0.0, 0.0, 0.0, 1.645921288126874E9, 0.0, 2022-02-27 11:21:28.126
152.0, -1911.230613139941, -5198.479318437496, -2210.3193056964046, -10747.501045167572, -909.7383510754528, 71.39147179025076, -5892.16570760795, -1722.3583724925963, -3208.3917508592313, -6944.75405749727, -4378.8855527502965, -3241.2488152085325, -4206.508899510968, -3073.364862604721, -10168.657919008485, -14969.209130908148, 0.016, -0.112, 0.988, 192.0, 0.0, 0.0, 0.0, 0.0, 0.0, 0.0, 0.0, 0.0, 0.0, 1.645921288134916E9, 0.0, 2022-02-27 11:21:28.134
154.0, -2190.4486048756366, -5471.617635681348, -2479.501364171668, -11005.32841745954, -1199.0146278160369, -203.1773570987412, -6160.7442689829195, -1971.8932475916445, -3463.4251550942845, -7212.259735138386, -4575.066813834526, -3432.892672168335, -4400.030303005016, -3275.4469842251524, -10367.879017338637, -15208.238686113202, 0.016, -0.112, 0.988, 192.0, 0.0, 0.0, 0.0, 0.0, 0.0, 0.0, 0.0, 0.0, 0.0, 1.645921288141642E9, 0.0, 2022-02-27 11:21:28.141
156.0, -1897.0819588997317, -5168.125649467189, -2196.6623898342123, -10722.780015800003, -899.2330311814584, 93.56440228991536, -5870.171591063928, -1696.8997355580016, -3354.9521392526794, -7175.84874342069, -4561.544008439066, -3426.2765558095643, -4392.207192445659, -3255.3080624709205, -10361.084087024223, -15093.998920202128, 0.014, -0.11, 0.986, 192.0, 0.0, 56.0, 126.0, 72.0, 15.0, 104.0, 0.0, 0.0, 0.0, 1.645921288149341E9, 0.0, 2022-02-27 11:21:28.149
158.0, -2076.678225598124, -5366.117401852299, -2361.9311883367527, -10902.06335807602, -1082.7632049039848, -104.18148090618622, -6044.090514670672, -1874.1714208330418, -3309.198118352666, -7045.068686612688, -4426.7853411180195, -3274.5976179358504, -4249.267786653971, -3130.697087132584, -10207.97463750537, -15065.679259977254, 0.014, -0.11, 0.986, 192.0, 0.0, 0.0, 0.0, 0.0, 0.0, 0.0, 0.0, 0.0, 0.0, 1.645921288157525E9, 0.0, 2022-02-27 11:21:28.157
160.0, -2088.971685048543, -5377.315625824407, -2368.793173884532, -10903.337407509973, -1091.3462747748226, -105.25436464004096, -6037.250880867348, -1855.619472935137, -3519.3939232103735, -7318.609335256736, -4683.964512820782, -3560.208208585764, -4517.332257906468, -3398.091006051422, -10474.206265712532, -15245.141416208913, 0.014, -0.11, 0.986, 192.0, 0.0, 0.0, 0.0, 0.0, 0.0, 0.0, 0.0, 0.0, 0.0, 1.645921288164524E9, 0.0, 2022-02-27 11:21:28.164
162.0, -1928.8214360262677, -5218.886461125191, -2207.4582824061254, -10753.267795237041, -918.2320139684695, 55.54408497143805, -5888.142393605995, -1728.370991751074, -3220.4840446095523, -6991.044520264211, -4389.748500555575, -3235.325602927876, -4206.151271599683, -3091.693293058073, -10165.148695129, -14971.064325697938, 0.014, -0.11, 0.986, 192.0, 0.0, 0.0, 0.0, 0.0, 0.0, 0.0, 0.0, 0.0, 0.0, 1.645921288179155E9, 0.0, 2022-02-27 11:21:28.179
164.0, -2209.5816981293797, -5489.0519963564875, -2468.4148989218356, -11012.436272196326, -1199.5063661940535, -207.13361586733055, -6156.385678814135, -1969.8592388462114, -3487.7438530616587, -7223.033275965843, -4594.736348955196, -3441.900425183824, -4410.1779949877255, -3285.9299523746913, -10362.939281814013, -15208.685721002308, 0.014, -0.11, 0.986, 192.0, 0.0, 0.0, 0.0, 0.0, 0.0, 0.0, 0.0, 0.0, 0.0, 1.645921288187037E9, 0.0, 2022-02-27 11:21:28.187
166.0, -1927.167406936575, -5214.1702430451205, -2183.474860605581, -10727.965620513633, -897.9366300030506, 83.34965507384004, -5849.563282676135, -1692.5411453892168, -3370.330139437931, -7179.067394622254, -4574.0609853340375, -3445.4767042966732, -4396.074044236427, -3275.067004569412, -10348.164778729055, -15092.36724285689, 0.016, -0.108, 0.99, 192.0, 0.0, 64.0, 126.0, 80.0, 15.0, 120.0, 0.0, 0.0, 0.0, 1.6459212881942E9, 0.0, 2022-02-27 11:21:28.194
168.0, -2114.6314876832353, -5397.320437111907, -2354.5551126665014, -10915.027369860098, -1081.6009141923087, -99.80053899294603, -6044.090514670672, -1874.909028400067, -3330.968717452135, -7057.786829207758, -4446.946614616706, -3278.0397865819677, -4252.2182169220705, -3132.99931681148, -10198.25162866731, -15066.975661155662, 0.016, -0.108, 0.99, 192.0, 0.0, 0.0, 0.0, 0.0, 0.0, 0.0, 0.0, 0.0, 0.0, 1.645921288201843E9, 0.0, 2022-02-27 11:21:28.201
170.0, -2143.6217002417684, -5422.443797879672, -2371.1177553078837, -10918.469538506215, -1092.016827108482, -98.57119304790415, -6037.9437849454625, -1861.9673683604442, -3536.4259524853173, -7322.16326262513, -4694.559239692598, -3574.7144907372585, -4520.573260852488, -3401.57787818645, -10467.768963309403, -15248.628288343942, 0.016, -0.108, 0.99, 192.0, 0.0, 0.0, 0.0, 0.0, 0.0, 0.0, 0.0, 0.0, 0.0, 1.64592128820969E9, 0.0, 2022-02-27 11:21:28.209
172.0, -1987.226544287985, -5280.152592677187, -2207.927669039687, -10757.55933017246, -906.6091068517097, 73.00079739103286, -5877.771184178732, -1702.7782443497474, -3237.3819634177644, -7019.744160144825, -4410.982657788117, -3264.651091653239, -4218.020047905451, -3105.9313542761033, -10165.998061418302, -14970.39377336428, 0.016, -0.108, 0.99, 192.0, 0.0, 0.0, 0.0, 0.0, 0.0, 0.0, 0.0, 0.0, 0.0, 1.645921288217726E9, 0.0, 2022-02-27 11:21:28.217
174.0, -2293.244277625594, -5572.379299685872, -2480.5295444166118, -11022.136929289929, -1188.4869561775872, -198.4387872742161, -6122.947469108995, -1959.488029418949, -3493.1976787087538, -7235.952584261011, -4603.230011848213, -3459.647710281338, -4406.869936808341, -3286.8240221529036, -10348.008316517868, -15197.085165630004, 0.016, -0.108, 0.99, 192.0, 0.0, 0.0, 0.0, 0.0, 0.0, 0.0, 0.0, 0.0, 0.0, 1.64592128822429E9, 0.0, 2022-02-27 11:21:28.224
176.0, -2037.9873559459872, -5327.0465525444215, -2196.5953346008464, -10738.783864830002, -889.89000199914, 94.59258253485949, -5850.6361664099895, -1680.7841278057251, -3402.583706686939, -7212.036217693832, -4604.168785115336, -3475.3833383778738, -4407.87576530883, -3286.287580285976, -10350.2434909634, -15093.529533568566, 0.014, -0.108, 0.99, 192.0, 0.0, 56.0, 126.0, 80.0, 15.0, 120.0, 0.0, 0.0, 0.0, 1.645921288231298E9, 0.0, 2022-02-27 11:21:28.231
178.0, -2239.667146166223, -5534.448389345216, -2358.4890196906354, -10921.911707152332, -1059.271521481457, -88.2893905984629, -6011.926354399486, -1873.0091301213658, -3356.963796253657, -7092.476736602394, -4467.174943348759, -3309.6004497528616, -4249.64776630971, -3135.1227325347345, -10188.707433784895, -15059.912509907785, 0.014, -0.108, 0.99, 192.0, 0.0, 0.0, 0.0, 0.0, 0.0, 0.0, 0.0, 0.0, 0.0, 1.645921288239417E9, 0.0, 2022-02-27 11:21:28.239
180.0, -2306.118882431851, -5583.2645992356065, -2384.975836870174, -10932.774654957611, -1085.400710749711, -98.88411747027844, -6024.6221452500995, -1871.2880457983074, -3578.3578250834735, -7366.21855094654, -4728.042152886647, -3627.0399245071326, -4518.60630734042, -3409.4009887458074, -10456.570739337294, -15249.254137188691, 0.014, -0.108, 0.99, 192.0, 0.0, 0.0, 0.0, 0.0, 0.0, 0.0, 0.0, 0.0, 0.0, 1.645921288246479E9, 0.0, 2022-02-27 11:21:28.246
182.0, -2150.550741022914, -5433.686725340692, -2216.7566080995334, -10763.236673264108, -903.2563451834137, 78.99106490505515, -5889.327036062126, -1687.4449476534066, -3298.089301358378, -7047.6167854805935, -4448.757105917586, -3315.680124244705, -4229.106513155283, -3109.306467688855, -10161.930043927438, -14963.062401182939, 0.014, -0.108, 0.99, 192.0, 0.0, 0.0, 0.0, 0.0, 0.0, 0.0, 0.0, 0.0, 0.0, 1.645921288253917E9, 0.0, 2022-02-27 11:21:28.253
184.0, -2447.7171835562212, -5719.677295646346, -2486.519811930634, -11035.302106774105, -1182.9884270415816, -186.9946941130989, -6112.509204448367, -1952.3354711932507, -3552.5639119820494, -7272.028299811876, -4635.7518000306845, -3502.317190446519, -4417.531718913522, -3294.155394334244, -10346.108418239168, -15192.81598243904, 0.014, -0.108, 0.99, 192.0, 0.0, 0.0, 0.0, 0.0, 0.0, 0.0, 0.0, 0.0, 0.0, 1.64592128826205E9, 0.0, 2022-02-27 11:21:28.262
186.0, -2165.347595852327, -5437.754742831557, -2209.514642896014, -10754.206568504163, -887.051330453316, 105.90256522924486, -5842.902462828453, -1664.4897060978064, -3459.0442131810446, -7239.953546518511, -4640.53507334412, -3525.69711514677, -4415.274192723536, -3274.038824324468, -10344.38733391611, -15089.036832933049, 0.014, -0.108, 0.988, 192.0, 0.0, 56.0, 126.0, 80.0, 15.0, 112.0, 0.0, 0.0, 0.0, 1.645921288270014E9, 0.0, 2022-02-27 11:21:28.270
188.0, -2319.7534465495883, -5603.895259367855, -2370.5813134409564, -10920.592954229469, -1054.7788208459403, -81.09212888385402, -6007.076025852683, -1849.2492257653746, -3393.5983054159055, -7100.031626228289, -4494.689940773242, -3336.1096186768555, -4249.6030628208, -3136.396781968687, -10175.564608045175, -15045.49563473411, 0.014, -0.108, 0.988, 192.0, 0.0, 0.0, 0.0, 0.0, 0.0, 0.0, 0.0, 0.0, 0.0, 1.645921288276603E9, 0.0, 2022-02-27 11:21:28.276
190.0, -2346.262615473582, -5623.609497977436, -2404.9359446687636, -10937.624983504413, -1093.0226556089706, -97.85593722533432, -6022.722246971399, -1845.8964640970785, -3616.4228458908615, -7381.484792409515, -4757.948786967849, -3623.821273305568, -4526.94350802225, -3417.000581860612, -10449.820512511793, -15236.826567271539, 0.014, -0.108, 0.988, 192.0, 0.0, 0.0, 0.0, 0.0, 0.0, 0.0, 0.0, 0.0, 0.0, 1.645921288284741E9, 0.0, 2022-02-27 11:21:28.284
192.0, -2121.381714508738, -5403.780091259491, -2214.0967505093518, -10755.190045260197, -895.0309032238607, 88.87053595430088, -5854.257149011749, -1699.827814081647, -3299.7880339369817, -7067.06280315671, -4459.150667089304, -3301.7996909379594, -4227.8548154657865, -3107.9877147659918, -10161.661822993974, -14959.374363347813, 0.014, -0.108, 0.988, 192.0, 0.0, 0.0, 0.0, 0.0, 0.0, 0.0, 0.0, 0.0, 0.0, 1.645921288292654E9, 0.0, 2022-02-27 11:21:28.292
194.0, -2378.0914995779394, -5650.073963412519, -2475.1204222584274, -11014.313818730572, -1171.0749472469029, -188.33579878041732, -6104.9766665669285, -1962.6843288760579, -3524.154844779354, -7238.6794970845585, -4618.987991689204, -3469.8401057529577, -4397.482204137112, -3279.000911593546, -10333.859662277659, -15189.127944603915, 0.012, -0.108, 0.987, 192.0, 0.0, 40.0, 126.0, 80.0, 15.0, 104.0, 0.0, 0.0, 0.0, 1.64592128830624E9, 0.0, 2022-02-27 11:21:28.306
196.0, -2066.1058504707635, -5342.402200985218, -2197.95879101262, -10732.0336380045, -879.0494059383161, 104.40499835073929, -5848.602157664556, -1687.9590377758789, -3414.5195382260727, -7215.14311017312, -4608.773244473129, -3471.8517627539354, -4400.924372783229, -3270.194324278155, -10342.845063548692, -15089.126239910871, 0.012, -0.108, 0.987, 192.0, 0.0, 0.0, 0.0, 0.0, 0.0, 0.0, 0.0, 0.0, 0.0, 1.645921288314336E9, 0.0, 2022-02-27 11:21:28.314
198.0, -2222.635116891279, -5504.631162241836, -2355.784458611543, -10906.220782544708, -1050.6660998661637, -77.96288466011103, -6003.320932784192, -1865.811868406757, -3340.5799675679173, -7057.026869896277, -4451.573425718954, -3287.8522023978476, -4238.561301059878, -3122.538700406397, -10175.944587700915, -15046.5014632346, 0.012, -0.108, 0.987, 192.0, 0.0, 0.0, 0.0, 0.0, 0.0, 0.0, 0.0, 0.0, 0.0, 1.645921288322258E9, 0.0, 2022-02-27 11:21:28.322
200.0, -2239.9130153552314, -5512.610735012381, -2386.7863281710543, -10934.227518347207, -1094.2520015540126, -102.8627279833231, -6034.05458141024, -1871.7574324318687, -3558.4871242627055, -7353.254539162463, -4712.842966657039, -3590.0030839446886, -4513.241888671147, -3397.5322124400395, -10448.010021210912, -15240.000514984193, 0.012, -0.108, 0.987, 192.0, 0.0, 0.0, 0.0, 0.0, 0.0, 0.0, 0.0, 0.0, 0.0, 1.645921288329349E9, 0.0, 2022-02-27 11:21:28.329
202.0, -2045.7210595275235, -5328.544119422927, -2203.4573201486255, -10758.520455184038, -905.8044440513187, 79.59456200534845, -5875.5807132221125, -1692.7870145782251, -3250.5694926463957, -7029.936555616446, -4423.052599793983, -3280.207905794133, -4220.143463628705, -3116.6154881257403, -10155.62685199104, -14965.386982606291, 0.012, -0.108, 0.987, 192.0, 0.0, 0.0, 0.0, 0.0, 0.0, 0.0, 0.0, 0.0, 0.0, 1.645921288336852E9, 0.0, 2022-02-27 11:21:28.336
204.0, -2311.952687734686, -5575.687357865258, -2470.8065355785534, -11023.634496168435, -1182.362578196833, -186.88293539082235, -6109.089387546705, -1978.1964395280409, -3500.618457867916, -7232.733933059447, -4599.877250179917, -3460.8100009930135, -4404.075968751427, -3283.8288883958926, -10329.031685475313, -15197.889828430394, 0.012, -0.10600000000000001, 0.9835, 192.0, 0.0, 48.0, 126.0, 96.0, 15.0, 80.0, 0.0, 0.0, 0.0, 1.645921288345211E9, 0.0, 2022-02-27 11:21:28.345
206.0, -2011.6346492331804, -5286.500488102494, -2199.031674746475, -10742.538957898494, -896.6402288246428, 92.62562902279247, -5832.240680723272, -1686.9979127643005, -3404.997695088112, -7210.42689209305, -4602.760625214652, -3483.2958559150525, -4419.431617192223, -3295.0047606235457, -10339.916985025047, -15104.101908695926, 0.012, -0.10600000000000001, 0.9835, 192.0, 0.0, 0.0, 0.0, 0.0, 0.0, 0.0, 0.0, 0.0, 0.0, 1.645921288352849E9, 0.0, 2022-02-27 11:21:28.352
208.0, -2160.7431364945337, -5445.711963857647, -2353.4822289326466, -10906.77957615609, -1063.6748151391525, -85.4507190526389, -6007.433653763968, -1856.781763646813, -3322.8550342148587, -7052.690631471948, -4438.967041846161, -3282.5995424508505, -4248.016088964473, -3129.71361037655, -10167.696793996905, -15044.26628878907, 0.012, -0.10600000000000001, 0.9835, 192.0, 0.0, 0.0, 0.0, 0.0, 0.0, 0.0, 0.0, 0.0, 0.0, 1.645921288359146E9, 0.0, 2022-02-27 11:21:28.359
210.0, -2188.5934100858462, -5467.259045512563, -2396.6657992203, -10938.630812004902, -1109.8088156949063, -111.98223972108839, -6037.0050116783395, -1885.7943279498015, -3546.6183479569377, -7350.8852542502, -4706.070388087081, -3574.245104103697, -4527.882281289373, -3407.0764073224555, -10451.854521257224, -15245.677858075842, 0.012, -0.10600000000000001, 0.9835, 192.0, 0.0, 0.0, 0.0, 0.0, 0.0, 0.0, 0.0, 0.0, 0.0, 1.645921288366646E9, 0.0, 2022-02-27 11:21:28.366
212.0, -1976.3859482271612, -5266.942711704101, -2212.2639074640165, -10756.195873760686, -910.7665313203969, 74.90069566973396, -5874.5301812327125, -1718.3797619795516, -3239.0136407630016, -7023.476901468862, -4421.711495126664, -3260.627777651284, -4233.8450829798085, -3112.3910084236873, -10163.069982894658, -14967.264529140537, 0.012, -0.10600000000000001, 0.9835, 192.0, 0.0, 0.0, 0.0, 0.0, 0.0, 0.0, 0.0, 0.0, 0.0, 1.645921288374576E9, 0.0, 2022-02-27 11:21:28.374
214.0, -2246.0597450804407, -5517.639877514825, -2483.323512473525, -11021.913411845377, -1201.0933400503802, -203.35617105438365, -6131.150559324094, -1987.383006499172, -3469.683643541771, -7184.163592358064, -4585.415671517333, -3428.444675021729, -4403.651285606777, -3291.204964066144, -10332.518557610341, -15194.581770251008, 0.01, -0.10400000000000001, 0.98475, 192.0, 0.0, 32.0, 126.0, 104.0, 15.0, 104.0, 0.0, 0.0, 0.0, 1.645921288381633E9, 0.0, 2022-02-27 11:21:28.381
216.0, -1950.0108897698988, -5218.215908791532, -2203.1443957262513, -10742.717771854135, -914.1639964776035, 93.81027147892374, -5866.528256717713, -1697.3244187026523, -3383.674130877749, -7211.745645015913, -4593.842279176984, -3464.4309835947734, -4434.250823766091, -3303.5654787499284, -10364.727421370439, -15110.516859354599, 0.01, -0.10400000000000001, 0.98475, 192.0, 0.0, 0.0, 0.0, 0.0, 0.0, 0.0, 0.0, 0.0, 0.0, 1.645921288389754E9, 0.0, 2022-02-27 11:21:28.389
218.0, -2083.763728590456, -5366.63149197477, -2336.494903146613, -10889.948712581243, -1049.1238294987477, -68.19517233314185, -6003.678560695477, -1863.3531765166733, -3279.067966826912, -7026.1367590590435, -4409.641553120799, -3253.9222543146916, -4236.8402167368195, -3097.6165053387294, -10169.574340531151, -15033.291582261514, 0.01, -0.10400000000000001, 0.98475, 192.0, 0.0, 0.0, 0.0, 0.0, 0.0, 0.0, 0.0, 0.0, 0.0, 1.645921288397325E9, 0.0, 2022-02-27 11:21:28.397
220.0, -2127.6625547006793, -5404.0036087040435, -2385.601685714923, -10924.54921299806, -1101.1139871017917, -97.1183296583092, -6040.514235557823, -1884.0285401378324, -3502.831280568991, -7309.087492118775, -4670.173486491858, -3545.992499112189, -4512.280763659569, -3403.880107865347, -10442.332678119265, -15239.419369628355, 0.01, -0.10400000000000001, 0.98475, 192.0, 0.0, 0.0, 0.0, 0.0, 0.0, 0.0, 0.0, 0.0, 0.0, 1.645921288405138E9, 0.0, 2022-02-27 11:21:28.405
222.0, -1920.037200455332, -5200.98271381649, -2188.258133919017, -10742.449550920672, -909.1795574640701, 84.73546323006907, -5851.105553043551, -1704.9910670508227, -3204.0778641793568, -6983.869610294058, -4387.58038134341, -3239.7288965855714, -4222.758617729976, -3107.943011277081, -10153.570491501152, -14962.168331404726, 0.01, -0.10400000000000001, 0.98475, 192.0, 0.0, 0.0, 0.0, 0.0, 0.0, 0.0, 0.0, 0.0, 0.0, 1.645921288411928E9, 0.0, 2022-02-27 11:21:28.411
224.0, -2200.5292416249804, -5462.520475688038, -2462.424631407813, -11016.146661775907, -1190.7891858564838, -194.46017676117145, -6129.45182674549, -1974.5754569262813, -3441.6322042503602, -7192.500793039893, -4553.586787412976, -3407.3669800003745, -4391.022549989528, -3274.6646731692167, -10314.771272512828, -15187.205694580758, 0.011, -0.10400000000000001, 0.985375, 192.0, 0.0, 48.0, 126.0, 96.0, 15.0, 104.0, 0.0, 0.0, 0.0, 1.645921288426769E9, 0.0, 2022-02-27 11:21:28.426
226.0, -1917.8020260098012, -5194.992446302467, -2201.8032910589327, -10740.46024566415, -914.1863482220589, 79.84043119435682, -5864.337785761093, -1708.0532560411998, -3370.6654156047603, -7182.531915012827, -4582.3981860158665, -3460.7429457596477, -4423.365524216357, -3304.0125136390348, -10355.742020099404, -15114.361359400913, 0.011, -0.10400000000000001, 0.985375, 192.0, 0.0, 0.0, 0.0, 0.0, 0.0, 0.0, 0.0, 0.0, 0.0, 1.645921288434837E9, 0.0, 2022-02-27 11:21:28.434
228.0, -2062.060184724353, -5341.642241673737, -2341.4793421601466, -10891.423927715294, -1057.371623202756, -76.01828289249931, -6012.306334055225, -1868.717595185947, -3280.7219959166046, -7032.395247506529, -4413.843681078396, -3245.719164099594, -4236.750809758998, -3116.459025914553, -10170.2001893759, -15043.953364366695, 0.011, -0.10400000000000001, 0.985375, 192.0, 0.0, 0.0, 0.0, 0.0, 0.0, 0.0, 0.0, 0.0, 0.0, 1.645921288441463E9, 0.0, 2022-02-27 11:21:28.441
230.0, -2113.8715283717547, -5383.037672404966, -2394.6317904748666, -10934.451035791759, -1115.0167721529929, -128.03079223999885, -6043.419962337013, -1896.4114065660724, -3510.2073562392425, -7309.087492118775, -4677.59426565102, -3550.5522549810717, -4512.973667737683, -3405.802357888503, -10446.40069561013, -15251.243442445213, 0.011, -0.10400000000000001, 0.985375, 192.0, 0.0, 0.0, 0.0, 0.0, 0.0, 0.0, 0.0, 0.0, 0.0, 1.645921288449451E9, 0.0, 2022-02-27 11:21:28.449
232.0, -1878.9546941464776, -5161.286015663864, -2185.8217937733884, -10731.40778915975, -895.053254968316, 88.13292838727575, -5859.822733381121, -1718.3350584906411, -3200.166308899678, -6987.691758595915, -4386.7533667985645, -3237.7619430735044, -4221.037533406918, -3110.334647933799, -10167.2497591078, -14969.902034986262, 0.011, -0.10400000000000001, 0.985375, 192.0, 0.0, 0.0, 0.0, 0.0, 0.0, 0.0, 0.0, 0.0, 0.0, 1.645921288457519E9, 0.0, 2022-02-27 11:21:28.457
234.0, -2155.7810492254557, -5423.40492289125, -2459.585959861989, -11001.930952302331, -1187.7046451216513, -189.09575809189775, -6125.987306354918, -1967.355843467217, -3412.2396602916315, -7159.4425629904945, -4528.284612689568, -3386.021064045556, -4368.469639834123, -3259.8678183398033, -10320.76154002685, -15183.987043379193, 0.010499999999999999, -0.10400000000000001, 0.9856875, 192.0, 0.0, 40.0, 126.0, 96.0, 15.0, 104.0, 0.0, 0.0, 0.0, 1.645921288464516E9, 0.0, 2022-02-27 11:21:28.464
236.0, -1887.0907291282094, -5164.795239543348, -2203.7478928265446, -10736.526338640017, -916.3544674342237, 82.85791669582328, -5866.237684039794, -1716.8374916121354, -3356.6955753201933, -7196.211182619475, -4566.774316641608, -3445.4543525522176, -4418.1575677582705, -3306.7841299514926, -10373.355194730186, -15118.719949569697, 0.010499999999999999, -0.10400000000000001, 0.9856875, 192.0, 0.0, 0.0, 0.0, 0.0, 0.0, 0.0, 0.0, 0.0, 0.0, 1.645921288472145E9, 0.0, 2022-02-27 11:21:28.472
238.0, -2014.1827481010853, -5293.362473650274, -2326.704839075189, -10866.233511714163, -1051.3143004553676, -52.07956458086546, -6021.04586613725, -1870.6621969535586, -3245.2050739771216, -7008.47888093935, -4380.383119628802, -3223.0544952219125, -4218.064751394361, -3105.529022875908, -10173.642358022018, -15037.583117196933, 0.010499999999999999, -0.10400000000000001, 0.9856875, 192.0, 0.0, 0.0, 0.0, 0.0, 0.0, 0.0, 0.0, 0.0, 0.0, 1.645921288479038E9, 0.0, 2022-02-27 11:21:28.479
240.0, -2096.6159816522577, -5363.34578553984, -2400.3538370554256, -10930.383018300894, -1128.785446737462, -131.60707135284798, -6067.269273670826, -1907.877851471645, -3493.3988444088513, -7295.452928001038, -4655.421335151355, -3534.8166268845353, -4505.351722878423, -3395.2076310166876, -10460.102314961234, -15254.305631435589, 0.010499999999999999, -0.10400000000000001, 0.9856875, 192.0, 0.0, 0.0, 0.0, 0.0, 0.0, 0.0, 0.0, 0.0, 0.0, 1.645921288487234E9, 0.0, 2022-02-27 11:21:28.487
242.0, -1889.2588483403742, -5175.479373392985, -2194.2931049219496, -10737.912146796245, -903.1445864611371, 70.5644572454044, -5858.995718836274, -1737.6916691889369, -3205.7542450135047, -7004.254401237297, -4387.870954021329, -3250.5024374130294, -4225.820806720353, -3135.614470912751, -10178.447983079908, -14985.660014827254, 0.010499999999999999, -0.10400000000000001, 0.9856875, 192.0, 0.0, 0.0, 0.0, 0.0, 0.0, 0.0, 0.0, 0.0, 0.0, 1.645921288494758E9, 0.0, 2022-02-27 11:21:28.494
244.0, -2174.1988866566285, -5451.657527882759, -2471.0971082564724, -11014.738501875223, -1195.393645214277, -205.3901797998166, -6128.624812200644, -1985.9524948540325, -3435.194901847232, -7201.575601288749, -4544.646089630854, -3414.1842620592433, -4380.249009162069, -3290.065025098923, -10326.572993585229, -15200.996720909683, 0.01225, -0.10700000000000001, 0.98784375, 192.0, 0.0, 56.0, 126.0, 72.0, 15.0, 120.0, 0.0, 0.0, 0.0, 1.645921288501656E9, 0.0, 2022-02-27 11:21:28.501
246.0, -1894.712673987469, -5179.010949016923, -2207.9947242730527, -10743.768303843535, -909.9395167755505, 71.48087876807199, -5858.705146158355, -1716.658677656493, -3376.230999974132, -7210.404540348594, -4580.3418255259785, -3464.5650940615055, -4421.175053259737, -3333.159188408755, -10372.371717974152, -15131.080464253482, 0.01225, -0.10700000000000001, 0.98784375, 192.0, 0.0, 0.0, 0.0, 0.0, 0.0, 0.0, 0.0, 0.0, 0.0, 1.6459212885097E9, 0.0, 2022-02-27 11:21:28.509
