%OpenBCI Raw EEG Data
%Number of channels = 16
%Sample Rate = 125 Hz
%Board = OpenBCI_GUI$BoardCytonSerialDaisy
Sample Index, EXG Channel 0, EXG Channel 1, EXG Channel 2, EXG Channel 3, EXG Channel 4, EXG Channel 5, EXG Channel 6, EXG Channel 7, EXG Channel 8, EXG Channel 9, EXG Channel 10, EXG Channel 11, EXG Channel 12, EXG Channel 13, EXG Channel 14, EXG Channel 15, Accel Channel 0, Accel Channel 1, Accel Channel 2, Other, Other, Other, Other, Other, Other, Other, Analog Channel 0, Analog Channel 1, Analog Channel 2, Timestamp, Other, Timestamp (Formatted)
248.0, -1053.6388818787195, -4208.83348093432, -1577.1390887664663, -10010.69814094283, -482.976494190275, 150.5837023954037, -5304.985380767033, -1236.1185236118465, -1387.573944041007, -5901.151108878984, -4189.20864930256, -2794.12451912457, -3731.9366612358886, -2613.589479159055, -9602.108252299817, -14240.765779109692, 0.0, 0.0, 0.0, 192.0, 0.0, 0.0, 0.0, 0.0, 0.0, 0.0, 0.0, 0.0, 0.0, 1.64592159465513E9, 0.0, 2022-02-27 11:26:34.655
250.0, -1004.599154543776, -4192.516707481946, -1610.6220019605164, -10034.860376699016, -453.29337755362724, 133.12698997580887, -5444.773190590524, -1475.349244516998, -3931.783608410789, -6511.845470886883, -3996.894240009098, -2884.246752768368, -3390.960799570179, -2469.5101344001455, -9907.00839841466, -15214.363064093955, 0.0, 0.0, 0.0, 192.0, 0.0, 0.0, 0.0, 0.0, 0.0, 0.0, 0.0, 0.0, 0.0, 1.645921594655133E9, 0.0, 2022-02-27 11:26:34.655
0.0, -533.8714163150092, -2362.2888162480376, -898.2272026809696, -5079.523334446351, -325.3519922914496, 132.0094027530435, -2746.3364894791234, -745.7883054957755, -651.4415921499243, -3043.055897123325, -2176.702282035623, -1426.6224416044286, -1947.261625201896, -1384.3776445838982, -4826.300421512177, -7171.8924846521, 0.016, -0.10400000000000001, 1.0, 192.0, 0.0, 64.0, 126.0, 96.0, 15.5, 32.0, 0.0, 0.0, 0.0, 1.645921594779758E9, 0.0, 2022-02-27 11:26:34.779
2.0, -885.8890397416401, -4553.1621042683255, -1625.0835806231, -9989.173411032369, -471.6888632403449, 437.0213075901637, -5354.405087757717, -1348.3689842663985, -2618.2386420057587, -6203.279638681369, -4018.5530803862907, -2816.833891491162, -3323.6820487597047, -2469.018396022129, -9609.95371460363, -14714.19807841755, 0.016, -0.10400000000000001, 1.0, 192.0, 0.0, 0.0, 0.0, 0.0, 0.0, 0.0, 0.0, 0.0, 0.0, 1.645921594785996E9, 0.0, 2022-02-27 11:26:34.785
4.0, -1130.4171240826993, -4792.258714706745, -1866.2141998069526, -10226.59364063664, -729.0244971542952, 198.88582216332225, -5612.858308894433, -1586.795042371159, -2768.3306060231457, -6276.123973861215, -4076.37704329217, -2862.722022857907, -3386.6022094013942, -2507.977486607729, -9677.590093325389, -14857.13748420924, 0.016, -0.10400000000000001, 1.0, 192.0, 0.0, 0.0, 0.0, 0.0, 0.0, 0.0, 0.0, 0.0, 0.0, 1.64592159479942E9, 0.0, 2022-02-27 11:26:34.799
6.0, -968.7469564374634, -4624.687686525308, -1704.43227343944, -10053.03234494118, -554.1444485359727, 379.5326208511139, -5388.312684096419, -1401.2308599031999, -2841.532569114276, -6420.963277931604, -4198.194050573594, -3019.40775148961, -3524.8477488574686, -2646.290081297169, -9807.118452443892, -14890.486286936557, 0.016, -0.10500000000000001, 0.999, 192.0, 0.0, 64.0, 126.0, 88.0, 15.5, 24.0, 0.0, 0.0, 0.0, 1.64592159480918E9, 0.0, 2022-02-27 11:26:34.809
8.0, -998.2289073740134, -4662.149210232403, -1731.5449394637276, -10095.970046039825, -585.7721669402322, 330.4258382828043, -5432.323268928918, -1460.9547210877802, -2608.672095378887, -6159.425516060057, -3969.803925729266, -2749.085754047126, -3276.0951848143563, -2404.198337101738, -9549.045210962917, -14713.683988295077, 0.016, -0.10500000000000001, 0.999, 192.0, 0.0, 0.0, 0.0, 0.0, 0.0, 0.0, 0.0, 0.0, 0.0, 1.645921594815344E9, 0.0, 2022-02-27 11:26:34.815
10.0, -1134.3733828512886, -4793.555115885153, -1867.3764905186285, -10224.291410957743, -733.3607355786247, 193.0967203493977, -5570.099421751431, -1578.211972500321, -2905.056226856259, -6427.378228590278, -4212.11918736925, -3025.6215364481855, -3528.7146006482367, -2659.4105552924343, -9812.549926346532, -14957.72033425812, 0.016, -0.10500000000000001, 0.999, 192.0, 0.0, 0.0, 0.0, 0.0, 0.0, 0.0, 0.0, 0.0, 0.0, 1.645921594821989E9, 0.0, 2022-02-27 11:26:34.821
12.0, -896.3273044022685, -4560.4264212163, -1631.342069070586, -9990.670977910875, -487.6480087814342, 432.39449648791515, -5353.063983090399, -1334.5332544485634, -2629.7274386557865, -6224.200871491536, -4023.738685099922, -2825.0816851951704, -3343.7539152805707, -2468.5043058996566, -9620.347275775346, -14716.05327320734, 0.016, -0.10500000000000001, 0.999, 192.0, 0.0, 0.0, 0.0, 0.0, 0.0, 0.0, 0.0, 0.0, 0.0, 1.645921594830128E9, 0.0, 2022-02-27 11:26:34.830
14.0, -1141.3247753768892, -4800.439453177387, -1866.5271242293268, -10230.84047208315, -737.6075670251331, 183.06078708896484, -5577.967235799699, -1582.6152661580165, -2776.6231032160645, -6280.706081474553, -4081.540296261346, -2887.5995144366643, -3397.085177550933, -2534.2854898316255, -9677.34422413638, -14856.13165570875, 0.016, -0.10500000000000001, 0.999, 192.0, 0.0, 0.0, 0.0, 0.0, 0.0, 0.0, 0.0, 0.0, 0.0, 1.645921594837987E9, 0.0, 2022-02-27 11:26:34.837
16.0, -971.2727035609131, -4637.137608186914, -1700.7442356043143, -10057.010955454225, -566.7061289198552, 373.18472542580673, -5409.54684132896, -1405.7012087942612, -2854.2060082204353, -6426.327696600878, -4202.954972142574, -3026.783827159861, -3534.0343158285996, -2665.66904373992, -9816.12620545938, -14898.354100984825, 0.016, -0.10750000000000001, 0.9975, 192.0, 0.0, 64.0, 126.0, 72.0, 15.5, 16.0, 0.0, 0.0, 0.0, 1.645921594845023E9, 0.0, 2022-02-27 11:26:34.845
18.0, -993.8032619718626, -4661.501009643199, -1724.4594364713953, -10093.533705894197, -588.7896524416986, 339.47829478720365, -5461.1123157873535, -1459.5242094426405, -2610.639048890954, -6150.753039211398, -3968.574579784224, -2741.9778993103387, -3284.812365151926, -2405.852366191431, -9559.930510512651, -14714.689816795566, 0.016, -0.10750000000000001, 0.9975, 192.0, 0.0, 0.0, 0.0, 0.0, 0.0, 0.0, 0.0, 0.0, 0.0, 1.645921594851501E9, 0.0, 2022-02-27 11:26:34.851
20.0, -1134.529845062476, -4794.449185663365, -1857.5417229582933, -10228.828815082172, -729.9856221658733, 204.94314491071046, -5576.5143724101035, -1565.4044229274302, -2904.8327094117058, -6431.4015425922325, -4208.83348093432, -3028.0578765938135, -3530.927423349312, -2654.269654067714, -9819.121339216392, -14957.407409835747, 0.016, -0.10750000000000001, 0.9975, 192.0, 0.0, 0.0, 0.0, 0.0, 0.0, 0.0, 0.0, 0.0, 0.0, 1.645921594859673E9, 0.0, 2022-02-27 11:26:34.859
22.0, -885.5984670637212, -4533.760790081119, -1614.7570746847482, -9995.901286113416, -468.44786029432544, 447.526627484158, -5346.112590564799, -1340.8140946405047, -2624.6312409199763, -6200.217449690992, -4016.4073129185813, -2833.150664943536, -3345.5420548369952, -2462.91636978583, -9617.463900740613, -14720.702436054044, 0.016, -0.10750000000000001, 0.9975, 192.0, 0.0, 0.0, 0.0, 0.0, 0.0, 0.0, 0.0, 0.0, 0.0, 1.645921594867638E9, 0.0, 2022-02-27 11:26:34.867
24.0, -1118.1683681211912, -4783.072147735614, -1842.9683855734331, -10226.906565059015, -704.9293166314742, 208.36296181237245, -5577.9225323107885, -1580.2683329902093, -2761.781544897741, -6286.226962355014, -4065.022357108874, -2879.061148054737, -3383.4953169221067, -2493.0018178226733, -9664.737840263586, -14850.230795172549, 0.016, -0.10750000000000001, 0.9975, 192.0, 0.0, 0.0, 0.0, 0.0, 0.0, 0.0, 0.0, 0.0, 0.0, 1.645921594874717E9, 0.0, 2022-02-27 11:26:34.874
26.0, -962.6896336900752, -4634.768323274651, -1684.8297935521357, -10053.926414719394, -553.8315241135984, 376.2916179050944, -5415.425350120706, -1398.928630224303, -2848.081630239681, -6424.494853555543, -4189.678035936122, -3013.730408397962, -3521.159711022343, -2659.4105552924343, -9803.720987286686, -14897.124755039784, 0.017, -0.10675000000000001, 0.99375, 192.0, 0.0, 72.0, 126.0, 88.0, 15.0, 120.0, 0.0, 0.0, 0.0, 1.645921594882838E9, 0.0, 2022-02-27 11:26:34.882
28.0, -979.6546077316533, -4644.446628623799, -1699.33607570363, -10082.42488889991, -575.2668470462379, 346.1838181237958, -5460.911150087256, -1451.030546549624, -2592.2882666931473, -6153.412896801579, -3952.302509820761, -2727.583375881121, -3271.6695394122053, -2389.9602758837077, -9547.726458040055, -14706.66554053611, 0.017, -0.10675000000000001, 0.99375, 192.0, 0.0, 0.0, 0.0, 0.0, 0.0, 0.0, 0.0, 0.0, 0.0, 1.645921594890295E9, 0.0, 2022-02-27 11:26:34.890
30.0, -1125.9691269360933, -4794.1809647299015, -1847.9081210980562, -10226.2136609809, -724.5541482632337, 199.15404309678593, -5582.415232946305, -1570.6794346188826, -2899.892973887083, -6435.469560083099, -4194.014274360451, -3011.495233952431, -3526.0100395691443, -2651.5650929886215, -9809.934772245262, -14952.758246989042, 0.017, -0.10675000000000001, 0.99375, 192.0, 0.0, 0.0, 0.0, 0.0, 0.0, 0.0, 0.0, 0.0, 0.0, 1.645921594897318E9, 0.0, 2022-02-27 11:26:34.897
32.0, -890.6946647995311, -4547.551816410043, -1606.9339641253907, -9991.766213389184, -468.22434284977237, 448.0183658621748, -5338.356535238807, -1337.5060364611193, -2631.4038194899344, -6221.7868830903635, -4019.5589088867796, -2827.3392113851564, -3349.811238027959, -2470.0242245226177, -9621.777787420486, -14719.182517431083, 0.017, -0.10675000000000001, 0.99375, 192.0, 0.0, 0.0, 0.0, 0.0, 0.0, 0.0, 0.0, 0.0, 0.0, 1.645921594904882E9, 0.0, 2022-02-27 11:26:34.904
34.0, -1127.9584321926156, -4777.819487788616, -1832.8653970796345, -10224.961963291404, -712.7747789352869, 207.80416820098975, -5584.96333181421, -1577.2284957442876, -2762.474448975855, -6269.016119124427, -4065.312929786793, -2874.3672817191223, -3382.5565436549837, -2504.825890639531, -9655.506569803545, -14839.725475278554, 0.017, -0.10675000000000001, 0.99375, 192.0, 0.0, 0.0, 0.0, 0.0, 0.0, 0.0, 0.0, 0.0, 0.0, 1.645921594911852E9, 0.0, 2022-02-27 11:26:34.911
36.0, -997.111320151248, -4661.880989298938, -1685.366235419063, -10061.257786900735, -555.9325880923973, 375.55401033806925, -5416.319419898918, -1406.3941128723757, -2859.637482123075, -6441.75040027504, -4196.137690083706, -3029.667202194596, -3532.1344175498984, -2655.3425378015686, -9804.346836131435, -14894.241380005049, 0.0175, -0.107375, 0.990875, 192.0, 0.0, 72.0, 126.0, 80.0, 15.0, 112.0, 0.0, 0.0, 0.0, 1.645921594927024E9, 0.0, 2022-02-27 11:26:34.927
38.0, -1048.497980653999, -4726.142254607947, -1705.1922327509205, -10094.673644861417, -565.7226521638217, 343.88158844489914, -5449.914091815244, -1447.3648604589534, -2602.882993564963, -6174.26707437838, -3962.2266843589173, -2747.2529110017913, -3280.498478472052, -2405.3606278134143, -9541.736190526031, -14702.95515095653, 0.0175, -0.107375, 0.990875, 192.0, 0.0, 0.0, 0.0, 0.0, 0.0, 0.0, 0.0, 0.0, 0.0, 1.645921594934453E9, 0.0, 2022-02-27 11:26:34.934
40.0, -1265.9804542041368, -4931.353620452121, -1859.6427869370923, -10234.59556515164, -718.6979912159433, 203.71379896566856, -5578.458974177715, -1569.1371642514664, -2937.1980353829904, -6475.680348358196, -4222.535100285423, -3048.5544262593303, -3531.933251849801, -2666.160782117937, -9803.475118097678, -14948.019677164517, 0.0175, -0.107375, 0.990875, 192.0, 0.0, 0.0, 0.0, 0.0, 0.0, 0.0, 0.0, 0.0, 0.0, 1.645921594942728E9, 0.0, 2022-02-27 11:26:34.942
42.0, -1074.8059838778954, -4742.906062949427, -1623.3848480444967, -9996.750652402718, -463.1281451139623, 461.60822649100146, -5338.870625361279, -1330.3981817243316, -2691.1500324189706, -6274.648758727165, -4067.27988329886, -2865.5606944037313, -3360.1377439663106, -2482.362387461947, -9619.252040297037, -14716.366197629715, 0.0175, -0.107375, 0.990875, 192.0, 0.0, 0.0, 0.0, 0.0, 0.0, 0.0, 0.0, 0.0, 0.0, 1.645921594950591E9, 0.0, 2022-02-27 11:26:34.950
44.0, -1379.0802811479905, -5048.7002788424825, -1856.9829293469109, -10237.657754142017, -695.2510112823262, 224.23270037564046, -5567.014881016598, -1560.799963569637, -2834.1788451884804, -6351.292890464412, -4123.986258981974, -2920.367171808144, -3401.264953764076, -2512.78311166562, -9656.24417737057, -14832.997600197506, 0.0175, -0.107375, 0.990875, 192.0, 0.0, 0.0, 0.0, 0.0, 0.0, 0.0, 0.0, 0.0, 0.0, 1.645921594957176E9, 0.0, 2022-02-27 11:26:34.957
46.0, -1265.935750715226, -4921.608259869607, -1709.662581641982, -10082.827220300105, -539.973442551308, 393.658923346868, -5400.762605758025, -1390.6361330313841, -2952.82190475725, -6502.323627748922, -4273.474725899068, -3106.5124996319414, -3547.2665485461416, -2660.751659959753, -9804.302132642524, -14892.028557303973, 0.017750000000000002, -0.1056875, 0.9914375, 192.0, 0.0, 72.0, 126.0, 96.0, 15.5, 0.0, 0.0, 0.0, 0.0, 1.645921594965178E9, 0.0, 2022-02-27 11:26:34.965
48.0, -1287.616942836874, -4944.7423153808495, -1719.564404435683, -10108.308208979155, -544.2873292311823, 380.8960772628877, -5422.063818223932, -1422.8449967914817, -2691.9546952193614, -6213.874365553184, -4041.8883015976317, -2821.5501095712316, -3289.84150765437, -2399.683284721766, -9533.957783455586, -14691.801630473332, 0.017750000000000002, -0.1056875, 0.9914375, 192.0, 0.0, 0.0, 0.0, 0.0, 0.0, 0.0, 0.0, 0.0, 0.0, 1.645921594973222E9, 0.0, 2022-02-27 11:26:34.973
50.0, -1440.7487441001826, -5073.24249425441, -1873.5008684993827, -10246.576100179685, -701.8894793855524, 226.2890608655287, -5548.015898229587, -1548.0371174856566, -3007.941306584037, -6494.0311305560035, -4290.596162151833, -3122.181072495112, -3542.5503304660715, -2657.354194802546, -9796.32255987198, -14940.151863116249, 0.017750000000000002, -0.1056875, 0.9914375, 192.0, 0.0, 0.0, 0.0, 0.0, 0.0, 0.0, 0.0, 0.0, 0.0, 1.645921594980356E9, 0.0, 2022-02-27 11:26:34.980
52.0, -1171.4325751581878, -4813.671685894929, -1630.6715167369268, -10001.64568443843, -455.84147642153226, 470.9065521844092, -5321.972706553067, -1325.905481088815, -2747.1411522795147, -6294.027721169916, -4117.593660067757, -2903.3351425332003, -3376.678034863238, -2476.8638583259417, -9616.703941429132, -14711.426462105092, 0.017750000000000002, -0.1056875, 0.9914375, 192.0, 0.0, 0.0, 0.0, 0.0, 0.0, 0.0, 0.0, 0.0, 0.0, 1.645921594986734E9, 0.0, 2022-02-27 11:26:34.986
54.0, -1379.192039870267, -5027.242604165388, -1859.620435192637, -10229.566422649195, -694.8486798821307, 223.29392710851755, -5558.945901268233, -1576.4238329438965, -2861.2915112127675, -6357.372564956256, -4141.5100266349355, -2938.0474016722924, -3406.316448010975, -2520.06978035805, -9653.114933146828, -14830.60596354079, 0.017750000000000002, -0.1056875, 0.9914375, 192.0, 0.0, 0.0, 0.0, 0.0, 0.0, 0.0, 0.0, 0.0, 0.0, 1.645921594994894E9, 0.0, 2022-02-27 11:26:34.994
56.0, -1198.6122964158412, -4850.641471224007, -1710.690761886926, -10075.920531263415, -545.293157731671, 386.52871686562503, -5411.603201818848, -1397.9898569571803, -2931.6100992691636, -6485.135136262791, -4258.811981536386, -3080.852696997249, -3549.054688102566, -2664.417346050423, -9808.146632688837, -14889.882789836263, 0.015875, -0.10584375, 0.98971875, 192.0, 0.0, 56.0, 126.0, 88.0, 15.0, 112.0, 0.0, 0.0, 0.0, 1.645921595002841E9, 0.0, 2022-02-27 11:26:35.002
58.0, -1197.204136515157, -4862.465544040864, -1718.4691689573729, -10097.221743729324, -558.7936113826765, 364.467545088237, -5442.560367889449, -1450.0470697935905, -2672.709843243342, -6205.6489235936315, -4021.1905862320173, -2791.3305510676564, -3299.3409990478754, -2406.589973758456, -9543.613737060277, -14687.934778682564, 0.015875, -0.10584375, 0.98971875, 192.0, 0.0, 0.0, 0.0, 0.0, 0.0, 0.0, 0.0, 0.0, 0.0, 1.64592159500939E9, 0.0, 2022-02-27 11:26:35.009
60.0, -1332.2757282585774, -4975.632426218084, -1879.3123220577625, -10248.341887991653, -725.5599767637226, 199.60107798589206, -5576.20144798773, -1575.7085771213267, -2978.1017277362025, -6470.315929688923, -4254.654557067699, -3072.135516659679, -3551.803952670569, -2651.9897761332722, -9811.767615290597, -14944.510453285035, 0.015875, -0.10584375, 0.98971875, 192.0, 0.0, 0.0, 0.0, 0.0, 0.0, 0.0, 0.0, 0.0, 0.0, 1.645921595017506E9, 0.0, 2022-02-27 11:26:35.017
62.0, -1065.0382715509263, -4721.761312694706, -1632.6608219934492, -10006.3619025185, -467.1961626048282, 449.2924152961273, -5323.134997264743, -1332.387486980854, -2719.6261548550315, -6270.290168558379, -4090.480994043469, -2895.0649970847367, -3398.023950818056, -2498.5450504475893, -9636.95462190564, -14722.982313988485, 0.015875, -0.10584375, 0.98971875, 192.0, 0.0, 0.0, 0.0, 0.0, 0.0, 0.0, 0.0, 0.0, 0.0, 1.645921595025453E9, 0.0, 2022-02-27 11:26:35.025
64.0, -1266.3380821154217, -4929.073742517679, -1850.0538885657656, -10232.427445939475, -705.577517220678, 211.02281940255398, -5565.852590304922, -1560.375280424986, -2812.4305978334664, -6320.313372649357, -4107.244802384949, -2890.147613304569, -3409.222174790165, -2513.0289808546286, -9656.266529115026, -14832.528213563946, 0.015875, -0.10584375, 0.98971875, 192.0, 0.0, 0.0, 0.0, 0.0, 0.0, 0.0, 0.0, 0.0, 0.0, 1.645921595032575E9, 0.0, 2022-02-27 11:26:35.032
66.0, -1112.200452351624, -4765.682490549385, -1713.015343310278, -10083.47542088931, -559.3747567385145, 367.06034744505257, -5441.286318455496, -1417.771150800127, -2920.277764830323, -6470.6735576002075, -4243.009298206484, -3068.402775335643, -3564.924426665834, -2672.9780641768057, -9817.80258629353, -14902.869153364796, 0.0159375, -0.106921875, 0.987859375, 192.0, 0.0, 64.0, 126.0, 80.0, 15.0, 104.0, 0.0, 0.0, 0.0, 1.645921595047154E9, 0.0, 2022-02-27 11:26:35.047
68.0, -1109.205318594613, -4764.006109715237, -1718.7150381463812, -10096.484136162298, -564.2921405186821, 350.0506699145639, -5451.143437760286, -1447.2083982477664, -2629.6603834224206, -6178.826830247263, -3993.1391469406067, -2770.610483957587, -3304.4819002725962, -2400.2197265886934, -9544.619565560766, -14692.650996762633, 0.0159375, -0.106921875, 0.987859375, 192.0, 0.0, 0.0, 0.0, 0.0, 0.0, 0.0, 0.0, 0.0, 0.0, 1.645921595055135E9, 0.0, 2022-02-27 11:26:35.055
70.0, -984.4825845339996, -4678.175411006858, -1676.984331248323, -10036.112074388513, -473.7899272191438, 379.7784900401223, -5459.368879719839, -1468.4649072247635, -3083.0878714427795, -6419.0186761639925, -4158.564407654334, -2996.9666000564816, -3471.941169731757, -2587.3708829129796, -9772.115620626882, -14962.794180249475, 0.0159375, -0.106921875, 0.987859375, 192.0, 0.0, 0.0, 0.0, 0.0, 0.0, 0.0, 0.0, 0.0, 0.0, 1.645921595062316E9, 0.0, 2022-02-27 11:26:35.062
72.0, -1438.222996976733, -5004.5555835432515, -1979.0458058173426, -10377.132639543133, -900.3059149153132, 100.44873958214994, -5603.023541334098, -1635.7900662171921, -3125.6008893967737, -6588.511954368586, -4216.589536260311, -2974.63720734563, -3537.70000191927, -2655.655462223943, -9786.823068478474, -15090.109716666904, 0.0159375, -0.106921875, 0.987859375, 192.0, 0.0, 0.0, 0.0, 0.0, 0.0, 0.0, 0.0, 0.0, 0.0, 1.645921595069752E9, 0.0, 2022-02-27 11:26:35.069
74.0, -878.9599989604949, -4581.302950537557, -1571.506449163729, -9926.409712601866, -393.6365716024127, 474.3710725749818, -5319.245793729519, -1287.1252044588573, -1662.56745607465, -5850.077372798607, -4064.016528608385, -2830.535510842265, -3448.9188729427906, -2460.815305807031, -9494.417547514147, -14257.976622340277, 0.0159375, -0.106921875, 0.987859375, 192.0, 0.0, 0.0, 0.0, 0.0, 0.0, 0.0, 0.0, 0.0, 0.0, 1.645921595077713E9, 0.0, 2022-02-27 11:26:35.077
76.0, -1178.8757060618052, -4815.951563829371, -1841.2473012503747, -10224.78314933576, -700.7495404183318, 212.3192205809618, -5623.520090999615, -1676.4702411258509, -4108.34003786326, -6679.952940935247, -4036.2109585059834, -2968.892809020616, -3314.0484468994678, -2520.047428613595, -9880.38747076839, -15351.491016327265, 0.012, -0.106, 0.982, 192.0, 0.0, 48.0, 126.0, 88.0, 15.0, 88.0, 0.0, 0.0, 0.0, 1.64592159508574E9, 0.0, 2022-02-27 11:26:35.085
78.0, -1209.8999273657712, -4828.5802994466185, -1795.0685972057101, -10179.342052858121, -700.3695607625915, 260.7778025600675, -5415.984143732088, -1410.5291855966075, -1677.051386481689, -6114.051474815783, -4236.080257425339, -2881.47513645591, -3625.028267506155, -2635.717706169809, -9568.871208294775, -14475.928482523977, 0.012, -0.106, 0.982, 192.0, 0.0, 0.0, 0.0, 0.0, 0.0, 0.0, 0.0, 0.0, 0.0, 1.645921595092324E9, 0.0, 2022-02-27 11:26:35.092
80.0, -745.7212502624095, -4470.3935945503235, -1526.2218148972768, -9885.99775862667, -302.9108408583213, 499.38267462047037, -5364.642186718248, -1347.6537284438286, -3022.7381614134506, -6148.227292087948, -3920.8536053721436, -2856.3294239436896, -3245.965033288602, -2379.9913978566406, -9646.655278999244, -14748.01626777843, 0.012, -0.106, 0.982, 192.0, 0.0, 0.0, 0.0, 0.0, 0.0, 0.0, 0.0, 0.0, 0.0, 1.64592159509951E9, 0.0, 2022-02-27 11:26:35.099
82.0, -1419.8945665233812, -4991.7033304814495, -1987.6065239437253, -10391.728328672449, -920.4448366695449, 71.54793400143791, -5653.40437333636, -1654.3867176040076, -3291.7637576775264, -6712.251211673166, -4265.450449639613, -3006.3096292388, -3586.918543209856, -2717.2792216872244, -9847.3739442079, -15233.317343392057, 0.012, -0.106, 0.982, 192.0, 0.0, 0.0, 0.0, 0.0, 0.0, 0.0, 0.0, 0.0, 0.0, 1.645921595107431E9, 0.0, 2022-02-27 11:26:35.107
84.0, -799.7901200997973, -4507.676304301775, -1532.2567859002097, -9884.030805114604, -356.1526961508627, 503.04836071114073, -5318.9999245405115, -1254.066974409458, -1621.8202259326251, -5791.135822669962, -4014.2391937064167, -2775.729033437852, -3400.5049944525954, -2419.486930309168, -9479.508933962457, -14243.29152623314, 0.012, -0.106, 0.982, 192.0, 0.0, 0.0, 0.0, 0.0, 0.0, 0.0, 0.0, 0.0, 0.0, 1.645921595115505E9, 0.0, 2022-02-27 11:26:35.115
86.0, -1143.8728742447943, -4782.8486302910605, -1831.9042720680563, -10222.704437101416, -698.9837526063625, 204.29494432150656, -5576.357910198916, -1662.209828163365, -4163.750012367966, -6689.340673606476, -4023.8504438221985, -2954.207712913479, -3306.270039829021, -2518.840434413008, -9885.707185948753, -15392.953502291859, 0.01, -0.10400000000000001, 0.984, 192.0, 0.0, 40.0, 126.0, 96.0, 15.0, 96.0, 0.0, 0.0, 0.0, 1.645921595122055E9, 0.0, 2022-02-27 11:26:35.122
88.0, -1180.395624684766, -4801.959371800348, -1792.5428500822604, -10179.431459835943, -714.2946975582478, 243.7010697962129, -5434.916071285734, -1422.5991276024733, -1669.6306073225269, -6118.231251028926, -4227.899518954697, -2870.276912483801, -3623.1954244608196, -2637.1705695594037, -9572.693356596632, -14499.688386879969, 0.01, -0.10400000000000001, 0.984, 192.0, 0.0, 0.0, 0.0, 0.0, 0.0, 0.0, 0.0, 0.0, 0.0, 1.645921595130021E9, 0.0, 2022-02-27 11:26:35.130
90.0, -703.0517700972283, -4439.123504057348, -1508.832157711048, -9866.752906650652, -304.6766286702906, 511.9220032598977, -5378.008529902521, -1381.9636561827251, -2969.8092305432833, -6108.217669512948, -3897.1607562495183, -2819.158472914514, -3233.06807673789, -2363.6969761487217, -9645.6270987543, -14738.136796729184, 0.01, -0.10400000000000001, 0.984, 192.0, 0.0, 0.0, 0.0, 0.0, 0.0, 0.0, 0.0, 0.0, 0.0, 1.645921595138136E9, 0.0, 2022-02-27 11:26:35.138
92.0, -1392.6924935212724, -4956.07464981969, -1990.780471656379, -10392.823564150758, -938.505046189433, 80.24276259455236, -5660.713393773245, -1685.366235419063, -3285.1699930632108, -6686.546705549563, -4252.151161688705, -2979.4651841479763, -3578.4248803168393, -2696.1791749214144, -9861.388487981378, -15247.44364588781, 0.01, -0.10400000000000001, 0.984, 192.0, 0.0, 0.0, 0.0, 0.0, 0.0, 0.0, 0.0, 0.0, 0.0, 1.645921595144619E9, 0.0, 2022-02-27 11:26:35.144
94.0, -766.7095383059428, -4478.395519065323, -1524.5901375520396, -9878.554627723053, -356.6444345288795, 497.99686646424135, -5309.09810174681, -1276.7539950315947, -1590.438376717374, -5774.5061247952135, -4001.8563272781766, -2765.067251332671, -3397.4651572066737, -2419.196357631249, -9484.515724720446, -14244.72203787828, 0.01, -0.10400000000000001, 0.984, 192.0, 0.0, 0.0, 0.0, 0.0, 0.0, 0.0, 0.0, 0.0, 0.0, 1.645921595152761E9, 0.0, 2022-02-27 11:26:35.152
96.0, -1128.6960397596408, -4762.5979498145525, -1845.3153187412404, -10226.59364063664, -725.2470523413483, 184.58070571192573, -5613.171233316807, -1693.2340494673313, -4181.094966065284, -6681.584618280485, -4017.5919553747126, -2940.0590586732696, -3305.241859584077, -2515.0182861111507, -9895.67606397582, -15411.147822278479, 0.01, -0.108, 0.978, 192.0, 0.0, 40.0, 126.0, 80.0, 15.0, 72.0, 0.0, 0.0, 0.0, 1.645921595159794E9, 0.0, 2022-02-27 11:26:35.159
98.0, -1142.2411968995568, -4760.385127113477, -1789.2124401584197, -10162.287671838722, -713.6688487134992, 241.26472965058443, -5454.607958150859, -1446.515494169652, -1627.3858103019966, -6087.564657636244, -4227.720704999055, -2849.4674383959104, -3630.549148386616, -2629.5039212112333, -9582.438717179146, -14490.367709442105, 0.01, -0.108, 0.978, 192.0, 0.0, 0.0, 0.0, 0.0, 0.0, 0.0, 0.0, 0.0, 0.0, 1.645921595174333E9, 0.0, 2022-02-27 11:26:35.174
100.0, -676.8778773400638, -4411.1167682548485, -1519.4045328384082, -9860.33795599198, -309.70577117273467, 508.03279972467425, -5388.11151839632, -1416.675915321817, -2995.0890535222356, -6093.890201317096, -3894.1879742369624, -2806.4626820638996, -3241.40527741972, -2361.7747261255654, -9659.798104738964, -14761.114390029239, 0.01, -0.108, 0.978, 192.0, 0.0, 0.0, 0.0, 0.0, 0.0, 0.0, 0.0, 0.0, 0.0, 1.645921595182421E9, 0.0, 2022-02-27 11:26:35.182
102.0, -1396.380531356398, -4961.662585933517, -2012.3499050557502, -10397.271561297364, -960.1415348221702, 57.95807337261121, -5628.191605590774, -1666.0543282096778, -3330.23110988511, -6715.201641941267, -4267.573865362867, -2992.339788954233, -3599.502575338194, -2726.7563613362745, -9874.352499765457, -15271.695288621819, 0.01, -0.108, 0.978, 192.0, 0.0, 0.0, 0.0, 0.0, 0.0, 0.0, 0.0, 0.0, 0.0, 1.645921595190248E9, 0.0, 2022-02-27 11:26:35.190
104.0, -779.4500326454679, -4482.441184811733, -1551.345175665042, -9889.596389483975, -379.04088247309716, 478.39438657693705, -5309.589840124827, -1277.8268787654495, -1600.340199511075, -5789.012406946708, -4028.678420624545, -2782.5016120078103, -3432.4232855347736, -2452.746326058665, -9485.700367176578, -14248.275965246674, 0.01, -0.108, 0.978, 192.0, 0.0, 0.0, 0.0, 0.0, 0.0, 0.0, 0.0, 0.0, 0.0, 1.645921595197537E9, 0.0, 2022-02-27 11:26:35.197
106.0, -1092.5979724643198, -4736.893443690949, -1834.7429436138802, -10205.87357352657, -695.0498455822284, 200.3163338084619, -5615.518166484615, -1679.823002794147, -4172.422489216625, -6675.102612388446, -4026.89028106812, -2946.0046226983814, -3315.70247598916, -2515.1523965778824, -9895.609008742453, -15396.529781404708, 0.01, -0.10400000000000001, 0.986, 192.0, 0.0, 40.0, 126.0, 96.0, 15.0, 104.0, 0.0, 0.0, 0.0, 1.64592159520498E9, 0.0, 2022-02-27 11:26:35.204
108.0, -1159.653205830241, -4775.6290168319965, -1818.4708736504167, -10191.501401841808, -733.7630669788202, 224.47856956464884, -5462.073440798931, -1449.935311071314, -1717.2845265012415, -6119.214727784959, -4241.332917372336, -2862.342043202167, -3639.825122335568, -2643.4737614958003, -9598.554324931423, -14539.765064688334, 0.01, -0.10400000000000001, 0.986, 192.0, 0.0, 0.0, 0.0, 0.0, 0.0, 0.0, 0.0, 0.0, 0.0, 1.645921595212942E9, 0.0, 2022-02-27 11:26:35.212
110.0, -677.8166506071867, -4415.609468890366, -1522.8467014845255, -9869.613929940931, -308.14114906086314, 488.5420785596465, -5378.902599680734, -1380.7566619821384, -2918.8696049296386, -6075.718233074932, -3913.5669366797138, -2823.4500078499327, -3256.8950363272475, -2378.270313533582, -9643.57073826441, -14725.239840178472, 0.01, -0.10400000000000001, 0.986, 192.0, 0.0, 0.0, 0.0, 0.0, 0.0, 0.0, 0.0, 0.0, 0.0, 1.645921595220881E9, 0.0, 2022-02-27 11:26:35.220
112.0, -1372.2182956002111, -4943.736486880361, -2001.7551781839345, -10396.310436285787, -948.1609997941256, 46.58103544485992, -5652.577358791514, -1699.8725175705574, -3415.5924219599274, -6715.559269852552, -4252.486437855535, -2991.0657395202807, -3575.0274151596327, -2719.447340899389, -9871.804400897552, -15300.014948846692, 0.01, -0.10400000000000001, 0.986, 192.0, 0.0, 0.0, 0.0, 0.0, 0.0, 0.0, 0.0, 0.0, 0.0, 1.645921595227098E9, 0.0, 2022-02-27 11:26:35.227
114.0, -771.6939773194763, -4478.462574298689, -1557.380146667975, -9901.576924512021, -393.3012954355831, 464.40219454791486, -5311.556793636893, -1283.3701113903655, -1576.759109110726, -5809.330142656582, -4040.860121352687, -2784.3568067976007, -3436.6477652368267, -2453.8862650258857, -9476.603207183267, -14260.68118341937, 0.01, -0.10400000000000001, 0.986, 192.0, 0.0, 0.0, 0.0, 0.0, 0.0, 0.0, 0.0, 0.0, 0.0, 1.645921595235153E9, 0.0, 2022-02-27 11:26:35.235
116.0, -1086.4735944835656, -4728.735056964762, -1843.6612896515478, -10214.814271308693, -707.1421393325495, 195.957743639677, -5640.239195852184, -1685.4779941413397, -4137.7549335664435, -6654.404897022831, -4018.106045497185, -2941.7801429963283, -3302.8278711829034, -2512.6042977099773, -9883.784935925596, -15388.460801656343, 0.01, -0.10400000000000001, 0.988, 192.0, 0.0, 40.0, 126.0, 96.0, 15.0, 112.0, 0.0, 0.0, 0.0, 1.645921595242534E9, 0.0, 2022-02-27 11:26:35.242
118.0, -1144.297557389445, -4767.001243472248, -1821.5107108963384, -10184.214733149378, -726.8787296865856, 232.52519756855938, -5435.8771962973115, -1437.194816731789, -1678.660712082471, -6118.499471962389, -4242.495208084012, -2861.4926769128656, -3632.0467152651213, -2642.9820231177837, -9589.166592260193, -14515.245201020862, 0.01, -0.10400000000000001, 0.988, 192.0, 0.0, 0.0, 0.0, 0.0, 0.0, 0.0, 0.0, 0.0, 0.0, 1.645921595249644E9, 0.0, 2022-02-27 11:26:35.249
120.0, -671.0217202927734, -4407.652247864276, -1532.2567859002097, -9863.556607193543, -305.6154019374135, 492.54304081714645, -5364.150448340231, -1376.3980718133537, -2952.620739057152, -6098.15938450806, -3915.265669258317, -2821.2148334044023, -3248.289614711954, -2366.46859246118, -9639.86034868483, -14732.638267593178, 0.01, -0.10400000000000001, 0.988, 192.0, 0.0, 0.0, 0.0, 0.0, 0.0, 0.0, 0.0, 0.0, 0.0, 1.645921595257208E9, 0.0, 2022-02-27 11:26:35.257
122.0, -1388.4233103303088, -4951.760763139816, -2021.581175515792, -10401.96542763298, -953.9053981191395, 40.09902955282087, -5632.3937335483715, -1686.8638022975688, -3388.2115350021763, -6734.446493917286, -4271.485420642545, -2991.5574778982973, -3585.4880315647165, -2743.766038866763, -9867.781086895597, -15291.78950688714, 0.01, -0.10400000000000001, 0.988, 192.0, 0.0, 0.0, 0.0, 0.0, 0.0, 0.0, 0.0, 0.0, 0.0, 1.645921595265175E9, 0.0, 2022-02-27 11:26:35.265
124.0, -762.2838929037921, -4467.331405559946, -1555.0779169890782, -9891.250418573669, -371.41893761383744, 477.5226685431801, -5297.363435907774, -1262.9629687026702, -1568.7124811068156, -5794.153308171429, -4033.41699044907, -2773.3597485255896, -3417.939355127735, -2451.2264074357045, -9467.39428846768, -14241.503386676715, 0.01, -0.10400000000000001, 0.988, 192.0, 0.0, 0.0, 0.0, 0.0, 0.0, 0.0, 0.0, 0.0, 0.0, 1.645921595273291E9, 0.0, 2022-02-27 11:26:35.273
126.0, -1106.4784057710656, -4746.348231595544, -1860.6262636931258, -10230.974582549881, -709.2432033113485, 191.71091219316867, -5622.11193109893, -1690.082453499133, -4194.863640649753, -6687.284313116588, -4019.2683362088605, -2943.4565238304763, -3296.0105891240346, -2511.30789653157, -9888.702319705764, -15410.81254611165, 0.01, -0.10200000000000001, 0.986, 192.0, 0.0, 40.0, 126.0, 104.0, 15.0, 104.0, 0.0, 0.0, 0.0, 1.645921595279801E9, 0.0, 2022-02-27 11:26:35.279
128.0, -1160.1449442082578, -4780.300531423156, -1823.5223678973161, -10191.859029753094, -720.3296685611807, 234.4474475917158, -5436.8830247978, -1436.8595405649592, -1655.4596013378623, -6128.490701733912, -4256.420344879669, -2875.1048892861477, -3637.0311542786544, -2663.2550553387473, -9581.678757867665, -14510.752500385344, 0.01, -0.10200000000000001, 0.986, 192.0, 0.0, 0.0, 0.0, 0.0, 0.0, 0.0, 0.0, 0.0, 0.0, 1.645921595294832E9, 0.0, 2022-02-27 11:26:35.294
130.0, -674.7991651057202, -4417.375256702335, -1530.9156812328913, -9863.198979282259, -294.7301023876789, 509.2174421808055, -5366.407974530217, -1373.738214223172, -2967.7081665644846, -6114.2526405158815, -3907.353151721138, -2819.694914781441, -3227.1895679461445, -2360.0759935469623, -9632.528976503489, -14732.191232704072, 0.01, -0.10200000000000001, 0.986, 192.0, 0.0, 0.0, 0.0, 0.0, 0.0, 0.0, 0.0, 0.0, 0.0, 1.645921595302817E9, 0.0, 2022-02-27 11:26:35.302
132.0, -1419.4028281453643, -4979.02989137529, -2040.4907513249818, -10419.44449179703, -969.1492878376589, 42.065983064887895, -5646.0730011550195, -1700.140738504021, -3400.6614566637822, -6747.81283710156, -4292.406653452713, -3008.0307135618586, -3600.1954794163084, -2747.744649379808, -9886.690662704787, -15305.759347171706, 0.01, -0.10200000000000001, 0.986, 192.0, 0.0, 0.0, 0.0, 0.0, 0.0, 0.0, 0.0, 0.0, 0.0, 1.645921595309618E9, 0.0, 2022-02-27 11:26:35.309
134.0, -753.6337677995882, -4463.084574113438, -1546.0478122291343, -9870.038613085582, -348.7542687361561, 515.1853579503725, -5289.383863137229, -1252.7705732310503, -1551.9710245097906, -5783.759746999711, -4026.7561706013885, -2770.6998909354083, -3408.3728085008634, -2423.6220030334002, -9460.800523853364, -14210.836793284036, 0.01, -0.10200000000000001, 0.986, 192.0, 0.0, 0.0, 0.0, 0.0, 0.0, 0.0, 0.0, 0.0, 0.0, 1.645921595317536E9, 0.0, 2022-02-27 11:26:35.317
136.0, -1112.26750758499, -4751.355022353533, -1877.2336098234189, -10234.684972129462, -717.3345348041696, 197.74588319610157, -5629.532710258092, -1708.7685118637696, -4243.813961006876, -6700.650656300862, -4021.704676354489, -2944.954090708982, -3288.522754731507, -2500.1096725594607, -9896.167802353835, -15420.066168316147, 0.016, -0.10200000000000001, 0.99, 192.0, 0.0, 64.0, 126.0, 104.0, 15.0, 120.0, 0.0, 0.0, 0.0, 1.645921595325456E9, 0.0, 2022-02-27 11:26:35.325
138.0, -1167.878647789794, -4795.052682763659, -1831.233719734397, -10187.500439584308, -723.4589127849237, 254.20638969020723, -5432.613841606837, -1421.3027264240654, -1629.308060325153, -6130.055323845783, -4261.807115293398, -2878.7705753768178, -3641.210930491797, -2653.8449709230626, -9582.058737523406, -14491.261779220318, 0.016, -0.10200000000000001, 0.99, 192.0, 0.0, 0.0, 0.0, 0.0, 0.0, 0.0, 0.0, 0.0, 0.0, 1.645921595332541E9, 0.0, 2022-02-27 11:26:35.332
140.0, -669.6359121365443, -4415.676524123732, -1530.8039225106147, -9853.900653588851, -290.8408988524555, 526.9200237894087, -5370.1854193431645, -1373.1347171228788, -2989.8587453196938, -6129.362419767669, -3904.805052853233, -2830.4908073533547, -3226.071980723379, -2359.0925167909286, -9632.104293358838, -14724.479880866991, 0.016, -0.10200000000000001, 0.99, 192.0, 0.0, 0.0, 0.0, 0.0, 0.0, 0.0, 0.0, 0.0, 0.0, 1.645921595340082E9, 0.0, 2022-02-27 11:26:35.340
142.0, -1418.2405374336884, -4981.019196631813, -2053.0077282199536, -10424.518337788384, -969.7974884268629, 54.1135733262984, -5638.808684207044, -1694.3739884345518, -3441.743962972637, -6781.586322973529, -4288.606856895311, -3019.0948270672357, -3596.4850898367276, -2735.4735416738445, -9892.636226729897, -15316.488184510254, 0.016, -0.10200000000000001, 0.99, 192.0, 0.0, 0.0, 0.0, 0.0, 0.0, 0.0, 0.0, 0.0, 0.0, 1.645921595347071E9, 0.0, 2022-02-27 11:26:35.347
144.0, -755.3325003781915, -4467.756088704597, -1553.9156262774022, -9881.57211322452, -361.2935973755834, 516.3700004065038, -5279.593799065805, -1248.2778725955336, -1538.9176057478912, -5785.86081097851, -4031.6288508926455, -2789.117728366581, -3415.0783318374556, -2430.305174625537, -9457.201892996061, -14205.114746703477, 0.016, -0.10200000000000001, 0.99, 192.0, 0.0, 0.0, 0.0, 0.0, 0.0, 0.0, 0.0, 0.0, 0.0, 1.645921595355149E9, 0.0, 2022-02-27 11:26:35.355
146.0, -1118.6377547547527, -4757.457048589832, -1878.619417979648, -10240.854053599127, -716.8204446816975, 199.33285705242838, -5620.413198520327, -1701.9959332938115, -4259.326071658858, -6690.190039895778, -4016.9214030410535, -2958.63335831563, -3287.1369465752778, -2508.111597074461, -9893.86557267494, -15429.342142265099, 0.012, -0.1, 0.99, 192.0, 0.0, 48.0, 126.0, 112.0, 15.0, 120.0, 0.0, 0.0, 0.0, 1.645921595362378E9, 0.0, 2022-02-27 11:26:35.362
148.0, -1159.8767232747941, -4773.036214475181, -1822.293021952274, -10181.532523814742, -722.8330639401751, 252.44060187823797, -5420.700361812158, -1434.579662630518, -1648.016470434245, -6134.615079714666, -4260.980100748551, -2880.670473655519, -3645.8153898495902, -2664.7973257061635, -9579.108307255305, -14504.873991593598, 0.012, -0.1, 0.99, 192.0, 0.0, 0.0, 0.0, 0.0, 0.0, 0.0, 0.0, 0.0, 0.0, 1.645921595369835E9, 0.0, 2022-02-27 11:26:35.369
150.0, -658.7282608423544, -4400.745558827586, -1522.086742173045, -9842.747133105651, -291.71261688621246, 535.458390171336, -5365.603311729827, -1360.3048158055326, -2967.886980520127, -6110.363436980658, -3898.0324742832754, -2802.3052575952124, -3218.6959050531277, -2353.504580677102, -9624.303534543937, -14716.67912205209, 0.012, -0.1, 0.99, 192.0, 0.0, 0.0, 0.0, 0.0, 0.0, 0.0, 0.0, 0.0, 0.0, 1.645921595377793E9, 0.0, 2022-02-27 11:26:35.377
152.0, -1419.7604560566492, -4980.058071620235, -2050.191408418585, -10422.171404620578, -985.3543025677566, 57.42163150568384, -5654.007870436653, -1702.4429681829176, -3464.2745213835865, -6786.101375353501, -4289.858554584808, -3021.4641119794983, -3601.7153980392695, -2733.998326539794, -9895.3854912979, -15325.473585781288, 0.012, -0.1, 0.99, 192.0, 0.0, 0.0, 0.0, 0.0, 0.0, 0.0, 0.0, 0.0, 0.0, 1.645921595384835E9, 0.0, 2022-02-27 11:26:35.384
154.0, -752.9185119770184, -4456.1331815878375, -1551.0098994982125, -9872.631415442398, -367.3956236118822, 528.1270179899952, -5292.021368982955, -1256.2350936216228, -1527.5852713090505, -5755.350679797016, -4022.8893188106204, -2768.218847300869, -3412.1726050582656, -2415.0612849070176, -9454.832608083798, -14197.805726266592, 0.013000000000000001, -0.10200000000000001, 0.991, 192.0, 0.0, 56.0, 126.0, 96.0, 15.5, 0.0, 0.0, 0.0, 0.0, 1.645921595392318E9, 0.0, 2022-02-27 11:26:35.392
156.0, -1100.0858068568477, -4742.995469927248, -1866.75064167388, -10221.251573711823, -720.6649447280104, 206.23954608911828, -5649.001079678665, -1711.428369453951, -4258.364946647281, -6693.363987608432, -4011.646391349601, -2950.8773029896383, -3286.2428767970655, -2506.3011057735807, -9894.178497097313, -15420.557906694165, 0.013000000000000001, -0.10200000000000001, 0.991, 192.0, 0.0, 0.0, 0.0, 0.0, 0.0, 0.0, 0.0, 0.0, 0.0, 1.645921595400485E9, 0.0, 2022-02-27 11:26:35.400
158.0, -1171.7007960916515, -4783.56388611363, -1833.6030046466597, -10195.435308865943, -742.7261165053984, 241.1529709283079, -5461.782868121013, -1454.7409361292048, -1673.9668457468565, -6137.520806493856, -4268.780859563453, -2874.344929974667, -3656.1195440434867, -2666.3395960735793, -9592.429946950668, -14519.961419100931, 0.013000000000000001, -0.10200000000000001, 0.991, 192.0, 0.0, 0.0, 0.0, 0.0, 0.0, 0.0, 0.0, 0.0, 0.0, 1.645921595407439E9, 0.0, 2022-02-27 11:26:35.407
160.0, -648.5582171151897, -4382.372424885324, -1515.3365153475422, -9844.110589517426, -298.93223034527665, 530.4292476688919, -5405.300009882451, -1383.6176852724177, -2928.883186445616, -6081.932018033507, -3899.530041161781, -2801.3664843280894, -3226.6307743347616, -2362.7134993926884, -9624.638810710765, -14705.43619459107, 0.013000000000000001, -0.10200000000000001, 0.991, 192.0, 0.0, 0.0, 0.0, 0.0, 0.0, 0.0, 0.0, 0.0, 0.0, 1.645921595421977E9, 0.0, 2022-02-27 11:26:35.421
162.0, -1409.5904123294847, -4965.998824357846, -2044.6258240492136, -10426.038256411346, -996.6866370065973, 31.784180615446644, -5661.227483895717, -1740.9550238794118, -3519.2598127436418, -6784.134421841433, -4278.794441079431, -3008.0307135618586, -3596.5521450700935, -2750.1362860365257, -9908.4389100598, -15360.923452487405, 0.013000000000000001, -0.10200000000000001, 0.991, 192.0, 0.0, 0.0, 0.0, 0.0, 0.0, 0.0, 0.0, 0.0, 0.0, 1.645921595430026E9, 0.0, 2022-02-27 11:26:35.430
164.0, -755.4889625893787, -4462.1234491018595, -1549.378222152975, -9885.416613270834, -395.9611530257646, 497.68394204186706, -5312.160290737187, -1272.7977362630054, -1485.3628260329756, -5755.462438519292, -4035.5180544278687, -2762.0497658312042, -3436.0219163920783, -2453.6403958368774, -9459.325308719315, -14212.557877607094, 0.013500000000000002, -0.10200000000000001, 0.9904999999999999, 192.0, 0.0, 56.0, 126.0, 104.0, 15.0, 120.0, 0.0, 0.0, 0.0, 1.645921595438001E9, 0.0, 2022-02-27 11:26:35.438
166.0, -1075.6553501671972, -4729.003277898226, -1851.260882766352, -10218.390550421544, -720.8214069391975, 212.74390372561263, -5651.2362541241955, -1708.9026223305016, -4237.063734181373, -6677.2260281117, -4009.522975626347, -2944.5741110532417, -3297.5081560025405, -2521.813216425564, -9900.504040778165, -15423.262467773257, 0.013500000000000002, -0.10200000000000001, 0.9904999999999999, 192.0, 0.0, 0.0, 0.0, 0.0, 0.0, 0.0, 0.0, 0.0, 0.0, 1.64592159544453E9, 0.0, 2022-02-27 11:26:35.444
168.0, -1162.9165605207158, -4778.601798844552, -1839.749734371869, -10207.281733427255, -765.6590063165435, 230.22296788966275, -5470.187124036208, -1470.7447851592046, -1702.174747249454, -6172.702452266509, -4272.580656120856, -2877.027139309304, -3666.7813261486685, -2680.1082706580487, -9612.971200105096, -14555.724210229422, 0.013500000000000002, -0.10200000000000001, 0.9904999999999999, 192.0, 0.0, 0.0, 0.0, 0.0, 0.0, 0.0, 0.0, 0.0, 0.0, 1.645921595452724E9, 0.0, 2022-02-27 11:26:35.452
170.0, -627.3687633715587, -4363.753421754053, -1506.731093732249, -9842.702429616742, -296.63000066638006, 528.6634598569226, -5390.749024242047, -1379.6390747593732, -2860.799772834751, -6046.057468182739, -3891.014026524309, -2784.4015102865114, -3228.5530243579183, -2356.99145281213, -9620.66020019772, -14692.271017106894, 0.013500000000000002, -0.10200000000000001, 0.9904999999999999, 192.0, 0.0, 0.0, 0.0, 0.0, 0.0, 0.0, 0.0, 0.0, 0.0, 1.645921595460654E9, 0.0, 2022-02-27 11:26:35.460
172.0, -1398.4368918462865, -4951.269024761799, -2042.390649603683, -10429.212204123998, -998.4524248185664, 35.29340449492985, -5672.381004378915, -1723.8782911155572, -3483.027634981589, -6776.825401404549, -4278.235647468048, -3000.0064373024034, -3602.2965433951076, -2744.861274345073, -9908.10363389297, -15349.144083159457, 0.013500000000000002, -0.10200000000000001, 0.9904999999999999, 192.0, 0.0, 0.0, 0.0, 0.0, 0.0, 0.0, 0.0, 0.0, 0.0, 1.645921595467837E9, 0.0, 2022-02-27 11:26:35.467
174.0, -727.0128401533175, -4427.746466129597, -1538.470570858785, -9875.604197454953, -382.52775460812506, 513.039590482663, -5364.44102101815, -1284.353588146399, -1470.6330264369283, -5737.08930457703, -4020.967068787464, -2751.767963381763, -3425.1813203312545, -2421.5432907990566, -9461.605186653756, -14200.554990834593, 0.014750000000000001, -0.10200000000000001, 0.99125, 192.0, 0.0, 64.0, 126.0, 104.0, 15.5, 0.0, 0.0, 0.0, 0.0, 1.645921595474354E9, 0.0, 2022-02-27 11:26:35.474
176.0, -1059.0480040369039, -4697.353207749511, -1842.9683855734331, -10207.102919471612, -709.1761480779825, 203.46792977666018, -5637.378172561905, -1738.8539599006128, -4205.659533221667, -6656.505961001631, -3987.8864869936097, -2924.502244532376, -3272.2506847680434, -2510.8608616424635, -9902.24747684568, -15423.843613129095, 0.014750000000000001, -0.10200000000000001, 0.99125, 192.0, 0.0, 0.0, 0.0, 0.0, 0.0, 0.0, 0.0, 0.0, 0.0, 1.645921595482406E9, 0.0, 2022-02-27 11:26:35.482
178.0, -1157.0156999845149, -4762.03915620317, -1832.3066034682518, -10195.815288521682, -771.0904802191831, 229.1053806668974, -5456.172580262731, -1460.1724100318445, -1675.7102818143705, -6140.940623395518, -4264.1316967167495, -2860.866828068117, -3659.3158435005957, -2689.0489684401714, -9601.169479032693, -14544.458931023948, 0.014750000000000001, -0.10200000000000001, 0.99125, 192.0, 0.0, 0.0, 0.0, 0.0, 0.0, 0.0, 0.0, 0.0, 0.0, 1.645921595490871E9, 0.0, 2022-02-27 11:26:35.490
180.0, -607.7662834842544, -4342.72043022161, -1496.0022563937016, -9822.652914840332, -297.32290474449456, 539.8393320845762, -5429.104617727354, -1396.1123104229343, -2840.4373336359663, -6028.310183085226, -3883.0568054982195, -2771.4374985024333, -3230.9893645035463, -2357.1479150233167, -9615.586354206367, -14681.922159424086, 0.014750000000000001, -0.10200000000000001, 0.99125, 192.0, 0.0, 0.0, 0.0, 0.0, 0.0, 0.0, 0.0, 0.0, 0.0, 1.645921595497256E9, 0.0, 2022-02-27 11:26:35.497
182.0, -1390.1443946533675, -4941.970699068392, -2041.317765869828, -10424.808910466303, -995.4572910615553, 50.3137767688962, -5663.619120552436, -1743.3466605361295, -3517.9410598207787, -6765.224846032244, -4257.895560013719, -2989.8587453196938, -3583.4987263081944, -2732.7242771058413, -9914.29506710709, -15365.773781034206, 0.014750000000000001, -0.10200000000000001, 0.99125, 192.0, 0.0, 0.0, 0.0, 0.0, 0.0, 0.0, 0.0, 0.0, 0.0, 1.645921595504992E9, 0.0, 2022-02-27 11:26:35.504
184.0, -756.0254044563061, -4451.372260018857, -1558.0730507460894, -9885.394261526379, -393.2789436911278, 500.008523465219, -5283.930037490134, -1256.39155583281, -1454.025680306635, -5739.123313322462, -4033.484045682436, -2754.025489571749, -3441.319279827986, -2452.2545876806485, -9448.887044058687, -14195.592903565515, 0.014375, -0.10200000000000001, 0.989625, 192.0, 0.0, 56.0, 126.0, 104.0, 15.0, 112.0, 0.0, 0.0, 0.0, 1.645921595512912E9, 0.0, 2022-02-27 11:26:35.512
186.0, -1045.3910881747113, -4686.803184366606, -1838.7662576158355, -10190.83084950815, -692.8817263700637, 225.41734283177172, -5661.495704829181, -1710.24372699782, -4210.621620490744, -6649.040478353558, -3997.4306818760256, -2921.8423869421945, -3285.5499727189513, -2500.4225969818353, -9881.4827062467, -15398.317920961133, 0.014375, -0.10200000000000001, 0.989625, 192.0, 0.0, 0.0, 0.0, 0.0, 0.0, 0.0, 0.0, 0.0, 0.0, 1.645921595519996E9, 0.0, 2022-02-27 11:26:35.519
188.0, -1176.4393659161767, -4762.687356792374, -1853.7642781453465, -10207.281733427255, -781.3052274352584, 227.36194459938343, -5504.497051775104, -1465.156849045378, -1736.2164540548868, -6144.896882164107, -4268.333824674347, -2871.6180171511196, -3665.887256370456, -2679.7953462356745, -9616.189851306659, -14566.318937101238, 0.014375, -0.10200000000000001, 0.989625, 192.0, 0.0, 0.0, 0.0, 0.0, 0.0, 0.0, 0.0, 0.0, 0.0, 1.645921595527603E9, 0.0, 2022-02-27 11:26:35.527
190.0, -627.2570046492821, -4363.909883965241, -1506.6640384988832, -9831.079522499982, -285.1635557608075, 541.135733262984, -5333.10387529181, -1366.7644699531163, -2799.243068604835, -6029.517177285812, -3890.745805590845, -2782.8815916635504, -3239.3712686742865, -2340.138237492828, -9599.716615643098, -14643.208938027496, 0.014375, -0.10200000000000001, 0.989625, 192.0, 0.0, 0.0, 0.0, 0.0, 0.0, 0.0, 0.0, 0.0, 0.0, 1.645921595542587E9, 0.0, 2022-02-27 11:26:35.542
192.0, -1405.2765256496104, -4957.12518180909, -2045.4528385940598, -10430.0615704133, -995.6808085061084, 21.23415723254171, -5670.525809589125, -1733.7354104203475, -3555.4249352723286, -6781.496915995707, -4268.400879907713, -3009.7741496293725, -3596.373331114451, -2750.8738936035506, -9898.425328543823, -15358.576519319597, 0.014375, -0.10200000000000001, 0.989625, 192.0, 0.0, 0.0, 0.0, 0.0, 0.0, 0.0, 0.0, 0.0, 0.0, 1.645921595549861E9, 0.0, 2022-02-27 11:26:35.549
194.0, -762.5521138372558, -4458.636576966832, -1551.054602987123, -9883.293197547579, -392.3401704240049, 481.85890696750965, -5298.615133597271, -1271.7025007846953, -1465.8721048679479, -5755.305976308105, -4032.746438115411, -2750.292748247713, -3435.418419291785, -2452.1204772139167, -9445.020192267919, -14189.915560473868, 0.0121875, -0.10300000000000001, 0.9888125, 192.0, 0.0, 40.0, 126.0, 96.0, 15.0, 112.0, 0.0, 0.0, 0.0, 1.64592159555715E9, 0.0, 2022-02-27 11:26:35.557
196.0, -1073.755451888496, -4721.560146994609, -1839.8391413496902, -10204.01837873678, -686.3103135002034, 203.24441233210712, -5624.190643333273, -1705.4828054288396, -4222.557452029879, -6661.244530826156, -4001.1187197111512, -2924.546948021287, -3277.45864122613, -2504.8929458728967, -9871.782049153097, -15390.293644701678, 0.0121875, -0.10300000000000001, 0.9888125, 192.0, 0.0, 0.0, 0.0, 0.0, 0.0, 0.0, 0.0, 0.0, 0.0, 1.645921595565284E9, 0.0, 2022-02-27 11:26:35.565
198.0, -1184.7095113646403, -4786.223743703812, -1836.1511035145645, -10204.666579325984, -756.5841980676888, 214.77791247104557, -5464.643891411292, -1465.6262356789393, -1729.0191923402779, -6166.332205096746, -4281.744871347531, -2877.697691642963, -3665.2390557812523, -2688.132546917504, -9597.637903408755, -14551.566785760735, 0.0121875, -0.10300000000000001, 0.9888125, 192.0, 0.0, 0.0, 0.0, 0.0, 0.0, 0.0, 0.0, 0.0, 0.0, 1.645921595573194E9, 0.0, 2022-02-27 11:26:35.573
200.0, -642.6126530900781, -4377.611503316343, -1503.8477186975144, -9832.979420778684, -277.4969074126372, 521.0191632532076, -5360.708279694114, -1374.1852491122781, -2849.892121540561, -6034.903947699541, -3903.553355163736, -2800.762987227796, -3233.492759882541, -2364.881618604853, -9602.421176722191, -14668.824037173277, 0.0121875, -0.10300000000000001, 0.9888125, 192.0, 0.0, 0.0, 0.0, 0.0, 0.0, 0.0, 0.0, 0.0, 0.0, 1.64592159557997E9, 0.0, 2022-02-27 11:26:35.579
202.0, -1414.0384094760907, -4969.262179048322, -2045.1846176605961, -10420.96441041999, -975.8995146631617, 25.212767745586365, -5677.901885259376, -1740.5079889903056, -3611.3937033884176, -6795.377349302453, -4272.7594700764985, -3013.4174839755874, -3576.0108919156664, -2743.900149333495, -9903.700340235275, -15373.574539849109, 0.0121875, -0.10300000000000001, 0.9888125, 192.0, 0.0, 0.0, 0.0, 0.0, 0.0, 0.0, 0.0, 0.0, 0.0, 1.645921595587812E9, 0.0, 2022-02-27 11:26:35.587
204.0, -788.4801374054119, -4484.586952279443, -1566.477306661285, -9889.037595872593, -388.13804246640717, 484.98815119125265, -5312.987305282033, -1261.1077739128798, -1450.7623256161603, -5781.636331276457, -4056.483990726947, -2755.992443083816, -3442.4592187952067, -2459.3177389285256, -9454.027945283407, -14183.724127259748, 0.013093750000000001, -0.1015, 0.99140625, 192.0, 0.0, 56.0, 126.0, 112.0, 15.5, 8.0, 0.0, 0.0, 0.0, 1.645921595594757E9, 0.0, 2022-02-27 11:26:35.594
206.0, -1078.7622426464848, -4726.544586008142, -1834.0947430246763, -10191.859029753094, -678.3977959630247, 218.48830205062654, -5635.791198705578, -1687.2884854422196, -4196.182393572616, -6624.900594341826, -3998.45886212097, -2923.407009054066, -3266.752155632038, -2487.525640431123, -9873.90546487635, -15363.583310077585, 0.013093750000000001, -0.1015, 0.99140625, 192.0, 0.0, 0.0, 0.0, 0.0, 0.0, 0.0, 0.0, 0.0, 0.0, 1.645921595602028E9, 0.0, 2022-02-27 11:26:35.602
208.0, -1236.1855788452124, -4843.265395553755, -1851.3726414886287, -10211.439157895942, -765.413137127535, 204.89844142179984, -5462.6992896436805, -1460.7312036432272, -1760.401041555529, -6198.630475834665, -4288.606856895311, -2879.642293410575, -3670.5811227060703, -2682.7681282482304, -9611.048950081939, -14559.367544575638, 0.013093750000000001, -0.1015, 0.99140625, 192.0, 0.0, 0.0, 0.0, 0.0, 0.0, 0.0, 0.0, 0.0, 0.0, 1.645921595609605E9, 0.0, 2022-02-27 11:26:35.609
210.0, -709.0420376112506, -4451.953405374695, -1509.189785622333, -9831.146577733347, -268.1315264858635, 520.5497766196462, -5354.20392205762, -1352.3252430349878, -2830.759028286818, -6060.4296398675015, -3925.6368786855796, -2800.0030279163157, -3242.031126264468, -2357.9972813126187, -9603.42700522268, -14643.790083383332, 0.013093750000000001, -0.1015, 0.99140625, 192.0, 0.0, 0.0, 0.0, 0.0, 0.0, 0.0, 0.0, 0.0, 0.0, 1.645921595617659E9, 0.0, 2022-02-27 11:26:35.617
212.0, -1523.3831433514529, -5084.306607759787, -2052.605396819758, -10431.782654736358, -962.2202470565137, 15.802683329902093, -5671.755155534167, -1730.852035385613, -3650.2633869961965, -6832.905928242913, -4298.776900622475, -3040.463094766509, -3575.608560515471, -2740.860312087573, -9908.751834482175, -15376.860246284039, 0.013093750000000001, -0.1015, 0.99140625, 192.0, 0.0, 0.0, 0.0, 0.0, 0.0, 0.0, 0.0, 0.0, 0.0, 1.64592159562543E9, 0.0, 2022-02-27 11:26:35.625
214.0, -949.7479736504524, -4650.839227538017, -1570.0759375185894, -9905.644942002886, -376.626894071924, 468.09023238304053, -5304.04660749991, -1264.840515236916, -1510.1732623783664, -5809.240735678761, -4094.549011534335, -2792.2469725903243, -3449.2765008540755, -2452.9027882698524, -9452.485674915992, -14188.507400573184, 0.012546875, -0.10475000000000001, 0.992703125, 192.0, 0.0, 48.0, 126.0, 80.0, 15.5, 8.0, 0.0, 0.0, 0.0, 1.645921595632153E9, 0.0, 2022-02-27 11:26:35.632
216.0, -1260.0572419234804, -4921.340038936143, -1826.6963156099696, -10195.658826310495, -647.3065194256925, 222.7798369860455, -5610.712541426724, -1671.8657817680578, -4260.622472837266, -6707.04325521508, -4052.706545914, -2972.49143987792, -3274.5976179358504, -2487.570343920034, -9872.318491020023, -15363.80682752214, 0.012546875, -0.10475000000000001, 0.992703125, 192.0, 0.0, 0.0, 0.0, 0.0, 0.0, 0.0, 0.0, 0.0, 0.0, 1.645921595640166E9, 0.0, 2022-02-27 11:26:35.640
218.0, -1464.0169100781573, -5070.113250030667, -1865.811868406757, -10240.496425687841, -754.7290032778983, 204.0714268769535, -5463.6380629108035, -1459.546561187096, -1878.3735487906397, -6278.560314006843, -4355.1703518832155, -2954.788858269317, -3671.2293232952743, -2689.160727162448, -9619.050874596938, -14580.221722152439, 0.012546875, -0.10475000000000001, 0.992703125, 192.0, 0.0, 0.0, 0.0, 0.0, 0.0, 0.0, 0.0, 0.0, 0.0, 1.64592159564804E9, 0.0, 2022-02-27 11:26:35.648
220.0, -921.3165547033018, -4656.561274118576, -1510.6202972674726, -9840.936641804772, -251.50182861111506, 541.5827681520901, -5335.137884037243, -1332.8792253588708, -2847.99222326186, -6085.195372723982, -3985.0925189366963, -2861.09034551267, -3249.9883472905576, -2348.520141663568, -9592.876981839774, -14609.681321344535, 0.012546875, -0.10475000000000001, 0.992703125, 192.0, 0.0, 0.0, 0.0, 0.0, 0.0, 0.0, 0.0, 0.0, 0.0, 1.645921595655231E9, 0.0, 2022-02-27 11:26:35.655
222.0, -1685.3215319301526, -5248.055487639366, -2052.493638097482, -10444.947832220536, -952.1619620516256, 35.85219810631253, -5664.535542075103, -1727.2310527838533, -3782.6751211494357, -6873.899027573947, -4340.082924375883, -3075.5329818168857, -3570.624121501937, -2710.998381495283, -9912.283410106113, -15386.158571977447, 0.012546875, -0.10475000000000001, 0.992703125, 192.0, 0.0, 0.0, 0.0, 0.0, 0.0, 0.0, 0.0, 0.0, 0.0, 1.645921595669685E9, 0.0, 2022-02-27 11:26:35.669
224.0, -1066.8487628518062, -4762.888522492472, -1583.5316876806842, -9922.475805577733, -385.54524010959153, 464.4692497812808, -5297.765767307969, -1262.1806576467345, -1513.4366170688413, -5849.563282676135, -4138.559596366835, -2848.126333728592, -3461.994643449145, -2474.7627943471425, -9452.01628828243, -14184.171162148854, 0.01, -0.112, 0.99, 192.0, 0.0, 40.0, 126.0, 64.0, 15.0, 120.0, 0.0, 0.0, 0.0, 1.645921595677797E9, 0.0, 2022-02-27 11:26:35.677
226.0, -1280.2855706555333, -4929.6548878735175, -1814.492263137372, -10175.609311534085, -627.324059882648, 240.1918459167297, -5596.362721486416, -1659.9075984844685, -4246.786743019431, -6695.84503124297, -4064.3071012863043, -2981.7227103379623, -3272.340091745865, -2470.985349534196, -9859.935624591782, -15338.728170243285, 0.01, -0.112, 0.99, 192.0, 0.0, 0.0, 0.0, 0.0, 0.0, 0.0, 0.0, 0.0, 0.0, 1.645921595684898E9, 0.0, 2022-02-27 11:26:35.684
228.0, -1455.8138198630595, -5048.8120375647595, -1879.5805429912261, -10248.69951590294, -778.4889076338897, 183.73133942262405, -5482.882914886823, -1484.5805149770397, -1958.5269044073707, -6296.732282249008, -4369.7883927569865, -2951.1678756675574, -3679.5441722326486, -2692.044102197183, -9629.444435768657, -14615.269257458362, 0.01, -0.112, 0.99, 192.0, 0.0, 0.0, 0.0, 0.0, 0.0, 0.0, 0.0, 0.0, 0.0, 1.645921595692399E9, 0.0, 2022-02-27 11:26:35.692
230.0, -836.8716641511518, -4592.523526254121, -1497.924506416858, -9838.053266770037, -246.76325878658997, 536.8889018164756, -5339.1388462947425, -1336.5896149384516, -2756.551236695199, -6056.67454679901, -3970.4297745740146, -2846.7852290612736, -3245.316832699398, -2355.2256650001605, -9579.443583422135, -14586.189637922007, 0.01, -0.112, 0.99, 192.0, 0.0, 0.0, 0.0, 0.0, 0.0, 0.0, 0.0, 0.0, 0.0, 1.645921595700355E9, 0.0, 2022-02-27 11:26:35.700
232.0, -1584.5822196700835, -5165.912826766113, -2038.3002803683617, -10440.902166474125, -951.826685884796, 19.535424653938374, -5663.954396719265, -1729.7344481628477, -3700.1971841093523, -6857.626957610483, -4313.9090316187185, -3050.633138493674, -3556.9895573842, -2720.5649281221545, -9900.660502989353, -15375.921473016915, 0.01, -0.112, 0.99, 192.0, 0.0, 0.0, 0.0, 0.0, 0.0, 0.0, 0.0, 0.0, 0.0, 1.645921595708362E9, 0.0, 2022-02-27 11:26:35.708
234.0, -974.7819274403963, -4675.4932016722205, -1573.3839956979748, -9922.878136977928, -382.7065685637675, 462.0776131245629, -5306.818223812369, -1266.069861181958, -1478.8137649075707, -5829.290250455171, -4112.430407098581, -2815.872766479584, -3449.3435560874414, -2452.38869814738, -9441.376857921703, -14182.85240922599, 0.012, -0.112, 0.992, 192.0, 0.0, 48.0, 126.0, 64.0, 15.5, 0.0, 0.0, 0.0, 0.0, 1.645921595714918E9, 0.0, 2022-02-27 11:26:35.714
236.0, -1175.4335374156879, -4834.5035117272755, -1799.3601321411293, -10178.000948190804, -626.3629348710698, 243.16462792928553, -5607.516241969614, -1664.3555956310745, -4199.579858729823, -6644.704239929229, -4035.0486677943077, -2956.4205356145544, -3263.332338730376, -2466.112669242939, -9854.124171033403, -15334.682504496874, 0.012, -0.112, 0.992, 192.0, 0.0, 0.0, 0.0, 0.0, 0.0, 0.0, 0.0, 0.0, 0.0, 1.645921595722049E9, 0.0, 2022-02-27 11:26:35.722
238.0, -1341.350536507432, -4938.036792044258, -1850.4115164770506, -10230.192271493945, -755.1313346780938, 208.94410716821042, -5475.126859560831, -1487.1509655894001, -1864.426060250528, -6245.5020839574445, -4321.553328222433, -2909.8171484252393, -3659.0252708226767, -2664.5067530282445, -9617.419197251702, -14595.957350248975, 0.012, -0.112, 0.992, 192.0, 0.0, 0.0, 0.0, 0.0, 0.0, 0.0, 0.0, 0.0, 0.0, 1.645921595730074E9, 0.0, 2022-02-27 11:26:35.730
240.0, -746.123581662605, -4489.5937430374315, -1480.2442765527103, -9820.305981672524, -246.33857564193914, 542.3427274635706, -5342.715125407592, -1360.9530163947363, -2731.4055241829783, -6028.28783134077, -3940.7690096818224, -2802.774644228774, -3239.0806959963675, -2332.695106589211, -9581.097612511827, -14595.443260126503, 0.012, -0.112, 0.992, 192.0, 0.0, 0.0, 0.0, 0.0, 0.0, 0.0, 0.0, 0.0, 0.0, 1.645921595737147E9, 0.0, 2022-02-27 11:26:35.737
242.0, -1504.540622775629, -5067.609854651672, -2027.6832017520908, -10419.511547030395, -951.6255201846982, 31.314793981885195, -5688.898943531388, -1738.7645529227916, -3718.5479663071596, -6823.965230460791, -4275.240513711037, -3015.697361910029, -3544.561987467049, -2706.125701204026, -9902.895677434883, -15392.014729024737, 0.012, -0.112, 0.992, 192.0, 0.0, 0.0, 0.0, 0.0, 0.0, 0.0, 0.0, 0.0, 0.0, 1.645921595744589E9, 0.0, 2022-02-27 11:26:35.744
244.0, -907.3020109298243, -4591.4953460091765, -1574.9709695543015, -9917.87134621994, -411.92029856685383, 455.9308833993535, -5342.335145751852, -1290.522669616064, -1450.4270494493305, -5785.458479578314, -4093.8784592006755, -2777.472469505366, -3464.810963250514, -2450.757020802143, -9452.619785382723, -14189.33441511803, 0.01, -0.108, 0.992, 192.0, 0.0, 40.0, 126.0, 80.0, 15.5, 0.0, 0.0, 0.0, 0.0, 1.645921595752615E9, 0.0, 2022-02-27 11:26:35.752
246.0, -1080.7068444140964, -4742.257862360223, -1772.7615562393137, -10142.640488462506, -612.1695771419498, 255.56984610198094, -5611.181928060285, -1651.9280257139237, -4118.107750190228, -6593.317579426477, -3994.949638241487, -2904.676247200519, -3254.771620603993, -2442.017488720118, -9852.246624499157, -15313.761271686706, 0.01, -0.108, 0.992, 192.0, 0.0, 0.0, 0.0, 0.0, 0.0, 0.0, 0.0, 0.0, 0.0, 1.645921595760645E9, 0.0, 2022-02-27 11:26:35.760
248.0, -1301.7655970770834, -4896.5519543352075, -1865.8565718956677, -10251.180559537479, -789.4189106725348, 165.4923159470935, -5468.935426346711, -1522.8467014845255, -1940.5337501208485, -6271.877142414706, -4308.835185627364, -2893.7909476507843, -3666.960140104311, -2669.647654252965, -9628.326848545892, -14646.427589229059, 0.01, -0.108, 0.992, 192.0, 0.0, 0.0, 0.0, 0.0, 0.0, 0.0, 0.0, 0.0, 0.0, 1.645921595767242E9, 0.0, 2022-02-27 11:26:35.767
250.0, -697.8214618946865, -4433.423809221245, -1483.8205556655594, -9827.570298620498, -263.81763980598924, 520.2815556861825, -5357.199055814631, -1376.4651270467195, -2630.0850665670714, -5984.344301741637, -3927.3132595197276, -2785.228524831358, -3250.4130304352084, -2343.759220094588, -9570.301719939915, -14581.518123330847, 0.01, -0.108, 0.992, 192.0, 0.0, 0.0, 0.0, 0.0, 0.0, 0.0, 0.0, 0.0, 0.0, 1.645921595775377E9, 0.0, 2022-02-27 11:26:35.775
252.0, -1432.0092120181575, -4991.278647336799, -2011.8805184221887, -10403.954732889502, -949.3679939947122, 53.59948320382634, -5687.311969675061, -1738.6304424560599, -3726.1028559330534, -6795.667921980372, -4243.433981351135, -2986.5506871403086, -3531.7767896386135, -2670.38526181999, -9905.667293747341, -15392.61822612503, 0.01, -0.108, 0.992, 192.0, 0.0, 0.0, 0.0, 0.0, 0.0, 0.0, 0.0, 0.0, 0.0, 1.645921595790305E9, 0.0, 2022-02-27 11:26:35.790
254.0, -877.6412460376318, -4556.80543861454, -1587.9349813383797, -9939.105503452482, -435.2555197781944, 442.34102277052676, -5360.596520971838, -1330.4428852132423, -1447.2978052255876, -5793.996845960241, -4081.4955927724354, -2770.3422630241234, -3468.387242363363, -2440.631680563889, -9462.856884343253, -14212.401415395907, 0.012, -0.10200000000000001, 0.99, 192.0, 0.0, 48.0, 126.0, 104.0, 15.0, 120.0, 0.0, 0.0, 0.0, 1.6459215957974E9, 0.0, 2022-02-27 11:26:35.797
0.0, -1036.8750735372394, -4691.87703035796, -1768.850000959635, -10137.790159915705, -605.6205160165449, 258.65438683681333, -5534.627203300858, -1627.27405157972, -4048.102086556207, -6560.996956944104, -3985.070167192241, -2911.180604837013, -3262.840600352359, -2441.3469363864588, -9839.349667948445, -15283.966396327782, 0.012, -0.10200000000000001, 0.99, 192.0, 0.0, 0.0, 0.0, 0.0, 0.0, 0.0, 0.0, 0.0, 0.0, 1.645921595804958E9, 0.0, 2022-02-27 11:26:35.804
2.0, -1281.2019921782007, -4875.228390124845, -1879.5805429912261, -10250.845283370649, -811.1001027941827, 159.12206877733098, -5487.375615522339, -1528.859320743003, -1994.7814339138788, -6276.794526194874, -4301.682627401666, -2894.059168584248, -3669.016500594199, -2684.869192227029, -9630.562022991422, -14666.27593830537, 0.012, -0.10200000000000001, 0.99, 192.0, 0.0, 0.0, 0.0, 0.0, 0.0, 0.0, 0.0, 0.0, 0.0, 1.645921595812918E9, 0.0, 2022-02-27 11:26:35.812
4.0, -669.5018016698125, -4406.914640297251, -1495.4658145267742, -9823.837557296463, -284.3588929604164, 514.4030468944368, -5349.554759210916, -1382.6565602608396, -2589.2707811916807, -5988.032339576762, -3931.068352588219, -2782.1216323520703, -3281.7054726726383, -2359.9642348246857, -9581.410536934201, -14571.728059259423, 0.012, -0.10200000000000001, 0.99, 192.0, 0.0, 0.0, 0.0, 0.0, 0.0, 0.0, 0.0, 0.0, 0.0, 1.645921595820077E9, 0.0, 2022-02-27 11:26:35.820
6.0, -1376.7556997246386, -4952.274853262288, -2008.1477770981523, -10390.543686216317, -933.4312001980783, 41.44013422013929, -5665.496667086682, -1738.8986633895236, -3768.951150053877, -6782.748613685205, -4216.924812427141, -2971.8432392887166, -3521.115007533432, -2673.872133955018, -9905.220258858235, -15403.257656485755, 0.012, -0.10200000000000001, 0.99, 192.0, 0.0, 0.0, 0.0, 0.0, 0.0, 0.0, 0.0, 0.0, 0.0, 1.645921595827631E9, 0.0, 2022-02-27 11:26:35.827
8.0, -866.1077458986933, -4546.635394887376, -1608.923269381913, -9949.387305901922, -459.90949391239815, 424.0349440616303, -5340.39054398424, -1322.776236865072, -1433.484427152208, -5811.766482802211, -4081.383834050159, -2759.6357774300313, -3484.636960582371, -2475.165125747338, -9467.438991956591, -14228.29350570363, 0.014, -0.096, 0.99, 192.0, 0.0, 56.0, 126.5, 0.0, 15.0, 120.0, 0.0, 0.0, 0.0, 1.64592159583555E9, 0.0, 2022-02-27 11:26:35.835
10.0, -964.7012906910528, -4631.0579336950705, -1741.3126517906967, -10103.971970554825, -585.8839256625088, 280.82731733647796, -5571.775802585578, -1645.1330953995105, -3989.4958125943917, -6519.534470979509, -3970.943864696487, -2877.6529881540523, -3266.327472487387, -2442.755096287143, -9833.068827756504, -15258.485407648732, 0.014, -0.096, 0.99, 192.0, 0.0, 0.0, 0.0, 0.0, 0.0, 0.0, 0.0, 0.0, 0.0, 1.645921595842618E9, 0.0, 2022-02-27 11:26:35.842
12.0, -1238.3313463129218, -4830.502549469776, -1878.3511970461843, -10254.309803761222, -807.4344167035123, 159.23382749960751, -5523.004296184099, -1552.440411143352, -2047.8221235063224, -6280.639026241187, -4271.08308924235, -2874.791964863773, -3637.8134653345905, -2676.0849566560933, -9647.90697668874, -14708.990121959463, 0.014, -0.096, 0.99, 192.0, 0.0, 0.0, 0.0, 0.0, 0.0, 0.0, 0.0, 0.0, 0.0, 1.645921595849952E9, 0.0, 2022-02-27 11:26:35.849
14.0, -649.0499554932065, -4386.462794120645, -1498.7291692172491, -9835.348705690945, -288.0022273066315, 517.1299597179842, -5335.450808459617, -1371.771260711105, -2523.757818193176, -5962.528999153256, -3924.362829251627, -2776.3325305381454, -3272.36244349032, -2365.2839500050486, -9577.968368288084, -14556.908852685554, 0.014, -0.096, 0.99, 192.0, 0.0, 0.0, 0.0, 0.0, 0.0, 0.0, 0.0, 0.0, 0.0, 1.645921595857333E9, 0.0, 2022-02-27 11:26:35.857
16.0, -1346.0891063319573, -4918.166091223489, -2002.2692683064067, -10385.045157080312, -931.1513222636369, 49.46441047959453, -5662.92621647432, -1755.6401199865486, -3723.2641843872293, -6765.62717743244, -4201.613867475256, -2959.9968147274035, -3502.9430392912677, -2661.3328053155906, -9897.643017487886, -15381.621167853018, 0.014, -0.096, 0.99, 192.0, 0.0, 0.0, 0.0, 0.0, 0.0, 0.0, 0.0, 0.0, 0.0, 1.645921595865258E9, 0.0, 2022-02-27 11:26:35.865
18.0, -855.7141847269755, -4533.246699958647, -1619.2050718313542, -9957.21041646128, -471.51004928470246, 412.72496136724493, -5343.29627076343, -1334.64501317084, -1446.1131627694563, -5805.887974010465, -4076.667615970089, -2758.6299489295425, -3474.7574895331254, -2463.6539773528552, -9474.233922271005, -14236.831872085557, 0.014, -0.1, 0.986, 192.0, 0.0, 56.0, 126.0, 112.0, 15.0, 104.0, 0.0, 0.0, 0.0, 1.645921595872271E9, 0.0, 2022-02-27 11:26:35.872
20.0, -946.2163980265138, -4607.454491550266, -1745.9618146374005, -10102.899086820971, -585.9286291514194, 289.2315732516734, -5561.516351880593, -1640.9756709308233, -3960.170323869029, -6534.353677553378, -3963.16545762604, -2877.2730084983123, -3253.9222543146916, -2437.2118636622267, -9833.717028345709, -15245.521395864655, 0.014, -0.1, 0.986, 192.0, 0.0, 0.0, 0.0, 0.0, 0.0, 0.0, 0.0, 0.0, 0.0, 1.645921595879895E9, 0.0, 2022-02-27 11:26:35.879
22.0, -1232.9445758991928, -4818.164386530446, -1884.1850023490194, -10255.337984006166, -817.8056261307748, 168.9568363376661, -5508.699179732702, -1531.027439955168, -2041.9436147145766, -6276.056918627849, -4266.500981629012, -2871.416851451022, -3639.981584546755, -2658.1141541140264, -9651.81853196842, -14700.787031744365, 0.014, -0.1, 0.986, 192.0, 0.0, 0.0, 0.0, 0.0, 0.0, 0.0, 0.0, 0.0, 0.0, 1.645921595887857E9, 0.0, 2022-02-27 11:26:35.887
24.0, -649.8322665491422, -4375.19751491517, -1506.5522797766066, -9830.85600505543, -288.113986028908, 525.7577330777327, -5340.949337595623, -1351.9899668681583, -2526.1718065943487, -5974.643644648033, -3925.927451363498, -2776.2431235603244, -3268.1826672771776, -2357.9078743347973, -9580.494115411535, -14552.59496600568, 0.014, -0.1, 0.986, 192.0, 0.0, 0.0, 0.0, 0.0, 0.0, 0.0, 0.0, 0.0, 0.0, 1.645921595895869E9, 0.0, 2022-02-27 11:26:35.895
26.0, -1354.3816035248763, -4911.192346953434, -2009.578288743292, -10383.391127990619, -924.5128541604107, 58.8744948952788, -5665.831943253511, -1746.6323669710598, -3785.290275250706, -6788.537715499129, -4202.373826786737, -2967.0823177197362, -3491.566001363516, -2656.57188374661, -9904.19207861329, -15397.692072116384, 0.014, -0.1, 0.986, 192.0, 0.0, 0.0, 0.0, 0.0, 0.0, 0.0, 0.0, 0.0, 0.0, 1.645921595902032E9, 0.0, 2022-02-27 11:26:35.902
28.0, -878.311798371291, -4547.149485009848, -1636.4829702953066, -9968.654509622396, -476.9862266762527, 415.0048393016862, -5344.659727175203, -1322.0833327869575, -1467.056747324079, -5831.525424900702, -4093.4090725671144, -2767.7718124117628, -3477.797326779047, -2469.4207274223245, -9475.575026938322, -14240.877537831968, 0.012, -0.10400000000000001, 0.994, 192.0, 0.0, 48.0, 126.0, 96.0, 15.5, 8.0, 0.0, 0.0, 0.0, 1.645921595917486E9, 0.0, 2022-02-27 11:26:35.917
30.0, -942.3495462357457, -4603.632343248409, -1748.2863960607526, -10100.641560630986, -571.3999952554698, 302.1508815468409, -5547.077124962464, -1614.3994467734633, -3949.4414865304816, -6520.540299479998, -3965.1547628825624, -2886.3031132582564, -3242.6122716203063, -2433.143846171361, -9825.603345108431, -15233.809081770074, 0.012, -0.10400000000000001, 0.994, 192.0, 0.0, 0.0, 0.0, 0.0, 0.0, 0.0, 0.0, 0.0, 0.0, 1.645921595925479E9, 0.0, 2022-02-27 11:26:35.925
32.0, -1271.4789833401423, -4851.557892746674, -1909.1071974166869, -10274.381670282088, -826.1651785570597, 161.91603683424435, -5513.191880368219, -1539.0070127257125, -2106.9424875906097, -6315.373637124734, -4276.2239904670705, -2891.28755227179, -3637.701706612314, -2668.91004668594, -9655.551273292456, -14727.117386712718, 0.012, -0.10400000000000001, 0.994, 192.0, 0.0, 0.0, 0.0, 0.0, 0.0, 0.0, 0.0, 0.0, 0.0, 1.645921595932139E9, 0.0, 2022-02-27 11:26:35.932
34.0, -677.0566912957063, -4399.359750671358, -1523.7631230071931, -9843.060057528026, -299.468672212204, 519.4098376524255, -5343.385677741251, -1349.6206819558959, -2525.613012982966, -5990.535734955756, -3945.9322626509984, -2799.7571587273073, -3286.5558012194397, -2364.3004732490153, -9573.788592074943, -14544.30246881276, 0.012, -0.10400000000000001, 0.994, 192.0, 0.0, 0.0, 0.0, 0.0, 0.0, 0.0, 0.0, 0.0, 0.0, 1.64592159594018E9, 0.0, 2022-02-27 11:26:35.940
36.0, -1363.4117082848202, -4926.570347138685, -2025.0903993952752, -10392.085956583735, -935.3758019656899, 56.974596616577706, -5671.822210767533, -1750.8344949286575, -3811.3524092855946, -6782.815668918571, -4207.157100100172, -2989.3223034527664, -3488.7273298176924, -2660.6399012374764, -9897.978293654716, -15399.033176783703, 0.013000000000000001, -0.10600000000000001, 0.992, 192.0, 0.0, 56.0, 126.0, 80.0, 15.0, 120.0, 0.0, 0.0, 0.0, 1.645921595948289E9, 0.0, 2022-02-27 11:26:35.948
38.0, -892.3710456336792, -4557.990081070671, -1650.4751623243287, -9976.097640526013, -480.7413197447443, 410.31097296607174, -5349.979442355567, -1340.9929085961471, -1477.8749916404477, -5838.946204059864, -4101.701569760033, -2784.4238620309666, -3479.8536872689356, -2477.4450036817793, -9473.272797259426, -14244.431465200361, 0.013000000000000001, -0.10600000000000001, 0.992, 192.0, 0.0, 0.0, 0.0, 0.0, 0.0, 0.0, 0.0, 0.0, 0.0, 1.645921595955403E9, 0.0, 2022-02-27 11:26:35.955
40.0, -966.3776715252009, -4625.358238858967, -1768.1123933926099, -10114.09731079308, -571.2211812998273, 304.36370424791625, -5559.638805346347, -1619.115664853533, -3967.7028617504675, -6525.748255938084, -3974.877771720621, -2909.638334469597, -3245.2050739771216, -2431.333354870481, -9823.94931601874, -15236.15601493788, 0.013000000000000001, -0.10600000000000001, 0.992, 192.0, 0.0, 0.0, 0.0, 0.0, 0.0, 0.0, 0.0, 0.0, 0.0, 1.645921595962787E9, 0.0, 2022-02-27 11:26:35.962
42.0, -1277.49160259862, -4853.793067192205, -1925.848654013712, -10288.440917544474, -835.6646699505651, 153.02004254103215, -5524.054828173498, -1553.669757088394, -2128.42251401216, -6339.915852536661, -4298.8216041113865, -2920.702447974974, -3635.4888839112386, -2682.7234247593196, -9661.519189062023, -14732.638267593178, 0.013000000000000001, -0.10600000000000001, 0.992, 192.0, 0.0, 0.0, 0.0, 0.0, 0.0, 0.0, 0.0, 0.0, 0.0, 1.645921595969771E9, 0.0, 2022-02-27 11:26:35.969
44.0, -673.9721505608738, -4393.34713141288, -1525.573614308073, -9839.461426670721, -294.7077506432236, 524.1931109658613, -5350.784105155958, -1356.3262052924879, -2494.9240678458295, -5974.241313247838, -3939.562015481236, -2796.2702865922793, -3275.871667369803, -2378.627941444867, -9573.922702541675, -14539.07216061022, 0.013000000000000001, -0.10600000000000001, 0.992, 192.0, 0.0, 0.0, 0.0, 0.0, 0.0, 0.0, 0.0, 0.0, 0.0, 1.64592159597791E9, 0.0, 2022-02-27 11:26:35.977
46.0, -1376.062795646524, -4935.399286198532, -2036.0204024339203, -10396.757471174893, -942.2824910023799, 52.101916325320765, -5681.276998672128, -1769.0288149152775, -3863.1861046774516, -6818.131425157956, -4211.269821079948, -2992.965637798982, -3488.190887950765, -2674.609741522043, -9916.932572952815, -15425.47529047433, 0.0165, -0.10600000000000001, 0.99, 192.0, 0.0, 80.0, 126.0, 88.0, 15.0, 112.0, 0.0, 0.0, 0.0, 1.645921595985109E9, 0.0, 2022-02-27 11:26:35.985
48.0, -904.150414961626, -4559.822924116007, -1655.213732148854, -9978.913960327383, -494.55469781812405, 408.2322607317282, -5355.612081958304, -1336.4108009828092, -1442.9392150568028, -5836.554567403146, -4111.9833722094745, -2789.0730248776704, -3489.64375134036, -2496.555745191067, -9479.911265362653, -14241.77160761018, 0.0165, -0.10600000000000001, 0.99, 192.0, 0.0, 0.0, 0.0, 0.0, 0.0, 0.0, 0.0, 0.0, 0.0, 1.645921595992459E9, 0.0, 2022-02-27 11:26:35.992
50.0, -969.1716395821143, -4625.604108047975, -1767.7100619924145, -10104.039025788192, -579.133698837006, 295.3559512324275, -5573.429831675271, -1641.7356302423038, -3979.8845624786095, -6516.248764544579, -3977.7387950109, -2903.737473933396, -3247.26143446701, -2448.454791123246, -9832.130054489382, -15235.329000393034, 0.0165, -0.10600000000000001, 0.99, 192.0, 0.0, 0.0, 0.0, 0.0, 0.0, 0.0, 0.0, 0.0, 0.0, 1.645921596000419E9, 0.0, 2022-02-27 11:26:36.000
52.0, -1277.4468991097092, -4849.680346212429, -1924.8651772576784, -10278.98612963988, -839.2856525523249, 158.27270248802932, -5540.930395237255, -1563.8174490711033, -2120.554699963892, -6338.485340891521, -4297.569906421889, -2909.3254100472227, -3648.497599184227, -2692.155860919459, -9677.29952064747, -14741.131930486195, 0.0165, -0.10600000000000001, 0.99, 192.0, 0.0, 0.0, 0.0, 0.0, 0.0, 0.0, 0.0, 0.0, 0.0, 1.645921596007623E9, 0.0, 2022-02-27 11:26:36.007
54.0, -650.5028188828014, -4369.117840423327, -1515.671791514372, -9829.358438176923, -283.3307127154723, 526.6965063448556, -5353.801590657424, -1381.6507317603507, -2487.324474731025, -5959.042127018229, -3925.68158217449, -2775.639626460031, -3268.495591699552, -2341.300528204504, -9573.922702541675, -14530.802015161755, 0.0165, -0.10600000000000001, 0.99, 192.0, 0.0, 0.0, 0.0, 0.0, 0.0, 0.0, 0.0, 0.0, 0.0, 1.645921596015144E9, 0.0, 2022-02-27 11:26:36.015
56.0, -1377.4039003138425, -4920.267155202288, -2044.0446786933755, -10415.041198139334, -973.1055466062483, 31.761828870991337, -5712.4576821872815, -1784.5632773117159, -3820.1589966009856, -6802.418148805875, -4210.956896657574, -2997.9947803014256, -3506.0052282816446, -2661.422212293412, -9929.717770781252, -15434.348933023088, 0.013250000000000001, -0.10800000000000001, 0.99, 192.0, 0.0, 40.0, 126.0, 72.0, 15.0, 120.0, 0.0, 0.0, 0.0, 1.645921596023E9, 0.0, 2022-02-27 11:26:36.023
58.0, -858.5528562727995, -4509.643257813842, -1635.8124179616473, -9962.865407808473, -484.8316889800655, 420.63747890442363, -5394.25824812153, -1360.036594872069, -1399.3980168578646, -5787.850116235032, -4083.909581173609, -2768.352957767601, -3486.0227687386, -2468.5490093885674, -9484.538076464902, -14222.19147946733, 0.013250000000000001, -0.10800000000000001, 0.99, 192.0, 0.0, 0.0, 0.0, 0.0, 0.0, 0.0, 0.0, 0.0, 0.0, 1.645921596037197E9, 0.0, 2022-02-27 11:26:36.037
60.0, -950.2844155173798, -4589.640151219386, -1771.2863411052635, -10107.861174090049, -598.0432746461958, 292.7407971311566, -5597.748529642646, -1653.9396827149014, -3998.3918068876037, -6514.259459288056, -3950.4696667754256, -2891.399310994066, -3238.790123318449, -2421.2974216100483, -9851.352554720945, -15265.88383506344, 0.013250000000000001, -0.10800000000000001, 0.99, 192.0, 0.0, 0.0, 0.0, 0.0, 0.0, 0.0, 0.0, 0.0, 0.0, 1.645921596044689E9, 0.0, 2022-02-27 11:26:36.044
62.0, -1250.0883638964135, -4816.130377785013, -1916.5056248313936, -10268.190237067967, -833.6753646940429, 166.69931014768008, -5553.581482598959, -1550.406402397919, -2057.7239463000233, -6301.046168928882, -4285.477612671568, -2897.7248546749183, -3657.885331855456, -2681.3376166030907, -9678.037128214495, -14726.402130890148, 0.013250000000000001, -0.10800000000000001, 0.99, 192.0, 0.0, 0.0, 0.0, 0.0, 0.0, 0.0, 0.0, 0.0, 0.0, 1.645921596052683E9, 0.0, 2022-02-27 11:26:36.052
64.0, -620.260908634771, -4339.881758675785, -1500.4502535403078, -9813.712217058208, -277.36279694590536, 536.5759773941013, -5348.638337688249, -1367.390318797865, -2464.369233175425, -5935.215167428872, -3903.3521894636383, -2761.5580274531876, -3251.6647281247056, -2324.827292540943, -9575.710842098099, -14527.762177915834, 0.013250000000000001, -0.10800000000000001, 0.99, 192.0, 0.0, 0.0, 0.0, 0.0, 0.0, 0.0, 0.0, 0.0, 0.0, 1.645921596060734E9, 0.0, 2022-02-27 11:26:36.060
66.0, -1358.226103571189, -4901.603448582107, -2030.4324663200937, -10406.994570135425, -960.9685493670165, 35.136942283742705, -5685.6355888409125, -1791.492318092861, -3850.4456103379266, -6801.501727283207, -4194.617771460745, -2975.151297468102, -3492.54947811955, -2654.515523256722, -9929.2930876366, -15453.236157087822, 0.012625, -0.10800000000000001, 0.992, 192.0, 0.0, 48.0, 126.0, 80.0, 15.5, 8.0, 0.0, 0.0, 0.0, 1.645921596067805E9, 0.0, 2022-02-27 11:26:36.067
68.0, -857.5470277723108, -4512.616039826398, -1630.470351036829, -9955.668146093863, -486.66453202540066, 420.1680922708622, -5350.58293945586, -1325.4584461997088, -1374.9452084237587, -5786.821935990088, -4079.4392322825474, -2759.9710535968607, -3480.6807018137815, -2458.691890083777, -9467.886026845697, -14219.755139321702, 0.012625, -0.10800000000000001, 0.992, 192.0, 0.0, 0.0, 0.0, 0.0, 0.0, 0.0, 0.0, 0.0, 0.0, 1.645921596075344E9, 0.0, 2022-02-27 11:26:36.075
70.0, -921.0706855142935, -4569.300063765057, -1747.6158437270933, -10091.097365748568, -576.9432278803858, 318.6911724437681, -5586.416195203805, -1673.0951277130996, -3971.0332716743083, -6483.771679851017, -3943.585329483191, -2876.602456164653, -3235.4820651390633, -2398.3198283099923, -9836.645106869353, -15245.007305742181, 0.012625, -0.10800000000000001, 0.992, 192.0, 0.0, 0.0, 0.0, 0.0, 0.0, 0.0, 0.0, 0.0, 0.0, 1.645921596083306E9, 0.0, 2022-02-27 11:26:36.083
72.0, -1237.0572968789693, -4800.506508410753, -1902.9828194359327, -10266.044469600258, -835.8434839062076, 155.65754838675838, -5534.828369000956, -1588.0690918051114, -2068.9445220165876, -6297.983979938505, -4268.3561764188025, -2884.6937876574743, -3642.306165970107, -2654.671985467909, -9679.557046837455, -14750.407904435147, 0.012625, -0.10800000000000001, 0.992, 192.0, 0.0, 0.0, 0.0, 0.0, 0.0, 0.0, 0.0, 0.0, 0.0, 1.645921596090528E9, 0.0, 2022-02-27 11:26:36.090
74.0, -641.9868042453295, -4355.975014683606, -1509.5474135336178, -9816.707350815219, -294.2830674985728, 535.9724802938081, -5359.970672127089, -1331.3369549914546, -2435.200206661249, -5918.473710831847, -3914.5951169246578, -2759.0546320741933, -3273.8823621132806, -2330.370525165859, -9569.742926328532, -14509.903134096043, 0.012625, -0.10800000000000001, 0.992, 192.0, 0.0, 0.0, 0.0, 0.0, 0.0, 0.0, 0.0, 0.0, 0.0, 1.645921596097035E9, 0.0, 2022-02-27 11:26:36.097
76.0, -1348.547798222041, -4896.753120035305, -2020.6647539931244, -10386.185096047533, -944.6070724257318, 74.90069566973396, -5729.020324828663, -1788.564239569216, -3871.3668431480937, -6780.714604939772, -4194.327198782826, -2964.377756640644, -3492.1694984638098, -2623.670115908398, -9928.644887047398, -15434.617153956551, 0.013312500000000001, -0.10800000000000001, 0.988, 192.0, 0.0, 56.0, 126.0, 80.0, 15.0, 96.0, 0.0, 0.0, 0.0, 1.645921596104958E9, 0.0, 2022-02-27 11:26:36.104
78.0, -893.4662811119892, -4540.019278528604, -1651.9950809472898, -9972.923692813361, -513.8666050275094, 411.69678112230076, -5403.601277303848, -1355.320376791999, -1411.1326826969007, -5804.591572832057, -4097.320627846793, -2765.380175755045, -3488.4144053953178, -2462.826962808009, -9479.508933962457, -14237.658886630403, 0.013312500000000001, -0.10800000000000001, 0.988, 192.0, 0.0, 0.0, 0.0, 0.0, 0.0, 0.0, 0.0, 0.0, 0.0, 1.645921596112923E9, 0.0, 2022-02-27 11:26:36.112
80.0, -922.0988657592376, -4570.641168432376, -1736.81995115518, -10069.99731898276, -561.8334486285984, 322.5580242345362, -5549.424058130272, -1607.023371103212, -3901.809919096222, -6445.03610670997, -3961.8914081920875, -2874.434336952488, -3247.7755245894823, -2413.697828495244, -9823.994019507649, -15202.829563955018, 0.013312500000000001, -0.10800000000000001, 0.988, 192.0, 0.0, 0.0, 0.0, 0.0, 0.0, 0.0, 0.0, 0.0, 0.0, 1.645921596120338E9, 0.0, 2022-02-27 11:26:36.120
82.0, -1279.615018321874, -4843.891244398505, -1924.8875290021335, -10285.937522165481, -854.9095219265845, 158.831496099412, -5519.919755449267, -1584.0234260587008, -2189.375721141782, -6330.595175098798, -4294.731234876065, -2901.926982632516, -3655.046660309632, -2679.013035179739, -9680.071136959927, -14768.5351691884, 0.013312500000000001, -0.10800000000000001, 0.988, 192.0, 0.0, 0.0, 0.0, 0.0, 0.0, 0.0, 0.0, 0.0, 0.0, 1.6459215961283E9, 0.0, 2022-02-27 11:26:36.128
84.0, -652.4697723948684, -4360.691232763676, -1511.5590705345953, -9828.911403287817, -297.61347742241355, 545.2037507538498, -5351.454657489617, -1364.0599088740241, -2392.3519125404255, -5937.584452341134, -3940.031402114797, -2783.1498125970143, -3288.1204233313115, -2322.9497460066973, -9567.887731538742, -14498.883724079576, 0.013312500000000001, -0.10800000000000001, 0.988, 192.0, 0.0, 0.0, 0.0, 0.0, 0.0, 0.0, 0.0, 0.0, 0.0, 1.64592159613499E9, 0.0, 2022-02-27 11:26:36.134
86.0, -1340.5235219625858, -4891.366349621577, -2013.44514053406, -10385.894523369614, -941.343717735257, 70.65386422322563, -5700.566554137058, -1798.622524574104, -3890.4775846573816, -6794.527983013151, -4187.6887306796, -2977.8111550582835, -3479.9207425023014, -2626.3076217541247, -9922.587564300009, -15432.650200444485, 0.01265625, -0.11000000000000001, 0.985, 192.0, 0.0, 48.0, 126.0, 64.0, 15.0, 88.0, 0.0, 0.0, 0.0, 1.645921596143133E9, 0.0, 2022-02-27 11:26:36.143
88.0, -908.9113365306064, -4560.0911450494705, -1660.8016682626808, -9989.709852899296, -524.3495731770483, 386.7075308212675, -5365.558608240915, -1342.7363446636612, -1413.479615864708, -5823.791721319166, -4109.569383808302, -2778.4559462613997, -3509.447396927762, -2475.7015676142655, -9486.192105554594, -14246.979564068266, 0.01265625, -0.11000000000000001, 0.985, 192.0, 0.0, 0.0, 0.0, 0.0, 0.0, 0.0, 0.0, 0.0, 0.0, 1.645921596150104E9, 0.0, 2022-02-27 11:26:36.150
90.0, -923.5517291488326, -4575.357386512445, -1736.976413366367, -10076.792249297172, -565.6332451860005, 321.03810561157536, -5535.968307968176, -1615.472330507318, -3906.01204705382, -6470.092412244369, -3966.898198950076, -2888.9629708484376, -3253.721088614594, -2409.495700537646, -9814.963914747705, -15193.687700472798, 0.01265625, -0.11000000000000001, 0.985, 192.0, 0.0, 0.0, 0.0, 0.0, 0.0, 0.0, 0.0, 0.0, 0.0, 1.645921596164851E9, 0.0, 2022-02-27 11:26:36.164
92.0, -1273.937675230226, -4838.929157129426, -1922.6747063010582, -10282.718870963916, -854.4848387819337, 152.34949020737295, -5528.435770086739, -1573.473402675796, -2191.1415089537513, -6337.63597460222, -4293.635999397755, -2900.183546565002, -3656.9018550994224, -2670.00528216425, -9684.5861893399, -14776.894721614686, 0.01265625, -0.11000000000000001, 0.985, 192.0, 0.0, 0.0, 0.0, 0.0, 0.0, 0.0, 0.0, 0.0, 0.0, 1.645921596172631E9, 0.0, 2022-02-27 11:26:36.172
94.0, -647.8206095481646, -4366.390927599779, -1503.7583117196932, -9819.478967127678, -288.3375034734611, 545.5166751762242, -5334.109703792299, -1336.1425800493455, -2369.307264007004, -5919.680705032433, -3930.8895386325767, -2772.935065380939, -3278.0844900708785, -2342.1945979827165, -9558.70116456761, -14477.604863358125, 0.01265625, -0.11000000000000001, 0.985, 192.0, 0.0, 0.0, 0.0, 0.0, 0.0, 0.0, 0.0, 0.0, 0.0, 1.645921596180678E9, 0.0, 2022-02-27 11:26:36.180
96.0, -1355.02980411408, -4908.800710296716, -2018.4742830365044, -10394.857572896191, -939.7343921344749, 72.21848633509713, -5676.806649781067, -1777.7683469973026, -3927.0450385862637, -6809.816576220582, -4192.092024337295, -2989.8140418307835, -3472.4329081097735, -2632.90138636844, -9925.537994568109, -15442.574374982642, 0.010328125, -0.11100000000000002, 0.9864999999999999, 192.0, 0.0, 32.0, 126.0, 64.0, 15.0, 112.0, 0.0, 0.0, 0.0, 1.645921596187274E9, 0.0, 2022-02-27 11:26:36.187
98.0, -908.3972464081344, -4558.124191537403, -1652.1738949029323, -9994.940161101838, -511.653782326434, 409.05927527657457, -5350.58293945586, -1352.1240773348902, -1389.518545808619, -5808.346665900549, -4117.995991467952, -2789.9223911669724, -3500.9090305458344, -2464.078660497506, -9480.805335140865, -14233.769683095179, 0.010328125, -0.11100000000000002, 0.9864999999999999, 192.0, 0.0, 0.0, 0.0, 0.0, 0.0, 0.0, 0.0, 0.0, 0.0, 1.645921596195389E9, 0.0, 2022-02-27 11:26:36.195
100.0, -930.0113832964163, -4583.113441838436, -1735.8364743991465, -10078.356871409043, -549.5399891781794, 320.4122567668267, -5546.76420054009, -1630.827978948114, -3896.624314382591, -6469.488915144077, -3947.9215679075205, -2895.4673284849323, -3224.9320417561585, -2397.0010753871293, -9816.886164770862, -15192.659520227853, 0.010328125, -0.11100000000000002, 0.9864999999999999, 192.0, 0.0, 0.0, 0.0, 0.0, 0.0, 0.0, 0.0, 0.0, 0.0, 1.645921596203383E9, 0.0, 2022-02-27 11:26:36.203
102.0, -1289.5391928600304, -4846.081715355124, -1927.5026831034045, -10285.401080298554, -856.3400335717242, 150.89662681777799, -5531.43090384375, -1573.763975353715, -2179.898581492732, -6343.514483393966, -4303.336656491359, -2908.610154224653, -3654.644328909437, -2671.614607765032, -9694.286846433502, -14774.324271002326, 0.010328125, -0.11100000000000002, 0.9864999999999999, 192.0, 0.0, 0.0, 0.0, 0.0, 0.0, 0.0, 0.0, 0.0, 0.0, 1.645921596210469E9, 0.0, 2022-02-27 11:26:36.210
104.0, -636.3094611536815, -4350.074154147405, -1497.5892302500285, -9814.718045558697, -278.59214289094723, 553.652710157956, -5332.8580061028015, -1347.3631557659098, -2376.571580954979, -5913.422216584947, -3923.1781867954955, -2769.4034897570004, -3269.2555510110324, -2317.2276994261383, -9558.902330267707, -14482.209322715918, 0.010328125, -0.11100000000000002, 0.9864999999999999, 192.0, 0.0, 0.0, 0.0, 0.0, 0.0, 0.0, 0.0, 0.0, 0.0, 1.645921596216917E9, 0.0, 2022-02-27 11:26:36.216
106.0, -1365.6021792414404, -4904.464471872387, -2033.1817308880964, -10402.613628222183, -956.632310942687, 50.60434944681519, -5694.375120922938, -1793.4145681160176, -3923.781683895789, -6789.096509110512, -4187.956951613063, -2990.1940214865235, -3475.0033587221337, -2627.7604851437195, -9938.077323207537, -15457.259471089777, 0.01, -0.108, 0.99, 192.0, 0.0, 40.0, 126.0, 80.0, 15.0, 120.0, 0.0, 0.0, 0.0, 1.645921596224961E9, 0.0, 2022-02-27 11:26:36.224
108.0, -896.6625805690982, -4544.511979164121, -1647.7706012452365, -9975.941178314826, -497.05809319711847, 420.9056998378873, -5338.6694596611815, -1336.8131323830048, -1362.741155951161, -5799.651837307434, -4106.95422970703, -2778.9253328949612, -3490.180193207287, -2461.2176372072267, -9472.535189692402, -14213.004912496199, 0.01, -0.108, 0.99, 192.0, 0.0, 0.0, 0.0, 0.0, 0.0, 0.0, 0.0, 0.0, 0.0, 1.645921596232946E9, 0.0, 2022-02-27 11:26:36.232
110.0, -925.5633861498102, -4589.014302374638, -1742.6090529691046, -10077.820429542116, -560.0006055832631, 319.9428701332653, -5547.501808107115, -1630.7832754592032, -3935.136370079085, -6479.658958871241, -3953.487152276892, -2884.917305102027, -3233.8950912827363, -2393.3800927853695, -9817.869641526895, -15200.326168576023, 0.01, -0.108, 0.99, 192.0, 0.0, 0.0, 0.0, 0.0, 0.0, 0.0, 0.0, 0.0, 0.0, 1.645921596240105E9, 0.0, 2022-02-27 11:26:36.240
112.0, -1291.7073120721952, -4852.742535202806, -1921.490063844927, -10288.127993122102, -850.9309114135399, 156.52926642051537, -5517.28224960354, -1561.9175507924022, -2160.676081261168, -6348.878902063239, -4302.889621602252, -2909.638334469597, -3663.3168057580956, -2672.218104865325, -9691.649340587777, -14765.607090664756, 0.01, -0.108, 0.99, 192.0, 0.0, 0.0, 0.0, 0.0, 0.0, 0.0, 0.0, 0.0, 0.0, 1.64592159624749E9, 0.0, 2022-02-27 11:26:36.247
114.0, -646.9265397699523, -4366.994424700073, -1491.442500524819, -9808.437205366756, -271.2160672206959, 556.1784572814056, -5317.524709406461, -1335.4720277156864, -2387.23336306016, -5915.188004396917, -3929.5037304763478, -2774.812611915185, -3269.9037516002363, -2315.4619116141694, -9551.36979238627, -14474.140342967552, 0.01, -0.108, 0.99, 192.0, 0.0, 0.0, 0.0, 0.0, 0.0, 0.0, 0.0, 0.0, 0.0, 1.64592159625551E9, 0.0, 2022-02-27 11:26:36.255
116.0, -1385.3387695954764, -4936.628632143573, -2034.4110768331382, -10403.06066311129, -955.3359097642792, 46.98336684505544, -5684.339187662505, -1784.5632773117159, -3969.803925729266, -6814.4657390672855, -4207.7829489449205, -2996.631323889652, -3487.0062454946337, -2629.6380316779655, -9939.574890086042, -15460.232253102335, 0.014, -0.11, 0.988, 192.0, 0.0, 56.0, 126.0, 72.0, 15.0, 112.0, 0.0, 0.0, 0.0, 1.645921596262761E9, 0.0, 2022-02-27 11:26:36.262
118.0, -931.6430606416537, -4580.319473781523, -1652.3303571141194, -9980.992672561726, -509.2844974141714, 410.0874555215187, -5338.602404427816, -1336.388449238354, -1369.290217076566, -5816.035665993174, -4116.185500167072, -2775.438460759933, -3507.793367838069, -2454.646224337366, -9473.563369937345, -14209.942723505823, 0.014, -0.11, 0.988, 192.0, 0.0, 0.0, 0.0, 0.0, 0.0, 0.0, 0.0, 0.0, 0.0, 1.645921596269987E9, 0.0, 2022-02-27 11:26:36.269
120.0, -969.663377960131, -4636.6905732978075, -1737.4457999999286, -10074.221798684812, -553.0715648021179, 319.24996605515076, -5544.9984127281205, -1627.0281823907117, -3945.9322626509984, -6489.359615964844, -3966.4735158054254, -2890.8405173826836, -3241.3829256752642, -2388.462709005202, -9817.869641526895, -15197.375738307923, 0.014, -0.11, 0.988, 192.0, 0.0, 0.0, 0.0, 0.0, 0.0, 0.0, 0.0, 0.0, 0.0, 1.64592159628516E9, 0.0, 2022-02-27 11:26:36.285
122.0, -1404.5612698270404, -4958.667452176506, -1947.8651223021893, -10311.865545733637, -873.3050076133022, 140.14543773477527, -5521.842005472423, -1575.0380247876674, -2271.6524924817672, -6409.005094648015, -4340.060572631428, -2945.401125598088, -3680.9746838777883, -2680.644712524976, -9708.30139020698, -14806.510783017968, 0.014, -0.11, 0.988, 192.0, 0.0, 0.0, 0.0, 0.0, 0.0, 0.0, 0.0, 0.0, 0.0, 1.645921596292255E9, 0.0, 2022-02-27 11:26:36.292
124.0, -802.4052742010682, -4527.904633033828, -1512.900175201914, -9823.926964274284, -270.72432884267914, 554.0773933026068, -5295.8211655403575, -1323.0221060540803, -2378.203258300216, -5934.857539517587, -3976.844725232688, -2808.6531530205198, -3285.706434930138, -2309.6057545668787, -9538.875167235752, -14453.95671772441, 0.014, -0.11, 0.988, 192.0, 0.0, 0.0, 0.0, 0.0, 0.0, 0.0, 0.0, 0.0, 0.0, 1.645921596299629E9, 0.0, 2022-02-27 11:26:36.299
126.0, -1578.9048765784355, -5140.141265409144, -2044.0893821822863, -10408.670950969572, -936.3592787217235, 64.97652113157763, -5663.0379751965975, -1777.3436638526516, -4056.506342471402, -6872.624978139995, -4248.12784768675, -3040.798370933339, -3471.8517627539354, -2620.093836795549, -9928.957811469772, -15461.05926764718, 0.016, -0.106, 0.99, 192.0, 0.0, 64.0, 126.0, 88.0, 15.0, 120.0, 0.0, 0.0, 0.0, 1.6459215963079E9, 0.0, 2022-02-27 11:26:36.307
128.0, -1201.0262848170144, -4839.823226907638, -1684.852145296591, -10004.037321095147, -507.5634130911128, 430.494598209214, -5330.131093279254, -1334.1979782817339, -1458.0489943085904, -5890.1987540958835, -4206.128919855228, -2848.8415895511616, -3529.608670426449, -2469.3760239334138, -9473.406907726157, -14216.201211953308, 0.016, -0.106, 0.99, 192.0, 0.0, 0.0, 0.0, 0.0, 0.0, 0.0, 0.0, 0.0, 0.0, 1.645921596315778E9, 0.0, 2022-02-27 11:26:36.315
130.0, -1214.9514216126706, -4870.243951111312, -1753.1143728630989, -10088.079880247102, -533.0667535146181, 334.33739356248304, -5521.596136283414, -1616.276993307709, -3992.066263206752, -6521.143796580291, -4036.7921038618215, -2946.5634163097643, -3243.5957483763395, -2379.2314385451605, -9803.519821586588, -15169.883092627895, 0.016, -0.106, 0.99, 192.0, 0.0, 0.0, 0.0, 0.0, 0.0, 0.0, 0.0, 0.0, 0.0, 1.64592159632234E9, 0.0, 2022-02-27 11:26:36.322
132.0, -1601.5471937116617, -5151.138323681155, -1967.19938125603, -10326.19301392949, -861.7715074743638, 153.1765047522193, -5523.138406650831, -1532.1003236890226, -2322.7038768176885, -6432.027391436982, -4406.668771108243, -2998.888850079638, -3684.886239157467, -2681.7622997477415, -9699.226581958126, -14788.383518264714, 0.016, -0.106, 0.99, 192.0, 0.0, 0.0, 0.0, 0.0, 0.0, 0.0, 0.0, 0.0, 0.0, 1.645921596330275E9, 0.0, 2022-02-27 11:26:36.330
134.0, -932.4924269309554, -4626.878157481928, -1526.0430009416343, -9835.03578126857, -274.54647714453665, 564.1133265630397, -5287.9533514920895, -1314.617850138885, -2456.8590470384415, -5967.13345851105, -4033.3722869601593, -2862.1408775020695, -3302.22437408261, -2323.5755948514457, -9541.155045170193, -14450.514549078292, 0.016, -0.106, 0.99, 192.0, 0.0, 0.0, 0.0, 0.0, 0.0, 0.0, 0.0, 0.0, 0.0, 1.645921596337411E9, 0.0, 2022-02-27 11:26:36.337
136.0, -1632.3031940821643, -5154.40167837163, -2057.388670133194, -10417.209317351499, -952.1843137960809, 64.93181764266701, -5700.164222736862, -1787.9383907244674, -4103.243840127449, -6874.971911307802, -4285.477612671568, -3070.660301525629, -3499.702036345248, -2625.592365931555, -9935.976259228739, -15468.167122383968, 0.014, -0.106, 0.994, 192.0, 0.0, 56.0, 126.0, 88.0, 15.5, 8.0, 0.0, 0.0, 0.0, 1.645921596345546E9, 0.0, 2022-02-27 11:26:36.345
138.0, -1155.3169674059116, -4787.162516970935, -1679.1971539493984, -9994.135498301446, -514.5148056167133, 417.7317521252337, -5331.136921779743, -1326.2184055111893, -1449.9129593268585, -5866.751774162266, -4195.847117405787, -2837.308089412223, -3529.2957460040748, -2466.0232622651174, -9471.43995421409, -14205.494726359217, 0.014, -0.106, 0.994, 192.0, 0.0, 0.0, 0.0, 0.0, 0.0, 0.0, 0.0, 0.0, 0.0, 1.645921596352014E9, 0.0, 2022-02-27 11:26:36.352
140.0, -1120.3588390778111, -4769.102307451047, -1744.0842681031547, -10076.367566152521, -540.1075530180399, 330.62700398290207, -5571.887561307855, -1661.2934066406974, -3981.1139084236515, -6509.789110396995, -4015.2450222069056, -2931.855968458172, -3247.26143446701, -2385.4452235037356, -9810.448862367733, -15178.510865987644, 0.014, -0.106, 0.994, 192.0, 0.0, 0.0, 0.0, 0.0, 0.0, 0.0, 0.0, 0.0, 0.0, 1.645921596360062E9, 0.0, 2022-02-27 11:26:36.360
142.0, -1517.6610967708943, -5067.229874995933, -1968.8310586012674, -10323.287287150299, -881.7763187618636, 132.45643764214967, -5499.646723228303, -1586.571524926606, -2319.8428535274093, -6429.7028100136295, -4376.2480469045695, -2971.9773497554484, -3691.1000241160423, -2683.7963084931744, -9711.676503619732, -14815.496184289, 0.014, -0.106, 0.994, 192.0, 0.0, 0.0, 0.0, 0.0, 0.0, 0.0, 0.0, 0.0, 0.0, 1.645921596368044E9, 0.0, 2022-02-27 11:26:36.368
144.0, -827.6180419466546, -4529.3351446789675, -1520.4774165722629, -9830.453673655233, -287.4657854397041, 562.392242239981, -5340.949337595623, -1313.4779111716641, -2388.0603776050066, -5931.996516227307, -4000.738740055411, -2830.826083520184, -3315.1660341222328, -2332.4492374002025, -9545.670097550166, -14441.23857512934, 0.014, -0.106, 0.994, 192.0, 0.0, 0.0, 0.0, 0.0, 0.0, 0.0, 0.0, 0.0, 0.0, 1.645921596375054E9, 0.0, 2022-02-27 11:26:36.375
146.0, -1535.8107132686036, -5069.755622119382, -2056.673414310624, -10423.579564521262, -960.1862383110808, 40.59076793083763, -5660.0428414395865, -1799.78481528578, -4089.5198690318907, -6850.340288918053, -4249.915987243175, -3047.1239146141907, -3505.155861992343, -2638.2434532932584, -9950.214320446768, -15477.420744588466, 0.012, -0.106, 0.992, 192.0, 0.0, 48.0, 126.0, 88.0, 15.5, 0.0, 0.0, 0.0, 0.0, 1.64592159638261E9, 0.0, 2022-02-27 11:26:36.382
148.0, -1071.5873326763312, -4713.960553879804, -1682.2816946842308, -10008.418263008389, -530.5633581356237, 389.43444364481496, -5297.609305096782, -1310.3039634590107, -1414.3289821540097, -5865.365966006037, -4179.999730586974, -2822.0418479492487, -3543.1761793108203, -2493.5829631785114, -9466.746087878477, -14219.19634571032, 0.012, -0.106, 0.992, 192.0, 0.0, 0.0, 0.0, 0.0, 0.0, 0.0, 0.0, 0.0, 0.0, 1.6459215963907E9, 0.0, 2022-02-27 11:26:36.390
150.0, -1029.4542943780773, -4687.898419844916, -1735.8141226546911, -10072.768935295217, -541.1133815185286, 330.53759700508084, -5513.549508279504, -1610.443188004874, -3942.6689079605235, -6490.678368887708, -3994.636713819112, -2907.403160024066, -3255.397469448742, -2391.368435784392, -9796.054338938517, -15166.373868748411, 0.012, -0.106, 0.992, 192.0, 0.0, 0.0, 0.0, 0.0, 0.0, 0.0, 0.0, 0.0, 0.0, 1.645921596397841E9, 0.0, 2022-02-27 11:26:36.397
152.0, -1418.508758367152, -4970.960911626925, -1960.7397271084462, -10319.979228970913, -886.1796124195591, 127.38259165079495, -5539.678697547758, -1581.5200306797065, -2300.642705040301, -6414.1459958727355, -4354.678613505199, -2947.9715762104483, -3694.8327654400787, -2693.8769452425176, -9708.949590796185, -14822.469928559058, 0.012, -0.106, 0.992, 192.0, 0.0, 0.0, 0.0, 0.0, 0.0, 0.0, 0.0, 0.0, 0.0, 1.645921596412253E9, 0.0, 2022-02-27 11:26:36.412
154.0, -736.3782210800912, -4441.1128093138705, -1511.1120356454892, -9821.043589239549, -291.39969246383816, 544.4437914423694, -5326.219537999576, -1331.4263619692758, -2329.0741239874515, -5897.708940232867, -3966.294701849783, -2792.8504696906175, -3306.806481695948, -2314.321972646949, -9540.41743760317, -14443.741970508334, 0.012, -0.106, 0.992, 192.0, 0.0, 0.0, 0.0, 0.0, 0.0, 0.0, 0.0, 0.0, 0.0, 1.645921596420378E9, 0.0, 2022-02-27 11:26:36.420
156.0, -1439.2735289661323, -4984.662530978028, -2049.677318296113, -10411.330808559753, -971.8314971722958, 36.410991717695204, -5699.828946570033, -1793.7051407939364, -4065.648205953623, -6814.1751663893665, -4219.02587640594, -3018.3572195002102, -3497.1762892217985, -2613.902403581429, -9941.54184359811, -15490.049480205713, 0.01, -0.108, 0.992, 192.0, 0.0, 40.0, 126.0, 80.0, 15.5, 0.0, 0.0, 0.0, 0.0, 1.645921596427321E9, 0.0, 2022-02-27 11:26:36.427
158.0, -986.918924679628, -4633.382515118422, -1672.8492585240913, -9994.984864590748, -520.8403492975651, 391.8484320459881, -5343.139808552242, -1348.5701499664963, -1357.6673099598063, -5830.161968488928, -4144.236939458482, -2795.353865069612, -3536.8506356299686, -2472.6393786238887, -9473.406907726157, -14224.314895190586, 0.01, -0.108, 0.992, 192.0, 0.0, 0.0, 0.0, 0.0, 0.0, 0.0, 0.0, 0.0, 0.0, 1.645921596434831E9, 0.0, 2022-02-27 11:26:36.434
160.0, -936.8733688441955, -4600.994837402683, -1720.4361224694399, -10049.143141405957, -536.3748116940036, 335.7679052076227, -5558.3200524234835, -1630.112723125544, -3874.2725699272837, -6442.689173542163, -3952.101344120663, -2876.8483253536615, -3239.907710541214, -2358.6454819018227, -9795.093213926937, -15164.384563491889, 0.01, -0.108, 0.992, 192.0, 0.0, 0.0, 0.0, 0.0, 0.0, 0.0, 0.0, 0.0, 0.0, 1.645921596442982E9, 0.0, 2022-02-27 11:26:36.442
162.0, -1364.12696410739, -4907.459605629398, -1959.6891951190466, -10313.541926567785, -893.5556880898105, 121.77230379251287, -5537.108246935398, -1589.9019348504467, -2319.8428535274093, -6404.98178064606, -4329.890528904263, -2936.572186538242, -3688.3954630369503, -2691.1723841634257, -9717.197384500192, -14844.106417191795, 0.01, -0.108, 0.992, 192.0, 0.0, 0.0, 0.0, 0.0, 0.0, 0.0, 0.0, 0.0, 0.0, 1.645921596450931E9, 0.0, 2022-02-27 11:26:36.450
164.0, -684.0527873102174, -4400.63380010531, -1507.4016460659084, -9810.001827478627, -288.4716139401929, 531.3009657026489, -5287.930999747634, -1304.2466407116224, -2260.8789516543093, -5873.680814943411, -3950.670832475523, -2770.878704891051, -3307.0747026294116, -2333.142141478317, -9522.670152505654, -14423.84891794311, 0.01, -0.108, 0.992, 192.0, 0.0, 0.0, 0.0, 0.0, 0.0, 0.0, 0.0, 0.0, 0.0, 1.645921596457484E9, 0.0, 2022-02-27 11:26:36.457
166.0, -1391.3960923428647, -4944.071763047191, -2047.933882228599, -10397.360968275187, -958.7333749214858, 36.16512252868683, -5692.676388344335, -1778.327140608685, -4069.3585955332037, -6825.3286868725645, -4195.377730772225, -2993.345617454722, -3493.801175809047, -2622.060790307616, -9935.596279572997, -15482.382831857543, 0.008, -0.106, 0.992, 192.0, 0.0, 32.0, 126.0, 88.0, 15.5, 0.0, 0.0, 0.0, 0.0, 1.64592159646458E9, 0.0, 2022-02-27 11:26:36.464
168.0, -954.5088952194328, -4591.584752986998, -1680.2700376832531, -9999.388158248445, -539.8840355734868, 375.84458301598823, -5347.878378376768, -1342.4681237301975, -1352.6158157129069, -5823.67996259689, -4133.306936419837, -2781.294617807224, -3538.571719953027, -2476.3050647145587, -9472.177561781116, -14223.62199111247, 0.008, -0.106, 0.992, 192.0, 0.0, 0.0, 0.0, 0.0, 0.0, 0.0, 0.0, 0.0, 0.0, 1.645921596472615E9, 0.0, 2022-02-27 11:26:36.472
170.0, -904.2398219394472, -4568.853028875951, -1719.0950178021214, -10044.404571581432, -533.8937680594645, 326.82720742549986, -5534.940127723233, -1609.638525204483, -3848.0316219367533, -6418.258716852512, -3935.426942757004, -2863.012595535826, -3238.3654401737977, -2364.9933773271296, -9785.347853344423, -15150.057095296037, 0.008, -0.106, 0.992, 192.0, 0.0, 0.0, 0.0, 0.0, 0.0, 0.0, 0.0, 0.0, 0.0, 1.645921596480665E9, 0.0, 2022-02-27 11:26:36.480
172.0, -1328.6323939123624, -4876.189515136423, -1958.9515875520217, -10311.127938166612, -898.7859962923523, 110.26115539802974, -5554.967290755188, -1595.7580918977371, -2315.5289668475352, -6404.043007378938, -4316.345371764347, -2924.7704654658396, -3683.8357071680675, -2681.1588026474483, -9718.06910253395, -14850.566071339379, 0.008, -0.106, 0.992, 192.0, 0.0, 0.0, 0.0, 0.0, 0.0, 0.0, 0.0, 0.0, 0.0, 1.645921596487234E9, 0.0, 2022-02-27 11:26:36.487
174.0, -649.8546182935976, -4358.254892618048, -1500.6290674959503, -9804.458594853711, -289.74566337414547, 536.3077564606376, -5319.737532107536, -1327.648917156329, -2247.624367192312, -5854.413611222936, -3934.5775764677023, -2757.1100303065814, -3295.787071679482, -2316.311277903471, -9528.950992697597, -14429.973295923864, 0.01, -0.106, 0.989, 192.0, 0.0, 48.0, 126.0, 88.0, 15.0, 104.0, 0.0, 0.0, 0.0, 1.645921596495347E9, 0.0, 2022-02-27 11:26:36.495
176.0, -1364.1940193407559, -4912.73461732085, -2042.2788908814064, -10391.996549605912, -963.4272412571004, 36.56745392888235, -5710.736597864223, -1793.3698646271068, -4068.777450177366, -6813.571669289073, -4181.765518398943, -2982.0356347603365, -3474.6233790663937, -2613.164796014404, -9945.743971555707, -15496.531486097752, 0.01, -0.106, 0.989, 192.0, 0.0, 0.0, 0.0, 0.0, 0.0, 0.0, 0.0, 0.0, 0.0, 1.645921596503318E9, 0.0, 2022-02-27 11:26:36.503
178.0, -934.0123455539162, -4572.786935900085, -1677.7442905598034, -9997.26474252519, -543.4156111974253, 389.8591267894658, -5356.461448247605, -1345.2844435315662, -1335.8296556269713, -5816.080369482085, -4126.355543894237, -2767.347129267112, -3532.0450105720774, -2463.3187011860255, -9474.368032737737, -14224.516060890683, 0.01, -0.106, 0.989, 192.0, 0.0, 0.0, 0.0, 0.0, 0.0, 0.0, 0.0, 0.0, 0.0, 1.645921596510388E9, 0.0, 2022-02-27 11:26:36.510
180.0, -886.9842752199502, -4542.589729140965, -1712.5459566767165, -10037.028495911181, -521.8238260535987, 349.0224896696198, -5533.688430033735, -1595.2663535197203, -3833.4806362963486, -6405.629981235264, -3930.7777799103, -2853.669566353508, -3221.6686870656836, -2358.891351090831, -9784.453783566212, -15142.815130092518, 0.01, -0.106, 0.989, 192.0, 0.0, 0.0, 0.0, 0.0, 0.0, 0.0, 0.0, 0.0, 0.0, 1.645921596517919E9, 0.0, 2022-02-27 11:26:36.517
182.0, -1338.0424783280466, -4884.102032673602, -1966.3723667111835, -10322.61673481664, -900.1718044485814, 121.07939971439836, -5555.928415766766, -1589.4548999613405, -2365.75333663861, -6426.014772178504, -4321.821549155897, -2925.7092387329626, -3676.0125966087103, -2683.6621980264426, -9724.305239236981, -14862.412495900691, 0.01, -0.106, 0.989, 192.0, 0.0, 0.0, 0.0, 0.0, 0.0, 0.0, 0.0, 0.0, 0.0, 1.645921596532898E9, 0.0, 2022-02-27 11:26:36.532
184.0, -656.0684032521729, -4368.737860767586, -1498.863279683981, -9808.168984433292, -280.4249859362824, 553.5409514356794, -5309.522784891461, -1306.2359459681447, -2216.1307592547846, -5858.012242080241, -3940.59019572618, -2760.5298472082436, -3292.7695861780153, -2321.6533448282894, -9518.93741118162, -14407.152164834997, 0.011, -0.106, 0.9904999999999999, 192.0, 0.0, 48.0, 126.0, 88.0, 15.5, 0.0, 0.0, 0.0, 0.0, 1.645921596539576E9, 0.0, 2022-02-27 11:26:36.539
186.0, -1358.069641360002, -4909.672428330473, -2035.0592774223421, -10390.051947838301, -936.8510170997403, 59.902675140222925, -5700.052464014586, -1782.909248222023, -4105.568421550801, -6823.942878716336, -4179.865620120242, -2992.920934310071, -3456.339652101952, -2606.816900589097, -9932.198814415791, -15491.658805806495, 0.011, -0.106, 0.9904999999999999, 192.0, 0.0, 0.0, 0.0, 0.0, 0.0, 0.0, 0.0, 0.0, 0.0, 1.645921596547474E9, 0.0, 2022-02-27 11:26:36.547
188.0, -959.403927255145, -4590.400110530867, -1696.6762181134486, -10013.961495633304, -550.3223002341152, 388.36155991096024, -5362.451715761628, -1340.2329492846668, -1352.8169814130047, -5852.49136119978, -4147.1426662376725, -2793.7221877243746, -3538.728182164214, -2486.8103846085532, -9475.865599616242, -14233.859090073001, 0.011, -0.106, 0.9904999999999999, 192.0, 0.0, 0.0, 0.0, 0.0, 0.0, 0.0, 0.0, 0.0, 0.0, 1.645921596555501E9, 0.0, 2022-02-27 11:26:36.555
190.0, -882.5586298177993, -4545.875435575895, -1718.3127067461858, -10037.140254633458, -509.2621456697161, 354.5210188056253, -5520.813825227478, -1583.59874291405, -3808.1561098284856, -6393.73885318504, -3935.583404968191, -2861.827953079695, -3221.0428382209348, -2352.208179498694, -9777.524742785066, -15117.959990258216, 0.011, -0.106, 0.9904999999999999, 192.0, 0.0, 0.0, 0.0, 0.0, 0.0, 0.0, 0.0, 0.0, 0.0, 1.645921596562676E9, 0.0, 2022-02-27 11:26:36.562
192.0, -1329.8840916018596, -4868.835791210627, -1970.8427156022449, -10323.689618550494, -893.9133160010954, 129.97539400761056, -5541.466837104183, -1581.117699279511, -2365.8650953608867, -6432.027391436982, -4320.122816577294, -2936.1698551380464, -3673.620959951992, -2680.063567169138, -9722.651210147287, -14860.400838899714, 0.011, -0.106, 0.9904999999999999, 192.0, 0.0, 0.0, 0.0, 0.0, 0.0, 0.0, 0.0, 0.0, 0.0, 1.645921596570068E9, 0.0, 2022-02-27 11:26:36.570
194.0, -646.904188025497, -4350.521189036512, -1501.0090471516905, -9810.940600745751, -274.6582358668132, 554.8597043585426, -5301.364398165274, -1304.2689924560777, -2222.2327854910836, -5852.558416433146, -3935.6281084571015, -2750.5609691811765, -3286.5781529638953, -2306.7447312765994, -9515.696408235599, -14405.252266556296, 0.0125, -0.108, 0.99025, 192.0, 0.0, 56.0, 126.0, 72.0, 15.0, 120.0, 0.0, 0.0, 0.0, 1.645921596578218E9, 0.0, 2022-02-27 11:26:36.578
196.0, -1348.3689842663985, -4880.123422160557, -2031.2594808649399, -10398.702072942504, -938.728563633986, 52.05721283641015, -5695.068025001053, -1785.4349953454728, -4101.589811037757, -6808.922506442369, -4171.751936882965, -2993.21150698799, -3444.292061840542, -2584.8227840450745, -9934.210471416769, -15492.374061629065, 0.0125, -0.108, 0.99025, 192.0, 0.0, 0.0, 0.0, 0.0, 0.0, 0.0, 0.0, 0.0, 0.0, 1.645921596585169E9, 0.0, 2022-02-27 11:26:36.585
198.0, -942.5954154247542, -4580.274770292613, -1676.2243719368425, -10014.40853052241, -548.2882914886823, 383.9582662532647, -5354.092163335343, -1347.676080188284, -1334.9132341043037, -5824.752846330744, -4132.010535241429, -2780.869934662573, -3526.7476471361697, -2472.1029367569613, -9469.897683846675, -14227.444139414329, 0.0125, -0.108, 0.99025, 192.0, 0.0, 0.0, 0.0, 0.0, 0.0, 0.0, 0.0, 0.0, 0.0, 1.645921596592304E9, 0.0, 2022-02-27 11:26:36.592
200.0, -848.8969026681069, -4515.901746261328, -1697.0338460247335, -10025.137367860958, -503.49539560024687, 352.8446379714773, -5526.2676508745735, -1570.9923590412568, -3781.8257548601337, -6378.4055564887, -3916.58442218118, -2841.2643481808127, -3209.107006681801, -2349.727135864155, -9770.774515959563, -15113.288475667057, 0.0125, -0.108, 0.99025, 192.0, 0.0, 0.0, 0.0, 0.0, 0.0, 0.0, 0.0, 0.0, 0.0, 1.645921596601136E9, 0.0, 2022-02-27 11:26:36.601
202.0, -1337.3719259943875, -4884.593771051618, -1975.5589336823148, -10326.729455796416, -914.0075342664164, 106.68487628518061, -5587.6678928933015, -1595.311057008631, -2399.0574358770177, -6421.1867953761575, -4309.773958894487, -2919.8083781967616, -3673.4197942518945, -2692.379378364012, -9732.843605618908, -14884.674833378176, 0.0125, -0.108, 0.99025, 192.0, 0.0, 0.0, 0.0, 0.0, 0.0, 0.0, 0.0, 0.0, 0.0, 1.645921596607753E9, 0.0, 2022-02-27 11:26:36.607
204.0, -647.6641473369774, -4354.030412915995, -1503.512442530685, -9810.448862367733, -290.4609191967153, 542.3650792080259, -5331.315735735386, -1320.8539868419155, -2170.66731103269, -5860.962672348342, -3936.611585213135, -2755.5007047057993, -3303.2078508386435, -2327.8000745534987, -9520.211460615572, -14397.786783908223, 0.013250000000000001, -0.107, 0.9901249999999999, 192.0, 0.0, 56.0, 126.0, 88.0, 15.0, 120.0, 0.0, 0.0, 0.0, 1.645921596616373E9, 0.0, 2022-02-27 11:26:36.616
206.0, -1337.2825190165663, -4885.309026874188, -2031.7288674985014, -10397.271561297364, -940.1590752791257, 36.63450916224828, -5683.042786484098, -1813.5758416147044, -4126.444950872058, -6815.628029778962, -4165.068765290829, -2979.8675155481715, -3450.1705706322878, -2596.1104149950047, -9937.11619819596, -15512.892963039038, 0.013250000000000001, -0.107, 0.9901249999999999, 192.0, 0.0, 0.0, 0.0, 0.0, 0.0, 0.0, 0.0, 0.0, 0.0, 1.645921596622695E9, 0.0, 2022-02-27 11:26:36.622
208.0, -941.7907526243631, -4570.752927154652, -1695.111596001577, -10022.455158526322, -569.164820809939, 358.43257408530405, -5359.68009944917, -1350.9170831343035, -1336.45550447172, -5828.753808588244, -4137.397305655159, -2775.796088671218, -3542.08094383251, -2475.0310152806064, -9472.334023992304, -14248.745351880236, 0.013250000000000001, -0.107, 0.9901249999999999, 192.0, 0.0, 0.0, 0.0, 0.0, 0.0, 0.0, 0.0, 0.0, 0.0, 1.645921596630407E9, 0.0, 2022-02-27 11:26:36.630
210.0, -841.2079025754813, -4501.574278065476, -1701.1018635155992, -10026.50082427273, -513.620735838501, 351.6823472598013, -5518.913926948778, -1570.8806003189804, -3758.401126670972, -6377.533838454943, -3913.812805868722, -2854.027194264793, -3219.2099951755995, -2355.8068103559986, -9764.65013797881, -15106.89587675284, 0.013250000000000001, -0.107, 0.9901249999999999, 192.0, 0.0, 0.0, 0.0, 0.0, 0.0, 0.0, 0.0, 0.0, 0.0, 1.645921596638385E9, 0.0, 2022-02-27 11:26:36.638
212.0, -1310.7286466036614, -4844.159465331968, -1981.5715529407923, -10327.154138941067, -920.891871558651, 104.40499835073929, -5585.566828914503, -1608.2303653037984, -2408.400465059336, -6421.477368054077, -4306.2200315260925, -2932.012430669359, -3681.242904811252, -2690.8818114855067, -9735.279945764536, -14893.99551081604, 0.013250000000000001, -0.107, 0.9901249999999999, 192.0, 0.0, 0.0, 0.0, 0.0, 0.0, 0.0, 0.0, 0.0, 0.0, 1.645921596644593E9, 0.0, 2022-02-27 11:26:36.644
214.0, -628.486350594324, -4337.825398185897, -1506.9769629212574, -9810.404158878822, -294.9759715766873, 539.6158146400231, -5324.185529254142, -1318.0600187850023, -2152.1377148792403, -5803.138709442462, -3928.25203278685, -2738.580434153132, -3304.03486538349, -2310.9245074897417, -9518.244507103504, -14392.310606516672, 0.011625, -0.1075, 0.9890625, 192.0, 0.0, 40.0, 126.0, 80.0, 15.0, 112.0, 0.0, 0.0, 0.0, 1.645921596660083E9, 0.0, 2022-02-27 11:26:36.660
216.0, -1327.0230683115803, -4857.861084683071, -2036.1545129006522, -10396.019863607868, -948.0939445607597, 43.652956921214695, -5695.224487212239, -1799.9636292414225, -4132.34581140826, -6824.2110996497995, -4161.961872811541, -2980.538067881831, -3456.6302247798712, -2601.0725022640827, -9943.68761106582, -15508.444965892431, 0.011625, -0.1075, 0.9890625, 192.0, 0.0, 0.0, 0.0, 0.0, 0.0, 0.0, 0.0, 0.0, 0.0, 1.645921596668035E9, 0.0, 2022-02-27 11:26:36.668
218.0, -936.7392583774637, -4559.197075271258, -1700.2972007152082, -10018.029513124171, -573.2551900452603, 369.563742824047, -5363.569302984393, -1352.6158157129069, -1329.7276293906725, -5810.6041920905345, -4133.753971308944, -2779.1041468506037, -3549.144095080387, -2459.4071459063466, -9479.97832059602, -14234.417883684384, 0.011625, -0.1075, 0.9890625, 192.0, 0.0, 0.0, 0.0, 0.0, 0.0, 0.0, 0.0, 0.0, 0.0, 1.645921596675016E9, 0.0, 2022-02-27 11:26:36.675
220.0, -826.1651785570597, -4495.539307062543, -1690.7977093217028, -10012.888611899449, -505.55175609013514, 347.2790536021058, -5521.931412450244, -1578.860173089525, -3761.776240083723, -6360.501809179999, -3915.176262280496, -2843.857150537628, -3232.285765681954, -2344.340365450426, -9777.949425929717, -15104.861868007407, 0.011625, -0.1075, 0.9890625, 192.0, 0.0, 0.0, 0.0, 0.0, 0.0, 0.0, 0.0, 0.0, 0.0, 1.645921596682711E9, 0.0, 2022-02-27 11:26:36.682
222.0, -1313.746132105128, -4854.508323014775, -1975.2013057710299, -10334.32904891122, -931.5760054082878, 101.56632680491529, -5582.839916090956, -1633.9795749163122, -2456.523770871612, -6445.438438110165, -4305.594182681344, -2912.2981920597786, -3691.412948538417, -2692.379378364012, -9756.268233808069, -14923.611572219323, 0.011625, -0.1075, 0.9890625, 192.0, 0.0, 0.0, 0.0, 0.0, 0.0, 0.0, 0.0, 0.0, 0.0, 1.645921596690718E9, 0.0, 2022-02-27 11:26:36.690
224.0, -622.1831586579274, -4320.681610188676, -1495.666980226872, -9815.589763592454, -293.81368086501135, 534.6313756264897, -5311.579145381349, -1312.6956001157284, -2106.7413218905117, -5809.553660101135, -3929.0790473316965, -2731.2714137162466, -3313.713170732638, -2313.6514203132892, -9521.17258562715, -14385.85095236909, 0.0098125, -0.10875, 0.98753125, 192.0, 0.0, 32.0, 126.0, 72.0, 15.0, 104.0, 0.0, 0.0, 0.0, 1.645921596697882E9, 0.0, 2022-02-27 11:26:36.697
226.0, -1307.9123268022927, -4856.989366649314, -2020.0836086372865, -10383.636997179628, -941.9919183244608, 44.54702669942698, -5751.394421028426, -1811.2512601913525, -4143.365221424726, -6810.710645998794, -4149.131971494195, -2973.5643236117753, -3451.9587101887123, -2583.2805136776583, -9952.740067570217, -15511.820079305182, 0.0098125, -0.10875, 0.98753125, 192.0, 0.0, 0.0, 0.0, 0.0, 0.0, 0.0, 0.0, 0.0, 0.0, 1.64592159670533E9, 0.0, 2022-02-27 11:26:36.705
228.0, -948.1386480496703, -4569.590636442976, -1700.2301454818423, -10033.116940631502, -588.1861553414053, 351.45882981524824, -5381.651864248737, -1376.4204235578088, -1338.355402750421, -5825.19988121985, -4139.476017889502, -2767.615350200576, -3564.2538743321747, -2474.852201324964, -9504.654646474677, -14257.686049662358, 0.0098125, -0.10875, 0.98753125, 192.0, 0.0, 0.0, 0.0, 0.0, 0.0, 0.0, 0.0, 0.0, 0.0, 1.645921596712359E9, 0.0, 2022-02-27 11:26:36.712
230.0, -826.9698413574507, -4489.102004659415, -1683.108709229077, -10011.346341532033, -499.8744129984872, 359.37134735242694, -5512.364865823372, -1577.6755306333937, -3729.2544519012517, -6325.275459918435, -3912.9857913238757, -2833.9776794883824, -3236.9572802731136, -2352.99049055463, -9775.177809617258, -15087.025175932073, 0.0098125, -0.10875, 0.98753125, 192.0, 0.0, 0.0, 0.0, 0.0, 0.0, 0.0, 0.0, 0.0, 0.0, 1.645921596720304E9, 0.0, 2022-02-27 11:26:36.720
232.0, -1321.8374635979492, -4855.447096281898, -1976.743576138446, -10336.787740801305, -934.7723048653967, 97.94534420315554, -5564.600892615425, -1620.1661968429325, -2477.534410659601, -6458.424801638699, -4311.740912406553, -2914.9356979055046, -3698.0290648971877, -2690.412424851945, -9760.068030365472, -14923.119833841305, 0.0098125, -0.10875, 0.98753125, 192.0, 0.0, 0.0, 0.0, 0.0, 0.0, 0.0, 0.0, 0.0, 0.0, 1.645921596727608E9, 0.0, 2022-02-27 11:26:36.727
234.0, -623.032524947229, -4320.994534611051, -1496.2481255827101, -9807.587839077454, -304.31900075900563, 544.2426257422717, -5310.215688969575, -1310.192204736734, -2128.6236797122574, -5805.351532143537, -3929.548433965258, -2724.4094281684675, -3320.7316184916044, -2313.718475546655, -9524.234774617527, -14381.782934878223, 0.01190625, -0.108375, 0.986765625, 192.0, 0.0, 56.0, 126.0, 80.0, 15.0, 104.0, 0.0, 0.0, 0.0, 1.645921596735013E9, 0.0, 2022-02-27 11:26:36.735
236.0, -1313.16498674929, -4853.3460323030995, -2022.6540592496467, -10389.537857715828, -945.1211625482039, 41.417782475683985, -5719.27496424615, -1806.8256147892016, -4155.278701219404, -6795.623218491462, -4150.115448250228, -2968.311663664778, -3458.0830881694665, -2584.1298799669603, -9959.602053117998, -15511.171878715979, 0.01190625, -0.108375, 0.986765625, 192.0, 0.0, 0.0, 0.0, 0.0, 0.0, 0.0, 0.0, 0.0, 0.0, 1.645921596742874E9, 0.0, 2022-02-27 11:26:36.742
238.0, -940.7402206349636, -4564.04740381806, -1690.7977093217028, -10027.081969628569, -571.7799749112099, 357.38204209590464, -5356.997890114533, -1373.805269456538, -1330.7334578911614, -5833.626488879501, -4138.604299855745, -2764.2625885322796, -3565.6843859773144, -2473.980483291207, -9496.160983581662, -14241.659848887903, 0.01190625, -0.108375, 0.986765625, 192.0, 0.0, 0.0, 0.0, 0.0, 0.0, 0.0, 0.0, 0.0, 0.0, 1.645921596750169E9, 0.0, 2022-02-27 11:26:36.750
240.0, -810.1389777826045, -4479.580161521454, -1672.9163137574571, -10000.818669893584, -490.8890117274537, 361.58417005350236, -5510.71083673368, -1581.9000103354467, -3731.3331641355953, -6343.983870027527, -3910.884727345077, -2829.775551530785, -3228.754190058016, -2340.5182171485685, -9777.368280573879, -15089.148591655327, 0.01190625, -0.108375, 0.986765625, 192.0, 0.0, 0.0, 0.0, 0.0, 0.0, 0.0, 0.0, 0.0, 0.0, 1.645921596757599E9, 0.0, 2022-02-27 11:26:36.757
242.0, -1325.7043153887173, -4861.3926603070095, -1979.9175238510995, -10342.062752492757, -934.8170083543073, 88.22233536509698, -5574.949750298232, -1630.313888825642, -2522.2378995702147, -6449.841731767861, -4313.193775796149, -2915.3156775612447, -3693.8045851951347, -2691.2394393967916, -9770.796867704019, -14944.018714907017, 0.01190625, -0.108375, 0.986765625, 192.0, 0.0, 0.0, 0.0, 0.0, 0.0, 0.0, 0.0, 0.0, 0.0, 1.645921596765641E9, 0.0, 2022-02-27 11:26:36.765
244.0, -626.8770249935419, -4323.028543356484, -1490.123747601956, -9804.74916753163, -293.567811676003, 544.779067609199, -5308.874584302257, -1320.3846002083542, -2084.9036675576767, -5808.994866489753, -3934.622279956613, -2729.0138875262605, -3323.0561999149563, -2309.538699333513, -9519.295039092904, -14367.388411449005, 0.018000000000000002, -0.106, 0.988, 192.0, 0.0, 72.0, 126.0, 88.0, 15.0, 112.0, 0.0, 0.0, 0.0, 1.645921596779726E9, 0.0, 2022-02-27 11:26:36.779
246.0, -1308.5605273914966, -4852.6978317138955, -2010.4053032881384, -10379.189000033022, -936.2922234883575, 45.910483111200705, -5720.9736968247535, -1815.274574193308, -4186.526439967924, -6809.771872731671, -4140.705363834544, -2965.0706607187585, -3445.186131618754, -2585.94037126784, -9960.384364173933, -15520.514907898298, 0.018000000000000002, -0.106, 0.988, 192.0, 0.0, 0.0, 0.0, 0.0, 0.0, 0.0, 0.0, 0.0, 0.0, 1.645921596787321E9, 0.0, 2022-02-27 11:26:36.787
