%OpenBCI Raw EEG Data
%Number of channels = 16
%Sample Rate = 125 Hz
%Board = OpenBCI_GUI$BoardCytonSerialDaisy
Sample Index, EXG Channel 0, EXG Channel 1, EXG Channel 2, EXG Channel 3, EXG Channel 4, EXG Channel 5, EXG Channel 6, EXG Channel 7, EXG Channel 8, EXG Channel 9, EXG Channel 10, EXG Channel 11, EXG Channel 12, EXG Channel 13, EXG Channel 14, EXG Channel 15, Accel Channel 0, Accel Channel 1, Accel Channel 2, Other, Other, Other, Other, Other, Other, Other, Analog Channel 0, Analog Channel 1, Analog Channel 2, Timestamp, Other, Timestamp (Formatted)
0.0, -1527.0711811865785, -4628.48748308271, -2042.2341873924956, -10502.570629426316, -925.0939995162487, -55.991119860544195, -5827.01037252073, -1905.7320840039354, 0.0, 0.0, 0.0, 0.0, 0.0, 0.0, 0.0, 0.0, 0.0, 0.0, 0.0, 192.0, 0.0, 0.0, 0.0, 0.0, 0.0, 0.0, 0.0, 0.0, 0.0, 1.645921520094872E9, 0.0, 2022-02-27 11:25:20.094
24.0, -1477.1373840734225, -4573.770412656118, -1934.1187994621755, -10380.351290744698, -847.2428735784142, 52.772468658979975, -5596.58623893097, -1577.250847488743, -1681.7229010728481, -6422.237327365557, -4479.580161521454, -3069.207438136034, -4046.0457260663184, -2945.9375674650155, -9895.363139553445, -14573.739716260401, 0.0, 0.0, 0.0, 192.0, 0.0, 0.0, 0.0, 0.0, 0.0, 0.0, 0.0, 0.0, 0.0, 1.645921520094875E9, 0.0, 2022-02-27 11:25:20.094
0.0, -579.3795680260143, -2182.960770483109, -898.2048509365143, -5107.530070248851, -299.1110443009191, 91.68685575566957, -2880.312845744234, -875.473126825467, -2358.399612712814, -3707.9308876908885, -2222.411599446726, -1636.5947290175832, -1931.8836250166448, -1495.4881662712296, -5183.9953880304565, -7947.877996906996, 0.016, -0.108, 0.976, 192.0, 0.0, 64.0, 126.0, 80.0, 15.0, 64.0, 0.0, 0.0, 0.0, 1.645921520192186E9, 0.0, 2022-02-27 11:25:20.192
2.0, -1854.0772025677209, -4888.550029820208, -2255.2239603071166, -10709.301913893452, -1203.5743836849194, -246.67385180876875, -5958.729202595854, -1950.5696833812815, -3782.8315833606225, -7225.871947511667, -4581.593523215476, -3311.5897550093837, -3993.2509056628833, -3093.570839592319, -10280.03666162928, -15558.669335683506, 0.016, -0.108, 0.976, 192.0, 0.0, 0.0, 0.0, 0.0, 0.0, 0.0, 0.0, 0.0, 0.0, 1.645921520199421E9, 0.0, 2022-02-27 11:25:20.199
4.0, -1184.0166072865256, -4365.139229910282, -1744.3748407810738, -10149.301308310189, -574.6409982014893, 243.58931107393636, -5559.661157090803, -1466.2073810347774, -1719.3185352466746, -6183.230123904958, -4332.796255683453, -3066.9275602015928, -3840.610842777591, -2817.057408935715, -9838.23208072568, -14385.985062835822, 0.016, -0.108, 0.976, 192.0, 0.0, 0.0, 0.0, 0.0, 0.0, 0.0, 0.0, 0.0, 0.0, 1.645921520205769E9, 0.0, 2022-02-27 11:25:20.205
6.0, -1522.6455357844277, -4635.617689563953, -2057.5674840888364, -10491.908847321136, -921.1377407476593, -51.319605269385015, -5906.292010103704, -1911.5658893067707, -4541.002755284638, -7104.725492563903, -4309.483386216568, -3240.9358907861583, -3674.3138640301067, -2857.2011419774467, -10270.358356280132, -15621.097757947178, 0.016, -0.108, 0.976, 192.0, 0.0, 0.0, 0.0, 0.0, 0.0, 0.0, 0.0, 0.0, 0.0, 1.645921520213583E9, 0.0, 2022-02-27 11:25:20.213
8.0, -1609.7279321823041, -4693.419300725377, -2046.3916118611828, -10477.179047725087, -964.9024563911506, -29.52665442546063, -5735.010592342686, -1673.1845346909208, -1931.5930523387258, -6588.266085179578, -4580.878267392906, -3189.0574919053906, -4079.1039561157177, -3045.313423313311, -9976.656434137396, -14718.176688930595, 0.014, -0.106, 0.972, 192.0, 0.0, 56.0, 126.0, 88.0, 15.0, 48.0, 0.0, 0.0, 0.0, 1.64592152022194E9, 0.0, 2022-02-27 11:25:20.221
10.0, -1049.6155678767643, -4267.640920596233, -1694.2175262233648, -10100.820374586627, -471.44299405133654, 305.5930501929582, -5631.522015514614, -1585.7221586373043, -3148.354965252276, -6464.9738627641045, -4185.744128911988, -3098.8682030282266, -3625.631764606448, -2692.4911370862887, -9999.835193137551, -14880.629167631767, 0.014, -0.106, 0.972, 192.0, 0.0, 0.0, 0.0, 0.0, 0.0, 0.0, 0.0, 0.0, 0.0, 1.645921520228849E9, 0.0, 2022-02-27 11:25:20.228
12.0, -1857.8769991251231, -4878.379986093043, -2260.92365514322, -10711.894716250268, -1209.944630854682, -245.15393318580786, -5956.806952572698, -1955.621177628181, -3809.720731940357, -7213.422025850061, -4584.298084294568, -3322.2738888590206, -3999.5988010881906, -3096.722435560517, -10290.698443734462, -15559.965736861914, 0.014, -0.106, 0.972, 192.0, 0.0, 0.0, 0.0, 0.0, 0.0, 0.0, 0.0, 0.0, 0.0, 1.645921520236394E9, 0.0, 2022-02-27 11:25:20.236
14.0, -1187.7046451216513, -4371.934160224696, -1745.335965792652, -10149.211901332368, -577.6361319585004, 237.59904355991407, -5562.5445321255365, -1470.5659712035622, -1725.9346516054454, -6186.649940806621, -4336.663107474221, -3070.8391154812716, -3848.0539736812084, -2812.520004811288, -9843.70825811723, -14379.994795321798, 0.014, -0.106, 0.972, 192.0, 0.0, 0.0, 0.0, 0.0, 0.0, 0.0, 0.0, 0.0, 0.0, 1.645921520244403E9, 0.0, 2022-02-27 11:25:20.244
16.0, -1510.955573434302, -4631.907299984372, -2041.1166001697304, -10483.996329783957, -901.6246678381763, -58.47216349508328, -5892.2551145857715, -1923.0099824678878, -4538.991098283661, -7103.876126274601, -4297.681665144166, -3238.454847151619, -3675.3867477639615, -2838.7386010573628, -10272.45942025893, -15616.917981734035, 0.012, -0.107, 0.974, 192.0, 0.0, 40.0, 126.0, 80.0, 15.0, 64.0, 0.0, 0.0, 0.0, 1.645921520252438E9, 0.0, 2022-02-27 11:25:20.252
18.0, -1613.3265630396086, -4694.961571092793, -2043.6646990376353, -10482.185838483078, -962.3320057787903, -44.59173018833759, -5723.767664881667, -1674.592694591605, -1946.7922385683346, -6576.218494918167, -4575.670310934819, -3186.8670209487705, -4073.516020001891, -3033.98108887447, -9980.567989417075, -14733.130005971196, 0.012, -0.107, 0.974, 192.0, 0.0, 0.0, 0.0, 0.0, 0.0, 0.0, 0.0, 0.0, 0.0, 1.645921520258995E9, 0.0, 2022-02-27 11:25:20.258
20.0, -1052.498942911499, -4273.832353810353, -1690.7083023438815, -10097.355854196056, -478.6179040214901, 291.9361343307655, -5617.552175230047, -1556.5978356120393, -3129.5794999098184, -6461.8669702848165, -4189.320408024837, -3109.820557811327, -3621.921375026867, -2701.2977244016797, -9997.108280314003, -14868.268652947982, 0.012, -0.107, 0.974, 192.0, 0.0, 0.0, 0.0, 0.0, 0.0, 0.0, 0.0, 0.0, 0.0, 1.645921520274185E9, 0.0, 2022-02-27 11:25:20.274
22.0, -1856.1782665465198, -4887.164221663978, -2260.9683586321307, -10707.916105737222, -1205.0495988189696, -247.5008663536151, -5961.70198460841, -1942.9253867775665, -3857.911092985999, -7246.457904155005, -4584.879229650406, -3335.0590866874563, -3998.7047313099783, -3095.9848279934918, -10291.480754790397, -15577.243635325865, 0.012, -0.107, 0.974, 192.0, 0.0, 0.0, 0.0, 0.0, 0.0, 0.0, 0.0, 0.0, 0.0, 1.645921520281139E9, 0.0, 2022-02-27 11:25:20.281
24.0, -1190.0292265450032, -4378.282055650003, -1750.432163528462, -10157.079715380636, -583.8052134281652, 231.0276306900538, -5563.259787948106, -1470.7447851592046, -1702.0406367827222, -6172.41187958859, -4334.942023151162, -3075.711795772528, -3849.819761493178, -2812.832929233662, -9838.65676387033, -14379.36894647705, 0.012, -0.107, 0.974, 192.0, 0.0, 0.0, 0.0, 0.0, 0.0, 0.0, 0.0, 0.0, 0.0, 1.645921520288577E9, 0.0, 2022-02-27 11:25:20.288
26.0, -1500.1596808623888, -4627.43695109331, -2043.7764577599119, -10474.541541879362, -896.8413945247406, -40.72487839756947, -5897.507774532768, -1914.136339919131, -4528.709295834219, -7090.6438935570595, -4297.860479099808, -3241.6287948642725, -3671.4528407398275, -2829.4179236195, -10265.686841688972, -15606.74793800687, 0.012, -0.1065, 0.978, 192.0, 0.0, 48.0, 126.0, 88.0, 15.0, 88.0, 0.0, 0.0, 0.0, 1.645921520296806E9, 0.0, 2022-02-27 11:25:20.296
28.0, -1626.8046649461587, -4706.78564390965, -2057.9474637445765, -10488.220809486009, -972.7032152060527, -39.49553245252758, -5741.246729045717, -1667.149563687988, -1977.8835151056667, -6608.0250272780695, -4588.5002122521655, -3199.9874949440355, -4084.893057929642, -3048.2638535814112, -9992.012082578192, -14748.575061389813, 0.012, -0.1065, 0.978, 192.0, 0.0, 0.0, 0.0, 0.0, 0.0, 0.0, 0.0, 0.0, 0.0, 1.645921520304708E9, 0.0, 2022-02-27 11:25:20.304
30.0, -1044.787591074418, -4264.064641483384, -1693.9716570343564, -10092.57258088262, -463.0834416250517, 314.69021018626813, -5618.714465941724, -1572.7134433643155, -3100.9692670070253, -6453.082734713881, -4196.227097061526, -3108.56886012183, -3638.595776390526, -2687.81962249513, -9996.236562280246, -14851.281327161949, 0.012, -0.1065, 0.978, 192.0, 0.0, 0.0, 0.0, 0.0, 0.0, 0.0, 0.0, 0.0, 0.0, 1.645921520311384E9, 0.0, 2022-02-27 11:25:20.311
32.0, -1853.4737054674276, -4888.974712964859, -2261.4153935212366, -10718.890812264779, -1197.6288196598077, -237.28611913753977, -5955.46584790538, -1962.907846320611, -3895.685541115468, -7248.961299533999, -4576.072642335015, -3329.6052610403613, -3989.5628678277576, -3080.7632900194276, -10299.348568838665, -15591.951083177459, 0.012, -0.1065, 0.978, 192.0, 0.0, 0.0, 0.0, 0.0, 0.0, 0.0, 0.0, 0.0, 0.0, 1.645921520319328E9, 0.0, 2022-02-27 11:25:20.319
34.0, -1209.3858372432992, -4384.272323164025, -1764.9607974244116, -10165.68513699593, -599.1385101245058, 236.92849122625486, -5577.028462532576, -1466.833229879526, -1688.0707964981552, -6183.990083216439, -4351.19174137017, -3094.911944259637, -3860.0568604537084, -2789.162431855492, -9836.198071980247, -14379.480705199327, 0.012, -0.1065, 0.978, 192.0, 0.0, 0.0, 0.0, 0.0, 0.0, 0.0, 0.0, 0.0, 0.0, 1.645921520326575E9, 0.0, 2022-02-27 11:25:20.326
36.0, -1499.086797128534, -4626.073494681536, -2039.4625710800376, -10474.206265712532, -891.342865388735, -31.247738748519275, -5900.8828879455195, -1890.979932663433, -4519.612135840909, -7070.013233424811, -4304.789519880953, -3239.237158207555, -3675.476154741783, -2828.166225930003, -10266.960891122924, -15593.314539589232, 0.011, -0.10525000000000001, 0.983, 192.0, 0.0, 40.0, 126.0, 96.0, 15.0, 112.0, 0.0, 0.0, 0.0, 1.64592152033443E9, 0.0, 2022-02-27 11:25:20.334
38.0, -1646.921234955935, -4732.22192909979, -2074.711272086057, -10504.26936200492, -983.4097008001448, -51.00668084701072, -5749.2039500718065, -1686.7073400863815, -2018.7648557144232, -6634.60125143543, -4603.5876397594975, -3212.772692772471, -4097.432386569069, -3061.8313624657826, -10008.105338586014, -14770.077439555818, 0.011, -0.10525000000000001, 0.983, 192.0, 0.0, 0.0, 0.0, 0.0, 0.0, 0.0, 0.0, 0.0, 0.0, 1.645921520340877E9, 0.0, 2022-02-27 11:25:20.340
40.0, -1055.9411115576163, -4283.08597601485, -1688.5848866206275, -10093.399595427465, -463.8881044254428, 307.53765196056986, -5616.501643240648, -1564.018614771201, -3054.231769350978, -6461.710508073629, -4212.342704813803, -3113.687409602095, -3654.9125498429003, -2692.0217504527272, -9989.665149410386, -14831.142405407716, 0.011, -0.10525000000000001, 0.983, 192.0, 0.0, 0.0, 0.0, 0.0, 0.0, 0.0, 0.0, 0.0, 0.0, 1.64592152034903E9, 0.0, 2022-02-27 11:25:20.349
42.0, -1875.7360429449134, -4918.255498201311, -2266.2210185791278, -10719.516661109526, -1200.9368778391931, -241.68941279523526, -5957.902188051008, -1959.063346274298, -3931.4036287550484, -7248.447209411527, -4582.576999971509, -3335.819045998937, -3987.3276933822267, -3077.9022667291483, -10304.489470063385, -15602.635217027095, 0.011, -0.10525000000000001, 0.983, 192.0, 0.0, 0.0, 0.0, 0.0, 0.0, 0.0, 0.0, 0.0, 0.0, 1.645921520357163E9, 0.0, 2022-02-27 11:25:20.357
44.0, -1237.9513666571816, -4423.276117238536, -1763.0608991457104, -10177.06217492368, -594.8246234446316, 236.97319471516548, -5550.876921519866, -1474.835154394526, -1678.1242702155437, -6192.304932153814, -4366.569741555421, -3093.6378948256847, -3875.43486063896, -2813.7493507563295, -9837.382714436379, -14374.675080141436, 0.011, -0.10525000000000001, 0.983, 192.0, 0.0, 0.0, 0.0, 0.0, 0.0, 0.0, 0.0, 0.0, 0.0, 1.645921520364067E9, 0.0, 2022-02-27 11:25:20.364
46.0, -1528.7922655096372, -4665.054937011592, -2022.3411348272725, -10470.361765666219, -869.9969494339168, -15.713276352080864, -5883.046195870184, -1905.7544357483907, -4502.6248100548755, -7074.461230571417, -4304.253078014026, -3250.5694926463957, -3667.7424511602467, -2819.359638614612, -10253.952175849936, -15580.194065593967, 0.0095, -0.10462500000000001, 0.9844999999999999, 192.0, 0.0, 32.0, 126.0, 96.0, 15.0, 104.0, 0.0, 0.0, 0.0, 1.645921520371739E9, 0.0, 2022-02-27 11:25:20.371
48.0, -1736.596433710627, -4820.5336714427085, -2079.0028070214757, -10510.997237085967, -996.7983957288737, -52.92893087016712, -5765.833647946554, -1696.9667907913674, -2061.702556813068, -6652.12501908839, -4626.028791192626, -3228.2624516799992, -4104.204965139028, -3054.142362373157, -10007.255972296713, -14789.21053280956, 0.0095, -0.10462500000000001, 0.9844999999999999, 192.0, 0.0, 0.0, 0.0, 0.0, 0.0, 0.0, 0.0, 0.0, 0.0, 1.645921520379717E9, 0.0, 2022-02-27 11:25:20.379
50.0, -1168.7950693124617, -4402.846622806385, -1691.5800203776384, -10097.311150707144, -469.9007236839204, 307.2917827715615, -5616.345181029461, -1554.5414751221508, -3045.313423313311, -6470.204170966646, -4235.9014434696965, -3136.0168023129468, -3660.6122446790037, -2696.603858066065, -9985.373614474967, -14823.207536126083, 0.0095, -0.10462500000000001, 0.9844999999999999, 192.0, 0.0, 0.0, 0.0, 0.0, 0.0, 0.0, 0.0, 0.0, 0.0, 1.645921520386711E9, 0.0, 2022-02-27 11:25:20.386
52.0, -2023.5034255389485, -5069.688566886016, -2275.049957638974, -10729.55259436996, -1195.6618661477407, -241.06356395048667, -5944.602900100101, -1972.8543726032226, -4004.717350568456, -7298.5598204803255, -4622.4301603353215, -3377.5944563859057, -3994.1896789300063, -3086.2171156665227, -10302.835440973693, -15618.393196868086, 0.0095, -0.10462500000000001, 0.9844999999999999, 192.0, 0.0, 0.0, 0.0, 0.0, 0.0, 0.0, 0.0, 0.0, 0.0, 1.645921520401221E9, 0.0, 2022-02-27 11:25:20.401
54.0, -1409.0092669736466, -4590.020130875127, -1777.9024574640343, -10188.193343662422, -597.7527019682768, 239.00720346059842, -5548.2841191630505, -1453.66805239535, -1720.4137707249847, -6216.824795821285, -4415.520061912544, -3132.082895288813, -3884.844945054644, -2801.567650028187, -9834.924022546295, -14377.17847552043, 0.0095, -0.10462500000000001, 0.9844999999999999, 192.0, 0.0, 0.0, 0.0, 0.0, 0.0, 0.0, 0.0, 0.0, 0.0, 1.645921520409468E9, 0.0, 2022-02-27 11:25:20.409
56.0, -1683.8686685405576, -4831.2178052923455, -2029.7619139864344, -10462.918634762602, -854.4401352930231, -3.129244223742989, -5865.298910772671, -1848.6904321539919, -4548.75881061063, -7098.981094238889, -4354.2315786160925, -3303.7219409611157, -3675.833782653068, -2816.5209670687877, -10247.961908335914, -15563.810236908226, 0.00975, -0.1053125, 0.98625, 192.0, 0.0, 40.0, 126.0, 88.0, 15.0, 112.0, 0.0, 0.0, 0.0, 1.645921520416361E9, 0.0, 2022-02-27 11:25:20.416
58.0, -1870.9080661425671, -4960.343833010654, -2089.351664704283, -10526.576402971317, -981.5992094992649, -50.69375642463642, -5745.068877347574, -1679.4877266273174, -2133.026973369953, -6722.0189240001355, -4674.3756144494555, -3271.378966734286, -4113.659753043622, -3054.7458594734503, -10014.140309588947, -14794.619654967744, 0.00975, -0.1053125, 0.98625, 192.0, 0.0, 0.0, 0.0, 0.0, 0.0, 0.0, 0.0, 0.0, 0.0, 1.64592152042383E9, 0.0, 2022-02-27 11:25:20.423
60.0, -1245.0592213939692, -4481.301245844513, -1686.148546474999, -10101.155650753457, -436.17194130086204, 315.69603868675694, -5578.794250344545, -1537.0400592136455, -3046.8333419362716, -6484.9339705626935, -4265.718670573076, -3167.1974858281, -3663.8755993694786, -2656.683642468887, -9976.052937037104, -14808.7459574635, 0.00975, -0.1053125, 0.98625, 192.0, 0.0, 0.0, 0.0, 0.0, 0.0, 0.0, 0.0, 0.0, 0.0, 1.645921520431818E9, 0.0, 2022-02-27 11:25:20.431
62.0, -2042.770629259423, -5084.775994393349, -2265.9975011345746, -10726.959792013144, -1187.23525848809, -234.5145028250817, -5939.2161296863715, -1968.0934510342422, -4067.6822146990557, -7304.348922294251, -4613.243593364191, -3386.356340212386, -3973.6931292644895, -3087.178240678101, -10307.953990453958, -15636.76633081035, 0.00975, -0.1053125, 0.98625, 192.0, 0.0, 0.0, 0.0, 0.0, 0.0, 0.0, 0.0, 0.0, 0.0, 1.64592152044004E9, 0.0, 2022-02-27 11:25:20.440
64.0, -1426.0636479930458, -4599.206697846258, -1785.5467540677494, -10196.172916432968, -610.6049550300784, 226.04319167652034, -5532.459084088693, -1463.1898955333108, -1699.4701861703618, -6241.076438555293, -4427.701762640687, -3152.62414844324, -3897.4289771829817, -2834.7823422887736, -9832.733551589674, -14384.487495957315, 0.00975, -0.1053125, 0.98625, 192.0, 0.0, 0.0, 0.0, 0.0, 0.0, 0.0, 0.0, 0.0, 0.0, 1.645921520446478E9, 0.0, 2022-02-27 11:25:20.446
66.0, -1615.8970136519688, -4759.13342942398, -2000.4587770055268, -10434.084884415255, -833.6306612051322, 8.67247684865914, -5837.761561603733, -1864.3143015282515, -4513.778330538074, -7082.038471941766, -4339.278261575492, -3279.425594738197, -3671.1399163174533, -2821.1924816599467, -10237.903623331025, -15546.84526286665, 0.009875, -0.10565625000000001, 0.987125, 192.0, 0.0, 40.0, 126.0, 88.0, 15.0, 112.0, 0.0, 0.0, 0.0, 1.645921520453526E9, 0.0, 2022-02-27 11:25:20.453
68.0, -1832.0607342792434, -4897.289561902233, -2099.119377031252, -10535.405342031163, -1016.5349860829099, -80.86861143930095, -5770.661624748901, -1719.8102736246913, -2206.7877300724663, -6733.060685761057, -4660.4057741648885, -3257.2750159829875, -4111.022247197896, -3074.8624294832266, -10024.22094633829, -14849.470835861068, 0.009875, -0.10565625000000001, 0.987125, 192.0, 0.0, 0.0, 0.0, 0.0, 0.0, 0.0, 0.0, 0.0, 0.0, 1.645921520461566E9, 0.0, 2022-02-27 11:25:20.461
70.0, -1181.6473223742632, -4415.028323534528, -1678.884229527024, -10085.3306156791, -460.7812119461551, 310.8457101399553, -5578.034291033065, -1524.6124892964947, -2932.280651602823, -6424.6513157667305, -4239.142446415716, -3114.8049968248606, -3659.4499539673275, -2696.2462301547803, -9958.372707172955, -14774.748954146977, 0.009875, -0.10565625000000001, 0.987125, 192.0, 0.0, 0.0, 0.0, 0.0, 0.0, 0.0, 0.0, 0.0, 0.0, 1.645921520469528E9, 0.0, 2022-02-27 11:25:20.469
72.0, -1971.9826545694657, -5014.8820894816035, -2260.275454554016, -10720.522489610015, -1195.8853835922937, -251.47947686665975, -5947.575682112656, -1988.5900006997588, -4050.605481935201, -7300.236201314474, -4600.503099024666, -3363.132877723322, -3973.4025565865704, -3061.5854932767743, -10302.142536895579, -15635.00054299838, 0.009875, -0.10565625000000001, 0.987125, 192.0, 0.0, 0.0, 0.0, 0.0, 0.0, 0.0, 0.0, 0.0, 0.0, 1.645921520476135E9, 0.0, 2022-02-27 11:25:20.476
74.0, -1335.6508416713289, -4507.922173490783, -1778.6177132866042, -10186.44990759491, -615.5893940436118, 217.61658401686955, -5573.876866564377, -1473.7399189162159, -1650.1175344130438, -6209.85105155123, -4391.58134360091, -3107.719493832528, -3878.8770292850772, -2817.996182202838, -9835.147539990849, -14377.245530753797, 0.009875, -0.10565625000000001, 0.987125, 192.0, 0.0, 0.0, 0.0, 0.0, 0.0, 0.0, 0.0, 0.0, 0.0, 1.645921520484126E9, 0.0, 2022-02-27 11:25:20.484
76.0, -1544.371431394986, -4683.629236653953, -2006.4043410306385, -10435.493044315941, -845.767658444364, 3.1068924792876818, -5866.170628806428, -1876.7865749343127, -4468.516048016078, -7051.237768082353, -4306.778825137475, -3249.6977746126386, -3664.7473174032352, -2790.6152952450866, -10243.670373400495, -15551.717943157906, 0.0109375, -0.101828125, 0.9865625, 192.0, 0.0, 48.0, 126.0, 120.0, 15.0, 104.0, 0.0, 0.0, 0.0, 1.645921520492217E9, 0.0, 2022-02-27 11:25:20.492
78.0, -1756.690651975948, -4831.329564014622, -2093.1738130061403, -10521.70372268006, -1017.1608349276585, -67.94930314413347, -5743.66071744689, -1696.7656250912698, -2142.772333952467, -6701.1200429344235, -4637.182311675824, -3242.1875884756555, -4119.001819968441, -3057.6515862526403, -10020.398798036433, -14830.024818184951, 0.0109375, -0.101828125, 0.9865625, 192.0, 0.0, 0.0, 0.0, 0.0, 0.0, 0.0, 0.0, 0.0, 0.0, 1.645921520499394E9, 0.0, 2022-02-27 11:25:20.499
80.0, -1111.239327340046, -4334.986726640073, -1677.8784010265354, -10078.021595242215, -468.49256378323605, 307.3811897493827, -5593.926381340788, -1543.1420854499443, -2933.6217562701413, -6428.048780923937, -4227.340725343314, -3126.562014408352, -3677.44310825385, -2699.4425296118893, -9963.692422353319, -14789.478753743024, 0.0109375, -0.101828125, 0.9865625, 192.0, 0.0, 0.0, 0.0, 0.0, 0.0, 0.0, 0.0, 0.0, 0.0, 1.645921520506839E9, 0.0, 2022-02-27 11:25:20.506
82.0, -1910.3812468506394, -4949.972623583391, -2261.7283179436113, -10713.504041851049, -1213.9902966010925, -247.43381112024917, -5964.786525343243, -1985.550163453837, -4068.3304152882597, -7276.8339248697675, -4573.077508578004, -3345.4079443702635, -3976.040062432297, -3045.179312846579, -10314.435996345997, -15646.779912326327, 0.0109375, -0.101828125, 0.9865625, 192.0, 0.0, 0.0, 0.0, 0.0, 0.0, 0.0, 0.0, 0.0, 0.0, 1.645921520521812E9, 0.0, 2022-02-27 11:25:20.521
84.0, -1290.96970450517, -4460.402364778801, -1781.0317016877773, -10188.707433784895, -638.4328768769357, 190.05688310347594, -5562.902160036821, -1534.1566841789108, -1623.5636620001392, -6206.721807327486, -4386.060462720449, -3090.665112813129, -3909.7671401223115, -2851.8367233081726, -9840.131979004382, -14381.537065689216, 0.0109375, -0.101828125, 0.9865625, 192.0, 0.0, 0.0, 0.0, 0.0, 0.0, 0.0, 0.0, 0.0, 0.0, 1.645921520529783E9, 0.0, 2022-02-27 11:25:20.529
86.0, -1484.8710876549587, -4624.084189425014, -1994.3343990247727, -10424.116006388189, -843.085449109727, 4.984439013533475, -5845.897596585464, -1887.6271709951368, -4431.278041753536, -7030.383590505552, -4294.530069175968, -3230.095294725334, -3667.116602315498, -2833.2624236658125, -10229.745236604838, -15545.548861688241, 0.016, -0.10400000000000001, 0.986, 192.0, 0.0, 64.0, 126.0, 96.0, 15.0, 104.0, 0.0, 0.0, 0.0, 1.645921520536343E9, 0.0, 2022-02-27 11:25:20.536
88.0, -1713.2835642437417, -4777.305397666144, -2096.861850841266, -10520.496728479473, -1028.694335066597, -102.23687913857451, -5770.192238115339, -1725.0629335716885, -2155.4904765475367, -6697.901391732859, -4629.4709598387435, -3230.810550547904, -4116.319610633804, -3099.6058105952516, -10027.171376606391, -14855.37169639727, 0.016, -0.10400000000000001, 0.986, 192.0, 0.0, 0.0, 0.0, 0.0, 0.0, 0.0, 0.0, 0.0, 0.0, 1.645921520544318E9, 0.0, 2022-02-27 11:25:20.544
90.0, -1062.0654895383705, -4278.190943979138, -1669.9882352338118, -10065.772839280706, -470.3477585730265, 302.5755646914917, -5574.39095668685, -1539.9010825039247, -2872.176810762502, -6407.731045214063, -4214.443768792602, -3093.012045980936, -3683.5451344901485, -2706.0139424817494, -9962.127800241447, -14764.154227275161, 0.016, -0.10400000000000001, 0.986, 192.0, 0.0, 0.0, 0.0, 0.0, 0.0, 0.0, 0.0, 0.0, 0.0, 1.645921520551427E9, 0.0, 2022-02-27 11:25:20.551
92.0, -1871.13158358712, -4902.810442782694, -2261.549503987969, -10706.9773324701, -1218.2147763031455, -261.6048171049139, -5952.805990315198, -1985.5278117093817, -4076.734671203455, -7286.646340685647, -4559.308833993535, -3329.292336617987, -3972.128507152618, -3080.1597929191344, -10305.964685197436, -15654.178339741033, 0.016, -0.10400000000000001, 0.986, 192.0, 0.0, 0.0, 0.0, 0.0, 0.0, 0.0, 0.0, 0.0, 0.0, 1.645921520559067E9, 0.0, 2022-02-27 11:25:20.559
94.0, -1261.353643101888, -4409.663904865254, -1781.232867387875, -10183.54418081572, -636.0859437091284, 198.84111867441163, -5550.832218030956, -1497.0304366386458, -1599.401426243952, -6197.825813034274, -4375.711605037643, -3086.083005199791, -3922.306468761739, -2836.2352056783684, -9840.511958660121, -14371.188208006408, 0.016, -0.10400000000000001, 0.986, 192.0, 0.0, 0.0, 0.0, 0.0, 0.0, 0.0, 0.0, 0.0, 0.0, 1.645921520567057E9, 0.0, 2022-02-27 11:25:20.567
96.0, -1421.9509270132694, -4557.0960112924595, -1964.2042474990187, -10390.387224005131, -815.4810447074228, 22.485854922038904, -5835.749904602755, -1873.3220545437403, -4401.237297205603, -7016.078474054155, -4265.808077550898, -3207.6764950366614, -3656.00778532121, -2795.3315133251567, -10222.860899312604, -15522.034826521258, 0.012, -0.10200000000000001, 0.988, 192.0, 0.0, 48.0, 126.0, 104.0, 15.0, 112.0, 0.0, 0.0, 0.0, 1.645921520573969E9, 0.0, 2022-02-27 11:25:20.573
98.0, -1708.0979595301105, -4764.564903326619, -2106.3613422347717, -10534.645382719682, -1042.0606782508705, -108.67418154170294, -5762.57029325608, -1735.4341429989508, -2229.921785583709, -6718.934383265303, -4616.506948054665, -3210.0904834378343, -4116.341962378259, -3090.910982002137, -10037.721399989296, -14892.073260792884, 0.012, -0.10200000000000001, 0.988, 192.0, 0.0, 0.0, 0.0, 0.0, 0.0, 0.0, 0.0, 0.0, 0.0, 1.645921520581085E9, 0.0, 2022-02-27 11:25:20.581
100.0, -1043.982928274027, -4259.527237358956, -1662.4109938634629, -10057.435638598876, -448.8006769181105, 312.209166551729, -5551.435715131249, -1526.8029602531149, -2780.601713729109, -6358.624262645753, -4203.267896564948, -3067.620464279707, -3661.528666201671, -2695.1733464209256, -9935.3951138729, -14722.848203521753, 0.012, -0.10200000000000001, 0.988, 192.0, 0.0, 0.0, 0.0, 0.0, 0.0, 0.0, 0.0, 0.0, 0.0, 1.645921520588698E9, 0.0, 2022-02-27 11:25:20.588
102.0, -1848.5116181983494, -4884.638474540529, -2252.8993788837647, -10695.913218964723, -1177.6463601167632, -234.00041270260965, -5927.257946402782, -1980.1857447845632, -4119.828834513287, -7266.5074189314155, -4537.582938382976, -3308.125234618811, -3938.5114834918363, -3058.120972886202, -10304.914153208036, -15656.011182786367, 0.012, -0.10200000000000001, 0.988, 192.0, 0.0, 0.0, 0.0, 0.0, 0.0, 0.0, 0.0, 0.0, 0.0, 1.645921520596786E9, 0.0, 2022-02-27 11:25:20.596
104.0, -1270.294340884011, -4424.63957365031, -1792.3193326377075, -10193.91539024298, -635.5047983532904, 202.26093557607362, -5540.639822559336, -1477.5397154736181, -1587.7114638938265, -6188.862763507696, -4383.378253385813, -3069.185086391579, -3909.0965877886524, -2830.759028286818, -9830.073693999493, -14367.500170171283, 0.012, -0.10200000000000001, 0.988, 192.0, 0.0, 0.0, 0.0, 0.0, 0.0, 0.0, 0.0, 0.0, 0.0, 1.645921520604712E9, 0.0, 2022-02-27 11:25:20.604
106.0, -1422.219147946733, -4559.353537482445, -1975.7377476379572, -10397.696244442015, -801.6676666340431, 29.4372474476394, -5814.6722095814, -1848.3775077316175, -4368.3802328563015, -6948.956185454868, -4255.213350679082, -3214.404370117709, -3643.5131601706935, -2805.5909640301425, -10212.892021285537, -15490.764736028283, 0.01, -0.10200000000000001, 0.988, 192.0, 0.0, 40.0, 126.0, 104.0, 15.0, 112.0, 0.0, 0.0, 0.0, 1.64592152061143E9, 0.0, 2022-02-27 11:25:20.611
108.0, -1699.626648381549, -4754.372507855, -2103.0979875442968, -10534.935955397601, -1018.5466430838875, -94.77139649050194, -5740.37501101196, -1719.206776524398, -2198.606991601824, -6723.471787389731, -4603.677046737319, -3231.1681784591888, -4104.316723861304, -3082.9314092315926, -10027.640763239951, -14866.502865136012, 0.01, -0.10200000000000001, 0.988, 192.0, 0.0, 0.0, 0.0, 0.0, 0.0, 0.0, 0.0, 0.0, 0.0, 1.645921520619418E9, 0.0, 2022-02-27 11:25:20.619
110.0, -1043.4241346626443, -4280.94020854714, -1668.6694823109488, -10068.65621431544, -440.68699368083406, 316.05366659804184, -5548.597043585425, -1514.5542042916065, -2803.2663826067906, -6382.5629809573875, -4193.500184237979, -3089.033435467891, -3652.72207888628, -2716.0275239977273, -9936.982087729226, -14727.095034968263, 0.01, -0.10200000000000001, 0.988, 192.0, 0.0, 0.0, 0.0, 0.0, 0.0, 0.0, 0.0, 0.0, 0.0, 1.645921520627457E9, 0.0, 2022-02-27 11:25:20.627
112.0, -1849.137467043098, -4885.130212918546, -2268.2997308134713, -10703.870439990813, -1185.134194509291, -246.2044651752073, -5928.800216770198, -1971.714433636002, -4141.286509190382, -7270.754250377924, -4535.794798826551, -3336.646060543783, -3931.5377392217806, -3063.619502022207, -10302.94719969597, -15654.066581018757, 0.01, -0.10200000000000001, 0.988, 192.0, 0.0, 0.0, 0.0, 0.0, 0.0, 0.0, 0.0, 0.0, 0.0, 1.645921520636047E9, 0.0, 2022-02-27 11:25:20.636
114.0, -1283.615980579374, -4446.030193094039, -1809.7983968017575, -10201.850259524615, -647.2394641923266, 194.41547327226084, -5545.557206339504, -1491.8224801805593, -1577.921399822402, -6191.276751908869, -4377.119764938327, -3091.626237824707, -3901.6981603739455, -2861.8726565686056, -9827.883223042872, -14360.45937066786, 0.01, -0.10200000000000001, 0.988, 192.0, 0.0, 0.0, 0.0, 0.0, 0.0, 0.0, 0.0, 0.0, 0.0, 1.645921520649145E9, 0.0, 2022-02-27 11:25:20.649
116.0, -1423.381438658409, -4577.436098746789, -1975.2683610043957, -10396.623360708161, -791.2294019734147, 45.48579996654987, -5803.451633864836, -1847.5504931867713, -4382.618294074332, -6985.881267295035, -4254.408687878691, -3208.6376200482396, -3639.7133636132917, -2813.637592034053, -10211.282695684755, -15482.762811513283, 0.014, -0.10400000000000001, 0.982, 192.0, 0.0, 56.0, 126.0, 96.0, 15.0, 88.0, 0.0, 0.0, 0.0, 1.645921520657044E9, 0.0, 2022-02-27 11:25:20.657
118.0, -1718.692686401926, -4786.670778592918, -2131.663516958179, -10553.979641673523, -1032.8070560463734, -103.62268729480354, -5740.039734845131, -1730.852035385613, -2277.8439256958873, -6736.1675782403445, -4618.898584711384, -3248.870760067792, -4102.081549415773, -3101.013970495936, -10039.353077334534, -14898.354100984825, 0.014, -0.10400000000000001, 0.982, 192.0, 0.0, 0.0, 0.0, 0.0, 0.0, 0.0, 0.0, 0.0, 0.0, 1.645921520663691E9, 0.0, 2022-02-27 11:25:20.663
120.0, -1044.2511492074907, -4269.27259794147, -1677.0960899705995, -10063.448257857353, -451.7064036973004, 312.3656287629162, -5541.8244650154675, -1519.7845124941484, -2748.3704982245563, -6336.808960057373, -4206.285382066415, -3089.1898976790785, -3665.172000547886, -2698.839032511596, -9931.43885510431, -14703.37983410118, 0.014, -0.10400000000000001, 0.982, 192.0, 0.0, 0.0, 0.0, 0.0, 0.0, 0.0, 0.0, 0.0, 0.0, 1.645921520671733E9, 0.0, 2022-02-27 11:25:20.671
122.0, -1848.0198798203326, -4881.553933805697, -2263.471754011125, -10711.514736594527, -1174.0253775150034, -230.08885742293091, -5933.494083105813, -1981.8844773631665, -4198.574030229334, -7224.799063777812, -4510.403217125323, -3389.0161978025676, -3930.6436694435683, -3070.0344526808803, -10307.439900331487, -15676.507732451884, 0.014, -0.10400000000000001, 0.982, 192.0, 0.0, 0.0, 0.0, 0.0, 0.0, 0.0, 0.0, 0.0, 0.0, 1.645921520679711E9, 0.0, 2022-02-27 11:25:20.679
124.0, -1298.390483664332, -4446.0972483274045, -1831.591347645682, -10227.73357960386, -648.2229409483601, 189.05105460298714, -5549.535816852548, -1503.6018495085061, -1589.4548999613405, -6210.476900395978, -4369.363709612335, -3067.821629979805, -3915.265669258317, -2853.937787286972, -9834.23111846818, -14379.301891243684, 0.014, -0.10400000000000001, 0.982, 192.0, 0.0, 0.0, 0.0, 0.0, 0.0, 0.0, 0.0, 0.0, 0.0, 1.645921520686932E9, 0.0, 2022-02-27 11:25:20.686
126.0, -1398.9733337132138, -4546.188359998269, -1958.2139799849965, -10378.38433723263, -780.3441024236802, 48.078602323365494, -5805.5526978436355, -1854.0548508232655, -4347.4813517905895, -6957.651014047982, -4232.213405634571, -3197.7970239874157, -3648.475247439772, -2800.181841871958, -10208.041692738736, -15470.536407296231, 0.014, -0.112, 0.988, 192.0, 0.0, 56.0, 126.0, 64.0, 15.0, 112.0, 0.0, 0.0, 0.0, 1.645921520694397E9, 0.0, 2022-02-27 11:25:20.694
128.0, -1736.4176197549846, -4794.627999619008, -2138.6819647171455, -10562.048621421889, -1061.7972686049068, -124.18629219368604, -5770.885142193454, -1759.819896199691, -2349.7718393530654, -6750.807970858571, -4601.665389736341, -3239.125399485278, -4120.700552547044, -3102.8244617968157, -10063.157685179434, -14940.040104393973, 0.014, -0.112, 0.988, 192.0, 0.0, 0.0, 0.0, 0.0, 0.0, 0.0, 0.0, 0.0, 0.0, 1.645921520701493E9, 0.0, 2022-02-27 11:25:20.701
130.0, -1052.1189632557587, -4275.575789877867, -1679.66654058296, -10062.397725867955, -457.6072642335015, 312.81266365202237, -5548.217063929685, -1508.8992129444139, -2713.0547419851714, -6315.172471424637, -4186.861716134753, -3061.7419554879616, -3685.9367711468662, -2710.7972157951854, -9939.172558685847, -14691.376947328681, 0.014, -0.112, 0.988, 192.0, 0.0, 0.0, 0.0, 0.0, 0.0, 0.0, 0.0, 0.0, 0.0, 1.645921520709412E9, 0.0, 2022-02-27 11:25:20.709
132.0, -1850.165647288042, -4887.924180975459, -2267.740937202089, -10707.40201561475, -1180.6638456182297, -223.74096199762369, -5938.187949441427, -1983.650265175136, -4213.057960636373, -7294.15652682263, -4509.956182236217, -3331.683973274705, -3936.5445299797693, -3050.9684146605036, -10323.80137727277, -15673.199674272499, 0.014, -0.112, 0.988, 192.0, 0.0, 0.0, 0.0, 0.0, 0.0, 0.0, 0.0, 0.0, 0.0, 1.645921520716507E9, 0.0, 2022-02-27 11:25:20.716
134.0, -1296.423530152265, -4440.956347102684, -1824.9305277980004, -10220.983352778358, -676.2073250064045, 177.80812714196767, -5561.873979791878, -1506.507576287696, -1578.2343242447764, -6197.714054311998, -4379.712567295142, -3098.778796050405, -3930.800131654755, -2857.84934256665, -9839.528481904088, -14374.384507463517, 0.014, -0.112, 0.988, 192.0, 0.0, 0.0, 0.0, 0.0, 0.0, 0.0, 0.0, 0.0, 0.0, 1.645921520723888E9, 0.0, 2022-02-27 11:25:20.723
136.0, -1369.8713624324039, -4516.147615450337, -1946.8816455461558, -10362.782819602826, -783.9427332809846, 47.542160456438125, -5814.828671792588, -1845.203560018964, -4315.406598497224, -6926.716199721837, -4222.423341563147, -3189.0574919053906, -3644.608395649004, -2768.3306060231457, -10207.30408517171, -15459.092314135112, 0.016, -0.112, 0.99, 192.0, 0.0, 64.0, 126.0, 64.0, 15.0, 120.0, 0.0, 0.0, 0.0, 1.645921520731913E9, 0.0, 2022-02-27 11:25:20.731
138.0, -1711.7636456207808, -4765.950711482848, -2124.42155175466, -10552.504426539474, -1063.4289459501442, -121.16880669221959, -5778.417680074893, -1780.8081842432243, -2336.3160891909706, -6742.694287621294, -4592.85880242095, -3237.650184351228, -4117.43719785657, -3075.8682579837155, -10065.348156136055, -14943.325810828903, 0.016, -0.112, 0.99, 192.0, 0.0, 0.0, 0.0, 0.0, 0.0, 0.0, 0.0, 0.0, 0.0, 1.645921520740024E9, 0.0, 2022-02-27 11:25:20.740
140.0, -1021.1170936962478, -4237.622527792755, -1660.5781508181276, -10055.51338857572, -444.8891216384318, 319.9428701332653, -5558.7894390570455, -1552.507466376718, -2665.8255059511075, -6306.030607942415, -4176.334044496303, -3059.819705464805, -3678.471288498794, -2697.8555557555624, -9932.087055693515, -14693.656825263122, 0.016, -0.112, 0.99, 192.0, 0.0, 0.0, 0.0, 0.0, 0.0, 0.0, 0.0, 0.0, 0.0, 1.645921520746551E9, 0.0, 2022-02-27 11:25:20.746
142.0, -1823.2541469638525, -4853.278977069733, -2258.5320184865022, -10696.40495734274, -1194.879555091805, -235.90031098131075, -5971.760269613299, -1974.553105181826, -4232.816902734864, -7258.43843918305, -4494.332312861957, -3308.7287317191044, -3925.234547285384, -3041.0665918668024, -10327.42235987453, -15693.718575682471, 0.016, -0.112, 0.99, 192.0, 0.0, 0.0, 0.0, 0.0, 0.0, 0.0, 0.0, 0.0, 0.0, 1.645921520754574E9, 0.0, 2022-02-27 11:25:20.754
144.0, -1281.2466956671115, -4426.047733550994, -1816.235699204886, -10224.045541768735, -680.3423977306363, 184.33483652291736, -5578.235456733162, -1516.2082333812994, -1557.2013327123325, -6192.79667053183, -4373.230561403103, -3073.8118974938275, -3927.648535686557, -2849.310976184723, -9844.848197084451, -14383.481667456826, 0.016, -0.112, 0.99, 192.0, 0.0, 0.0, 0.0, 0.0, 0.0, 0.0, 0.0, 0.0, 0.0, 1.645921520768802E9, 0.0, 2022-02-27 11:25:20.768
146.0, -1339.8529696289265, -4483.111737145393, -1931.7942180388236, -10358.603043389683, -771.9174947640294, 56.95224487212239, -5813.1299392139845, -1845.427077463517, -4275.79930732242, -6894.4179289839185, -4208.028818133929, -3176.9875498995248, -3631.800846076113, -2752.907902348984, -10205.091262470634, -15452.118569865057, 0.018000000000000002, -0.108, 0.99, 192.0, 0.0, 72.0, 126.0, 80.0, 15.0, 120.0, 0.0, 0.0, 0.0, 1.645921520776383E9, 0.0, 2022-02-27 11:25:20.776
148.0, -1701.3477327046078, -4750.3938973419545, -2133.228139070051, -10551.453894550074, -1057.0586987803815, -109.99293446456606, -5748.332232038049, -1762.6362160010597, -2348.6542521303004, -6756.865293605959, -4593.685816965797, -3217.0865794523456, -4111.804558253832, -3052.4436297945535, -10067.002185225749, -14955.373401090314, 0.018000000000000002, -0.108, 0.99, 192.0, 0.0, 0.0, 0.0, 0.0, 0.0, 0.0, 0.0, 0.0, 0.0, 1.645921520784318E9, 0.0, 2022-02-27 11:25:20.784
150.0, -1011.8187680028401, -4221.663382251666, -1662.9250839859349, -10045.589214037564, -456.3779182884596, 332.63866098387973, -5538.874034747367, -1506.6193350099725, -2640.8139039056186, -6298.453366572066, -4177.92101835263, -3056.690461241062, -3678.2924745431515, -2688.356064362057, -9929.874232992439, -14674.367269798193, 0.018000000000000002, -0.108, 0.99, 192.0, 0.0, 0.0, 0.0, 0.0, 0.0, 0.0, 0.0, 0.0, 0.0, 1.645921520792279E9, 0.0, 2022-02-27 11:25:20.792
152.0, -1807.2055944449419, -4834.123532071535, -2250.7759631605104, -10686.860762460323, -1187.61523814383, -233.41926734677165, -5947.016888501274, -2004.6609049631245, -4248.731344787043, -7257.298500215829, -4490.107833159904, -3306.359446806842, -3925.7039339189455, -3026.493254481942, -10320.649781304572, -15696.065508850279, 0.018000000000000002, -0.108, 0.99, 192.0, 0.0, 0.0, 0.0, 0.0, 0.0, 0.0, 0.0, 0.0, 0.0, 1.645921520798807E9, 0.0, 2022-02-27 11:25:20.798
154.0, -1275.0552624529914, -4415.58711714591, -1817.8226730612128, -10210.343922417633, -681.9964268203291, 187.0393976020095, -5571.641692118847, -1502.8418901970256, -1544.9078732619137, -6185.152373928115, -4381.590113829388, -3063.4630398110203, -3941.484265504392, -2855.882389054583, -9838.790874337063, -14378.094897043098, 0.018000000000000002, -0.107, 0.991, 192.0, 0.0, 72.0, 126.0, 88.0, 15.5, 0.0, 0.0, 0.0, 0.0, 1.645921520806803E9, 0.0, 2022-02-27 11:25:20.806
156.0, -1317.031838540058, -4463.017518880072, -1919.5007585884046, -10333.144406455089, -746.0118229403286, 75.99593114804401, -5783.536229555158, -1812.0559229917435, -4259.9072170146965, -6900.207030797843, -4214.108492625773, -3172.092517863812, -3638.4169624348838, -2754.5619314386763, -10196.798765277716, -15440.473311003841, 0.018000000000000002, -0.107, 0.991, 192.0, 0.0, 0.0, 0.0, 0.0, 0.0, 0.0, 0.0, 0.0, 0.0, 1.645921520814911E9, 0.0, 2022-02-27 11:25:20.814
158.0, -1706.8909653295239, -4751.757353753728, -2137.251453072006, -10560.998089432489, -1076.303550756401, -117.48076885709392, -5769.432278803859, -1775.555524296227, -2418.1905291307603, -6777.67476769385, -4596.81506118954, -3210.582221815851, -4117.86188100122, -3076.315292872822, -10075.652310329951, -14981.793163036486, 0.018000000000000002, -0.107, 0.991, 192.0, 0.0, 0.0, 0.0, 0.0, 0.0, 0.0, 0.0, 0.0, 0.0, 1.645921520821894E9, 0.0, 2022-02-27 11:25:20.821
160.0, -997.4465963180777, -4210.062826879362, -1654.2526071372756, -10048.293775116656, -451.54994148611325, 340.6852889877903, -5536.549453324014, -1512.7213612462715, -2568.0589757035946, -6279.990825651983, -4184.671245178133, -3047.593301247752, -3687.859021170023, -2675.392052577979, -9907.746005981686, -14643.298345005316, 0.018000000000000002, -0.107, 0.991, 192.0, 0.0, 0.0, 0.0, 0.0, 0.0, 0.0, 0.0, 0.0, 0.0, 1.645921520828429E9, 0.0, 2022-02-27 11:25:20.828
162.0, -1788.072501191199, -4817.4267789634205, -2244.3610125018376, -10688.000701427543, -1178.9204095507157, -231.13938941233033, -5946.525150123257, -1996.994256614954, -4262.835295538342, -7235.013810993888, -4478.12729813186, -3279.515001716018, -3902.4134161965153, -3006.2649257498892, -10310.837365488693, -15695.998453616912, 0.018000000000000002, -0.107, 0.991, 192.0, 0.0, 0.0, 0.0, 0.0, 0.0, 0.0, 0.0, 0.0, 0.0, 1.645921520836509E9, 0.0, 2022-02-27 11:25:20.836
164.0, -1282.4760416121533, -4427.858224851874, -1824.6399551200814, -10225.274887713776, -696.6144676941, 178.27751377552914, -5564.846761804433, -1524.7913032521371, -1533.4190766118857, -6197.267019422891, -4383.668826063732, -3068.827458480294, -3942.646556216068, -2855.1000779986475, -9834.767560335107, -14381.626472667036, 0.016, -0.1065, 0.9915, 192.0, 0.0, 56.0, 126.0, 88.0, 15.5, 0.0, 0.0, 0.0, 0.0, 1.64592152084439E9, 0.0, 2022-02-27 11:25:20.844
166.0, -1301.609134865896, -4459.329481044946, -1907.7213892604577, -10320.672133049027, -746.5259130628006, 88.9375911876668, -5789.481793580269, -1826.718667354425, -4224.278536352937, -6876.737699119771, -4209.749902456988, -3156.0216136004465, -3634.0583722660986, -2745.9788615678385, -10180.459640080886, -15410.387862967, 0.016, -0.1065, 0.9915, 192.0, 0.0, 0.0, 0.0, 0.0, 0.0, 0.0, 0.0, 0.0, 0.0, 1.645921520851695E9, 0.0, 2022-02-27 11:25:20.851
168.0, -1712.5459566767165, -4756.361813111522, -2137.9443571501206, -10567.413040091162, -1082.919667115172, -116.85492001234532, -5771.175714871373, -1774.236771373364, -2449.6170818349224, -6790.39291028892, -4600.212526346747, -3207.609439803295, -4110.262287886416, -3073.074289926802, -10078.021595242215, -14997.551142877477, 0.016, -0.1065, 0.9915, 192.0, 0.0, 0.0, 0.0, 0.0, 0.0, 0.0, 0.0, 0.0, 0.0, 1.645921520859294E9, 0.0, 2022-02-27 11:25:20.859
170.0, -1011.9752302140273, -4226.066675909362, -1653.4479443368846, -10052.764124007717, -450.47705775225853, 333.8903586733769, -5508.140386121319, -1503.1101111304893, -2561.0628796890833, -6284.215305354036, -4192.539059226401, -3045.8945686691486, -3686.4508612693385, -2671.0111106647387, -9902.3368838235, -14635.13995827913, 0.016, -0.1065, 0.9915, 192.0, 0.0, 0.0, 0.0, 0.0, 0.0, 0.0, 0.0, 0.0, 0.0, 1.645921520867133E9, 0.0, 2022-02-27 11:25:20.867
172.0, -1787.9383907244674, -4825.38399998951, -2233.0957332963626, -10681.228122857587, -1169.1750489682017, -216.1637206272746, -5928.420237114458, -1999.2964862938509, -4286.438737683146, -7271.290692244851, -4482.575295278465, -3287.6957401866607, -3892.2210207248954, -2985.2542859619007, -10309.56331605474, -15693.62916870465, 0.016, -0.1065, 0.9915, 192.0, 0.0, 0.0, 0.0, 0.0, 0.0, 0.0, 0.0, 0.0, 0.0, 1.645921520875077E9, 0.0, 2022-02-27 11:25:20.875
174.0, -1279.4138526217762, -4414.581288645421, -1816.6603823495368, -10224.112597002102, -695.1392525600496, 181.09383357689782, -5540.326898136962, -1512.0731606570675, -1510.2626693561876, -6188.594542574232, -4382.3500731408685, -3051.7954292053496, -3928.162625809029, -2836.1905021894577, -9827.503243387133, -14371.590539406603, 0.017, -0.10925, 0.99075, 192.0, 0.0, 72.0, 126.0, 64.0, 15.0, 120.0, 0.0, 0.0, 0.0, 1.645921520881242E9, 0.0, 2022-02-27 11:25:20.881
176.0, -1315.35545770591, -4465.386803792334, -1899.7194647454578, -10320.001580715369, -737.5852152806777, 103.86855648381191, -5753.964871640786, -1798.4437106184616, -4197.635256962211, -6857.984585521768, -4206.397140788691, -3150.299567019888, -3617.607488346993, -2730.153826493481, -10165.953357929393, -15387.924359789415, 0.017, -0.10925, 0.99075, 192.0, 0.0, 0.0, 0.0, 0.0, 0.0, 0.0, 0.0, 0.0, 0.0, 1.645921520896721E9, 0.0, 2022-02-27 11:25:20.896
178.0, -1734.9871081098447, -4775.427851131899, -2135.195092582118, -10571.61516804876, -1083.4784607265547, -112.20575716564146, -5759.753973454711, -1765.2513701023306, -2474.271055969126, -6800.652360993906, -4610.315514840546, -3222.1604254437, -4115.380837366681, -3087.5805720782964, -10074.110039962536, -15000.054538256472, 0.017, -0.10925, 0.99075, 192.0, 0.0, 0.0, 0.0, 0.0, 0.0, 0.0, 0.0, 0.0, 0.0, 1.645921520903867E9, 0.0, 2022-02-27 11:25:20.903
180.0, -1018.0549047058707, -4223.362114830269, -1647.9717669453344, -10050.238376884268, -444.5761972160575, 346.8096669685444, -5508.207441354685, -1496.0693116270677, -2542.8685597024632, -6276.14632560567, -4198.26110580696, -3044.978147146481, -3691.770576449702, -2677.6272270235095, -9903.968561168738, -14628.546193664813, 0.017, -0.10925, 0.99075, 192.0, 0.0, 0.0, 0.0, 0.0, 0.0, 0.0, 0.0, 0.0, 0.0, 1.645921520911312E9, 0.0, 2022-02-27 11:25:20.911
182.0, -1790.2629721478193, -4825.495758711786, -2230.7711518730107, -10681.250474602042, -1163.9670925101152, -222.01987767456507, -5922.899356233997, -1988.8805733776778, -4336.19372084066, -7262.372346207184, -4479.0884231434375, -3287.449870997652, -3881.6709973419906, -2993.792652343828, -10314.61481030164, -15705.050910121312, 0.017, -0.10925, 0.99075, 192.0, 0.0, 0.0, 0.0, 0.0, 0.0, 0.0, 0.0, 0.0, 0.0, 1.645921520919497E9, 0.0, 2022-02-27 11:25:20.919
184.0, -1312.6285448823626, -4444.35381225989, -1832.5077691683496, -10245.458512956919, -705.3092962872144, 160.12789727781978, -5552.687412820746, -1515.023590925168, -1538.2917569031426, -6226.436045937067, -4407.674599608731, -3075.041243438869, -3938.8244079142105, -2853.244883208857, -9836.533348147077, -14384.576902935136, 0.018500000000000003, -0.112625, 0.989375, 192.0, 0.0, 80.0, 126.0, 48.0, 15.0, 112.0, 0.0, 0.0, 0.0, 1.645921520927351E9, 0.0, 2022-02-27 11:25:20.927
186.0, -1284.1747741907566, -4435.435466222223, -1889.2812000848294, -10298.94623743847, -717.2674795708036, 93.38558833427291, -5750.075668105563, -1802.4893763648722, -4178.055128819362, -6859.1692279779, -4215.159024615172, -3155.1945990556, -3622.211947704786, -2734.668878873453, -10165.640433507018, -15371.719345059319, 0.018500000000000003, -0.112625, 0.989375, 192.0, 0.0, 0.0, 0.0, 0.0, 0.0, 0.0, 0.0, 0.0, 0.0, 1.64592152093396E9, 0.0, 2022-02-27 11:25:20.933
188.0, -1736.8423028996353, -4781.887505279482, -2150.193113111629, -10581.561694331373, -1102.5444987469314, -153.04239428548746, -5783.29036036615, -1797.2143646734196, -2553.5750452965553, -6838.0691812120895, -4609.15322412887, -3229.380038902764, -4110.262287886416, -3079.7798132633943, -10099.345159452578, -15042.12052132136, 0.018500000000000003, -0.112625, 0.989375, 192.0, 0.0, 0.0, 0.0, 0.0, 0.0, 0.0, 0.0, 0.0, 0.0, 1.645921520942653E9, 0.0, 2022-02-27 11:25:20.942
190.0, -1023.9110617531612, -4228.681830010632, -1653.8279239926248, -10046.863263471516, -459.2612933231942, 321.8651201564217, -5512.208403612185, -1500.539660518129, -2474.516925158134, -6258.108467830238, -4204.609001232267, -3046.7439349584506, -3700.7783294651904, -2681.315264858635, -9902.023959401127, -14600.919437518054, 0.018500000000000003, -0.112625, 0.989375, 192.0, 0.0, 0.0, 0.0, 0.0, 0.0, 0.0, 0.0, 0.0, 0.0, 1.645921520949044E9, 0.0, 2022-02-27 11:25:20.949
192.0, -1795.3815216280846, -4821.852424365571, -2231.1734832732063, -10680.44581180165, -1171.2761129470007, -236.32499412596158, -5933.941117994919, -2006.583154986281, -4359.216017629626, -7252.448171669027, -4484.74341449063, -3299.296295558965, -3881.939218275454, -2993.8373558327385, -10318.012275458846, -15709.454203779007, 0.018500000000000003, -0.112625, 0.989375, 192.0, 0.0, 0.0, 0.0, 0.0, 0.0, 0.0, 0.0, 0.0, 0.0, 1.645921520956314E9, 0.0, 2022-02-27 11:25:20.956
194.0, -1326.7324956336613, -4453.495675742111, -1845.784705374802, -10250.2194345259, -723.6824302294767, 157.71390887664663, -5563.326843181472, -1525.4171520968857, -1544.4831901172627, -6213.069702752794, -4423.231413749625, -3093.7049500590506, -3957.868094190132, -2854.7871535762733, -9841.115455760415, -14394.456373984382, 0.01625, -0.11031250000000001, 0.9886874999999999, 192.0, 0.0, 56.0, 126.0, 80.0, 15.0, 112.0, 0.0, 0.0, 0.0, 1.64592152096438E9, 0.0, 2022-02-27 11:25:20.964
196.0, -1282.8560212678935, -4437.357716245379, -1896.4337583105278, -10301.471984561918, -721.0672761282059, 88.42350106519474, -5749.673336705368, -1802.265858920319, -4165.8734280912195, -6849.02153599519, -4219.6964287395995, -3166.7951544279044, -3616.3557906574956, -2726.9798787808277, -10173.351785344099, -15363.404496121944, 0.01625, -0.11031250000000001, 0.9886874999999999, 192.0, 0.0, 0.0, 0.0, 0.0, 0.0, 0.0, 0.0, 0.0, 0.0, 1.645921520971448E9, 0.0, 2022-02-27 11:25:20.971
198.0, -1740.0386023567441, -4778.691205822373, -2145.2980810759163, -10587.283740911931, -1104.6008592368198, -158.5185716770377, -5777.635369018957, -1794.0851204496767, -2568.953045481807, -6843.612413837006, -4617.333962599511, -3231.034067992457, -4110.23993614196, -3089.033435467891, -10106.028331044714, -15056.023306372561, 0.01625, -0.11031250000000001, 0.9886874999999999, 192.0, 0.0, 0.0, 0.0, 0.0, 0.0, 0.0, 0.0, 0.0, 0.0, 1.645921520979085E9, 0.0, 2022-02-27 11:25:20.979
200.0, -1015.7973785158848, -4224.0997223972945, -1648.7987814901808, -10050.03721118417, -459.0154241341858, 315.40546600883795, -5508.699179732702, -1496.0693116270677, -2469.711300100243, -6257.504970729944, -4208.006466389474, -3060.378499076188, -3696.7773672076905, -2678.2083723793476, -9901.599276256477, -14603.422832897048, 0.01625, -0.11031250000000001, 0.9886874999999999, 192.0, 0.0, 0.0, 0.0, 0.0, 0.0, 0.0, 0.0, 0.0, 0.0, 1.645921520987045E9, 0.0, 2022-02-27 11:25:20.987
202.0, -1782.886896477568, -4812.688209138895, -2234.3921344747705, -10675.371965810296, -1167.2751506895008, -236.7273255261571, -5934.097580206106, -2007.8795561646887, -4380.651340562265, -7249.162465234097, -4480.518934788577, -3282.5995424508505, -3870.7409943033454, -2995.603143644708, -10328.450540119475, -15725.860384209203, 0.01625, -0.11031250000000001, 0.9886874999999999, 192.0, 0.0, 0.0, 0.0, 0.0, 0.0, 0.0, 0.0, 0.0, 0.0, 1.645921520995599E9, 0.0, 2022-02-27 11:25:20.995
204.0, -1328.2747660010775, -4456.624919965854, -1833.848873835668, -10262.870521887604, -728.4433517984572, 124.74508580506871, -5565.025575760076, -1531.7873992666482, -1538.9399574923466, -6228.581813404777, -4423.410227705268, -3087.1558889336457, -3952.101344120663, -2863.951368802949, -9845.697563373753, -14401.810097910178, 0.015125, -0.10915625000000001, 0.98834375, 192.0, 0.0, 56.0, 126.0, 80.0, 15.0, 112.0, 0.0, 0.0, 0.0, 1.645921521001758E9, 0.0, 2022-02-27 11:25:21.001
206.0, -1276.2846083980332, -4428.349963229891, -1867.711766685458, -10304.668284019028, -706.3598282766138, 83.95315217413332, -5754.23309257425, -1781.3446261101517, -4135.452703887547, -6821.081855426056, -4209.25816407897, -3183.849535447304, -3615.9758110017556, -2730.3549921935787, -10159.314889826166, -15358.777685019695, 0.015125, -0.10915625000000001, 0.98834375, 192.0, 0.0, 0.0, 0.0, 0.0, 0.0, 0.0, 0.0, 0.0, 0.0, 1.645921521016658E9, 0.0, 2022-02-27 11:25:21.016
208.0, -1740.4632855013951, -4781.060490734636, -2141.118304862774, -10590.703557813593, -1098.8117574228952, -167.36986248133928, -5773.52264803918, -1794.6439140610594, -2582.453499132812, -6841.757219047216, -4617.043389921593, -3223.9932684890355, -4102.685046516067, -3093.012045980936, -10097.221743729324, -15065.411039043789, 0.015125, -0.10915625000000001, 0.98834375, 192.0, 0.0, 0.0, 0.0, 0.0, 0.0, 0.0, 0.0, 0.0, 0.0, 1.645921521024698E9, 0.0, 2022-02-27 11:25:21.024
210.0, -1025.63214607622, -4230.224100378049, -1644.1943221323875, -10049.880748972982, -460.89297066843164, 312.1868148072737, -5497.99269413861, -1487.575648734051, -2467.2302564657043, -6271.541866247877, -4209.727550712532, -3047.3250803142882, -3687.881372914478, -2681.963465447839, -9891.026901129115, -14604.003978252886, 0.015125, -0.10915625000000001, 0.98834375, 192.0, 0.0, 0.0, 0.0, 0.0, 0.0, 0.0, 0.0, 0.0, 0.0, 1.645921521031348E9, 0.0, 2022-02-27 11:25:21.031
212.0, -1782.6410272885594, -4812.6658573944405, -2216.734256355078, -10670.186361096665, -1168.7056623346405, -237.0626016929867, -5938.009135485785, -2011.1429108551636, -4397.303390181469, -7253.00696528041, -4473.83576319644, -3285.2817517854874, -3863.4990290998257, -2984.404919672599, -10317.006446958358, -15724.318113841788, 0.015125, -0.10915625000000001, 0.98834375, 192.0, 0.0, 0.0, 0.0, 0.0, 0.0, 0.0, 0.0, 0.0, 0.0, 1.645921521039417E9, 0.0, 2022-02-27 11:25:21.039
214.0, -1346.7596586656164, -4467.420812537767, -1837.0004698038663, -10257.975489851891, -735.4617995574235, 124.16394044923074, -5566.791363572045, -1532.3238411335756, -1528.6134515539948, -6214.433159164568, -4418.358733458368, -3068.2910166133665, -3945.2840620617944, -2865.404232192544, -9844.244699984158, -14406.90629564599, 0.014562499999999999, -0.10657812500000001, 0.989171875, 192.0, 0.0, 56.0, 126.0, 96.0, 15.0, 120.0, 0.0, 0.0, 0.0, 1.645921521047375E9, 0.0, 2022-02-27 11:25:21.047
216.0, -1286.4770038696533, -4444.018536093061, -1855.0606793237544, -10286.65277798805, -692.0770635696725, 103.95796346163314, -5749.650984960912, -1774.2591231178194, -4108.2282791409825, -6819.3384193585425, -4204.229021576527, -3155.105192077779, -3610.5443370991156, -2726.1081607470705, -10149.502474010287, -15340.784530733174, 0.014562499999999999, -0.10657812500000001, 0.989171875, 192.0, 0.0, 0.0, 0.0, 0.0, 0.0, 0.0, 0.0, 0.0, 0.0, 1.645921521054429E9, 0.0, 2022-02-27 11:25:21.054
218.0, -1786.9549139684336, -4824.62404067803, -2144.4710665310704, -10595.866810782769, -1105.0925976148364, -169.6720921602359, -5795.67322679439, -1800.2542019193415, -2627.7828368881746, -6859.839780311559, -4621.983125446216, -3239.6618413522056, -4100.941610448553, -3083.557258076341, -10104.933095566405, -15077.682146749754, 0.014562499999999999, -0.10657812500000001, 0.989171875, 192.0, 0.0, 0.0, 0.0, 0.0, 0.0, 0.0, 0.0, 0.0, 0.0, 1.645921521061957E9, 0.0, 2022-02-27 11:25:21.061
220.0, -1093.8049666649065, -4298.329865733369, -1644.9095779549573, -10054.440504841865, -459.5965694900238, 307.82822463848885, -5487.621484711348, -1473.8069741495817, -2438.2176921627156, -6270.491334258478, -4227.720704999055, -3065.2735311119, -3701.694750987858, -2688.780747506708, -9881.4827062467, -14579.662928541056, 0.014562499999999999, -0.10657812500000001, 0.989171875, 192.0, 0.0, 0.0, 0.0, 0.0, 0.0, 0.0, 0.0, 0.0, 0.0, 1.645921521068937E9, 0.0, 2022-02-27 11:25:21.068
222.0, -1864.8060399062683, -4901.178765437457, -2212.8450528198546, -10677.87536118929, -1151.427763870688, -224.6573835202913, -5925.648620802, -1985.103128564731, -4461.497600257111, -7289.5744192092925, -4489.727853504164, -3316.5071387895514, -3859.2521976533176, -2962.924893251049, -10315.508880079851, -15722.105291140711, 0.014562499999999999, -0.10657812500000001, 0.989171875, 192.0, 0.0, 0.0, 0.0, 0.0, 0.0, 0.0, 0.0, 0.0, 0.0, 1.645921521077071E9, 0.0, 2022-02-27 11:25:21.077
224.0, -1473.1811253048331, -4587.67319770732, -1854.8595136236565, -10279.41081278453, -741.2732531158034, 119.02303922451011, -5567.551322883525, -1512.8107682240927, -1577.697882377849, -6271.653624970153, -4463.486905513633, -3111.2510694564667, -3966.898198950076, -2886.3925202360774, -9846.837502340974, -14409.387339280527, 0.014, -0.1, 0.992, 192.0, 0.0, 56.0, 126.0, 112.0, 15.5, 0.0, 0.0, 0.0, 0.0, 1.645921521083642E9, 0.0, 2022-02-27 11:25:21.083
226.0, -1405.6565053053505, -4551.441019945267, -1853.3842984896064, -10281.288359318776, -689.9089443575078, 112.27281239900738, -5739.413886000381, -1758.3223293211854, -4117.928936234586, -6831.743637531238, -4244.417458107168, -3178.6639307336727, -3619.3062209255963, -2727.203396225381, -10150.888282166516, -15315.437652520855, 0.014, -0.1, 0.992, 192.0, 0.0, 0.0, 0.0, 0.0, 0.0, 0.0, 0.0, 0.0, 0.0, 1.645921521091621E9, 0.0, 2022-02-27 11:25:21.091
228.0, -1928.419104626072, -4947.223359015388, -2156.1386771367406, -10606.841517310324, -1113.854481441317, -161.7148711341466, -5779.870543464487, -1796.6779228064922, -2728.25392821478, -6911.405254769952, -4672.140440003925, -3281.146679061256, -4113.369180365704, -3088.5864005787853, -10117.76299688375, -15097.865771992896, 0.014, -0.1, 0.992, 192.0, 0.0, 0.0, 0.0, 0.0, 0.0, 0.0, 0.0, 0.0, 0.0, 1.645921521099575E9, 0.0, 2022-02-27 11:25:21.099
230.0, -1221.0981513378802, -4421.4432741932005, -1654.9902147043008, -10061.458952600831, -454.38861303193727, 325.5531579915474, -5482.078252086431, -1445.7331831137162, -2457.9989860056626, -6293.156003136159, -4272.670063098677, -3097.2588774274445, -3715.597536039059, -2694.9498289763724, -9886.489497004688, -14573.046812182285, 0.014, -0.1, 0.992, 192.0, 0.0, 0.0, 0.0, 0.0, 0.0, 0.0, 0.0, 0.0, 0.0, 1.645921521106849E9, 0.0, 2022-02-27 11:25:21.106
232.0, -1956.0235090283763, -4993.670283993517, -2207.190061472662, -10666.475971517084, -1139.8942637317496, -210.7993019580009, -5934.589318584123, -1980.6998349070354, -4520.75207480813, -7313.222564843008, -4518.0028102401275, -3341.5634443239505, -3852.814895250189, -2971.0385764883254, -10318.481662092408, -15723.647561508127, 0.014, -0.1, 0.992, 192.0, 0.0, 0.0, 0.0, 0.0, 0.0, 0.0, 0.0, 0.0, 0.0, 1.645921521114249E9, 0.0, 2022-02-27 11:25:21.114
234.0, -1554.3850129109637, -4672.3192539595675, -1857.4970194693828, -10284.484658775886, -757.3441573791692, 127.2037776951525, -5595.736872641668, -1536.0789342020673, -1615.472330507318, -6306.34353236479, -4498.735606519653, -3133.4687034450417, -3983.617303802646, -2888.2924185147785, -9858.929796091294, -14426.66523774448, 0.016, -0.10200000000000001, 0.99, 192.0, 0.0, 64.0, 126.0, 104.0, 15.0, 120.0, 0.0, 0.0, 0.0, 1.645921521122145E9, 0.0, 2022-02-27 11:25:21.122
236.0, -1438.7817905881157, -4587.494383751677, -1847.036403064299, -10272.101792347645, -678.8224791076755, 139.40783016775015, -5691.64820809939, -1715.7422561338255, -4094.7501772344326, -6818.511404813696, -4255.190998934627, -3194.4442623191194, -3618.7474273142134, -2711.0877884731044, -10139.980630872325, -15285.374556228468, 0.016, -0.10200000000000001, 0.99, 192.0, 0.0, 0.0, 0.0, 0.0, 0.0, 0.0, 0.0, 0.0, 0.0, 1.645921521129375E9, 0.0, 2022-02-27 11:25:21.129
238.0, -1941.7630960658905, -4954.398268985542, -2163.9841394405535, -10609.233153967041, -1119.2189001105905, -154.27174023052936, -5780.116412653496, -1781.724605765892, -2780.4676032623775, -6937.892071949491, -4685.2385622547345, -3280.297312771954, -4112.743331520955, -3095.582496593296, -10122.389807986, -15104.951274985227, 0.016, -0.10200000000000001, 0.99, 192.0, 0.0, 0.0, 0.0, 0.0, 0.0, 0.0, 0.0, 0.0, 0.0, 1.645921521143842E9, 0.0, 2022-02-27 11:25:21.143
240.0, -1194.3431132248777, -4390.396701144779, -1649.6704995239377, -10052.786475752173, -453.4721915092697, 339.12066687591874, -5489.633141712326, -1460.4182792208528, -2414.211918617716, -6265.261026055936, -4280.001435280017, -3074.594208549763, -3716.849233728556, -2692.2005644083697, -9892.636226729897, -14552.796131705778, 0.016, -0.10200000000000001, 0.99, 192.0, 0.0, 0.0, 0.0, 0.0, 0.0, 0.0, 0.0, 0.0, 0.0, 1.645921521151828E9, 0.0, 2022-02-27 11:25:21.151
242.0, -1893.32686583124, -4932.3594489526095, -2201.937401525665, -10660.038669113956, -1135.200397396135, -201.2774588200401, -5904.660332758467, -1992.970942612999, -4513.487757860155, -7282.3548057502285, -4497.327446618968, -3315.5236620335177, -3840.230863121851, -2967.954035753493, -10323.734322039405, -15722.39586381863, 0.016, -0.10200000000000001, 0.99, 192.0, 0.0, 0.0, 0.0, 0.0, 0.0, 0.0, 0.0, 0.0, 0.0, 1.645921521159886E9, 0.0, 2022-02-27 11:25:21.159
244.0, -1499.2432593397211, -4622.854843479972, -1860.715670670947, -10292.307769335242, -767.1118697061384, 119.2912601579738, -5587.444375448749, -1525.1042276745115, -1583.665798147416, -6288.283322844902, -4479.2001818657145, -3117.4872061594974, -3979.7504520118778, -2902.0163896103372, -9862.774296137608, -14423.983028409843, 0.012, -0.106, 0.99, 192.0, 0.0, 48.0, 126.0, 88.0, 15.0, 120.0, 0.0, 0.0, 0.0, 1.64592152116639E9, 0.0, 2022-02-27 11:25:21.166
246.0, -1357.7790686820829, -4523.188414953758, -1835.0782197807098, -10268.480809745886, -661.7457463438209, 137.6867458446915, -5707.808519340578, -1756.7577072093138, -4049.733763901444, -6807.089663397034, -4238.874225482253, -3174.908837665181, -3615.1711482013643, -2689.2948376291797, -10140.494720994797, -15284.279320750156, 0.012, -0.106, 0.99, 192.0, 0.0, 0.0, 0.0, 0.0, 0.0, 0.0, 0.0, 0.0, 0.0, 1.645921521174513E9, 0.0, 2022-02-27 11:25:21.174
248.0, -1872.293874298796, -4898.228335169356, -2161.0337091724527, -10612.541212146427, -1122.2140338676018, -173.0919090618979, -5783.647988277435, -1812.1900334584755, -2777.964207883383, -6930.493644534785, -4660.562236376076, -3268.5626469329177, -4105.277848872883, -3117.8448340707823, -10129.095331322591, -15140.177624246791, 0.012, -0.106, 0.99, 192.0, 0.0, 0.0, 0.0, 0.0, 0.0, 0.0, 0.0, 0.0, 0.0, 1.645921521182563E9, 0.0, 2022-02-27 11:25:21.182
250.0, -1123.756304235018, -4319.318153776902, -1643.791990732192, -10050.03721118417, -452.4440112643256, 320.0769805999971, -5491.063653357465, -1477.5844189625286, -2359.9642348246857, -6248.43016248109, -4262.120039715772, -3054.0306036508805, -3719.9114227189334, -2706.639791326498, -9879.515752734633, -14551.320916571727, 0.012, -0.106, 0.99, 192.0, 0.0, 0.0, 0.0, 0.0, 0.0, 0.0, 0.0, 0.0, 0.0, 1.645921521189033E9, 0.0, 2022-02-27 11:25:21.189
252.0, -1827.3221644547184, -4865.77360222025, -2199.7469305690447, -10653.82488415538, -1131.8252839833838, -215.00142991559864, -5904.883850203019, -1981.5044977074265, -4497.059225685504, -7254.7056978590135, -4477.2108766091915, -3286.779318663993, -3833.0559531516974, -2966.5235241083533, -10324.896612751081, -15733.705846513016, 0.012, -0.106, 0.99, 192.0, 0.0, 0.0, 0.0, 0.0, 0.0, 0.0, 0.0, 0.0, 0.0, 1.645921521196134E9, 0.0, 2022-02-27 11:25:21.196
254.0, -1430.9810317732135, -4551.888054834372, -1861.9003131270783, -10287.949179166459, -768.7211953069205, 108.5400710749711, -5580.068299778498, -1540.63869007095, -1554.474419888785, -6264.14343883317, -4466.079707870449, -3094.0625779703355, -3988.5793910717243, -2891.1310900606027, -9860.874397858906, -14425.055912143698, 0.014, -0.10200000000000001, 0.99, 192.0, 0.0, 56.0, 126.0, 104.0, 15.0, 120.0, 0.0, 0.0, 0.0, 1.645921521204124E9, 0.0, 2022-02-27 11:25:21.204
0.0, -1272.9989019631032, -4449.807637906985, -1823.6564783640479, -10250.755876392828, -661.7457463438209, 151.03073728450983, -5697.996103524698, -1733.6012999536158, -4001.0293127333302, -6785.810802675582, -4213.706161225577, -3155.239302544511, -3617.495729624716, -2739.7203731203526, -10136.918441881948, -15278.601977658509, 0.014, -0.10200000000000001, 0.99, 192.0, 0.0, 0.0, 0.0, 0.0, 0.0, 0.0, 0.0, 0.0, 0.0, 1.645921521212242E9, 0.0, 2022-02-27 11:25:21.212
2.0, -1817.9567835279447, -4851.312023557666, -2171.1590494107068, -10617.011561037489, -1130.4841793160654, -170.78967938300127, -5782.57510454358, -1793.5039750938388, -2799.243068604835, -6937.199167871377, -4642.256157667179, -3265.813382364915, -4105.076683172784, -3093.146156447668, -10133.923308124937, -15149.878281340396, 0.014, -0.10200000000000001, 0.99, 192.0, 0.0, 0.0, 0.0, 0.0, 0.0, 0.0, 0.0, 0.0, 0.0, 1.645921521218715E9, 0.0, 2022-02-27 11:25:21.218
4.0, -1063.7865738614291, -4265.964539762084, -1652.1068396695662, -10049.23254838378, -461.6976334688227, 318.3782480213938, -5485.0063306100765, -1461.2005902767887, -2298.9439724616973, -6223.932650558073, -4249.245434909515, -3053.2706443394, -3734.1941874258746, -2705.119872703537, -9873.57018870952, -14534.087721596685, 0.014, -0.10200000000000001, 0.99, 192.0, 0.0, 0.0, 0.0, 0.0, 0.0, 0.0, 0.0, 0.0, 0.0, 1.645921521226658E9, 0.0, 2022-02-27 11:25:21.226
6.0, -1765.4525358024284, -4807.636714891996, -2196.14829971174, -10637.86573861429, -1129.9700891935931, -195.04132211700943, -5918.384303854025, -1982.5997331857366, -4493.192373894736, -7246.614366366192, -4457.116658343871, -3274.8211353804036, -3831.6701449954685, -2965.3612333966776, -10315.37476961312, -15729.168442388589, 0.014, -0.10200000000000001, 0.99, 192.0, 0.0, 0.0, 0.0, 0.0, 0.0, 0.0, 0.0, 0.0, 0.0, 1.645921521234749E9, 0.0, 2022-02-27 11:25:21.234
8.0, -1412.3620286419427, -4531.056229002026, -1870.1257550866312, -10291.972493168414, -768.9670644959289, 105.90256522924486, -5569.1159449953975, -1534.022573712179, -1552.7309838212711, -6276.6157122392315, -4471.913513173284, -3085.412452866132, -3974.9224752095315, -2906.3302762902113, -9856.180531523292, -14439.450435572915, 0.018000000000000002, -0.10400000000000001, 0.992, 192.0, 0.0, 72.0, 126.0, 96.0, 15.5, 0.0, 0.0, 0.0, 0.0, 1.645921521241935E9, 0.0, 2022-02-27 11:25:21.241
10.0, -1232.3187270544443, -4408.702779853676, -1812.1900334584755, -10236.428408196976, -640.1763129444496, 158.2279989991187, -5682.483992872714, -1719.8102736246913, -3948.3462510521713, -6754.116029037957, -4206.68771346661, -3142.9011396051815, -3594.2722671356523, -2721.034314755716, -10116.176023027423, -15254.797369813607, 0.018000000000000002, -0.10400000000000001, 0.992, 192.0, 0.0, 0.0, 0.0, 0.0, 0.0, 0.0, 0.0, 0.0, 0.0, 1.64592152124933E9, 0.0, 2022-02-27 11:25:21.249
12.0, -1795.917963495012, -4831.821302392638, -2170.1979243991286, -10622.085407028844, -1130.9535659496269, -174.20949628466326, -5784.206781888817, -1806.4679868779167, -2816.252746135324, -6941.647165017983, -4628.018096449148, -3262.93000733018, -4083.28373232886, -3112.0333805124023, -10137.834863404616, -15171.134790317392, 0.018000000000000002, -0.10400000000000001, 0.992, 192.0, 0.0, 0.0, 0.0, 0.0, 0.0, 0.0, 0.0, 0.0, 0.0, 1.64592152126438E9, 0.0, 2022-02-27 11:25:21.264
14.0, -1063.339538972323, -4274.32409218837, -1654.5431798151947, -10057.413286854422, -470.3701103174818, 327.6095184814356, -5482.771156164546, -1454.7632878736601, -2267.3162540574376, -6230.459359939023, -4239.097742926806, -3057.6739379970954, -3718.369152351517, -2714.9769920083277, -9875.045403843571, -14527.404550004549, 0.018000000000000002, -0.10400000000000001, 0.992, 192.0, 0.0, 0.0, 0.0, 0.0, 0.0, 0.0, 0.0, 0.0, 0.0, 1.64592152127151E9, 0.0, 2022-02-27 11:25:21.271
16.0, -1749.2251693278754, -4799.657142121451, -2193.220221188095, -10649.890977131245, -1112.2228040960795, -186.59236271290337, -5900.748777478788, -1969.2333900014628, -4514.113606704904, -7265.166314264097, -4442.610376192377, -3297.46345251363, -3811.1512435854966, -2958.432192615532, -10319.845118504181, -15729.146090644133, 0.018000000000000002, -0.10400000000000001, 0.992, 192.0, 0.0, 0.0, 0.0, 0.0, 0.0, 0.0, 0.0, 0.0, 0.0, 1.645921521278951E9, 0.0, 2022-02-27 11:25:21.278
18.0, -1411.4679588637305, -4521.713199819708, -1889.4153105515613, -10312.625505045116, -772.0516052307612, 105.96962046261078, -5558.342404167939, -1529.3287073765646, -1555.9719867672904, -6287.970398422528, -4477.121469631371, -3109.7982060668714, -3973.6260740311236, -2897.9483721194715, -9854.548854178054, -14445.932441464955, 0.016, -0.10400000000000001, 0.992, 192.0, 0.0, 64.0, 126.0, 96.0, 15.5, 0.0, 0.0, 0.0, 0.0, 1.645921521287047E9, 0.0, 2022-02-27 11:25:21.287
20.0, -1212.9174128672378, -4386.172221442726, -1823.1423882415759, -10241.993992566348, -616.5952225441006, 174.88004861832246, -5662.725050774223, -1705.0357705397334, -3927.2462042863617, -6722.130682722412, -4210.062826879362, -3143.169360538645, -3590.159546155876, -2715.9604687643614, -10103.860211832549, -15235.865442259961, 0.016, -0.10400000000000001, 0.992, 192.0, 0.0, 0.0, 0.0, 0.0, 0.0, 0.0, 0.0, 0.0, 0.0, 1.645921521295081E9, 0.0, 2022-02-27 11:25:21.295
22.0, -1802.6905420649698, -4828.557947702164, -2203.8820032932763, -10637.172834536175, -1129.7689234934955, -179.21628704265203, -5784.586761544557, -1817.688562594481, -2913.728703704918, -6954.633528546516, -4638.724582043241, -3286.5334494749845, -4079.1039561157177, -3111.0275520119135, -10145.702677452884, -15207.970465179738, 0.016, -0.10400000000000001, 0.992, 192.0, 0.0, 0.0, 0.0, 0.0, 0.0, 0.0, 0.0, 0.0, 0.0, 1.645921521301618E9, 0.0, 2022-02-27 11:25:21.301
24.0, -1052.5883498893202, -4256.241530924026, -1663.372118875041, -10063.716478790819, -456.19910433281717, 325.6202132249133, -5467.124935045831, -1457.9595873307692, -2206.206584716628, -6188.929818741062, -4248.306661642392, -3085.2783423993997, -3713.5411755491705, -2718.2626984432577, -9863.355441493446, -14511.691273652468, 0.016, -0.10400000000000001, 0.992, 192.0, 0.0, 0.0, 0.0, 0.0, 0.0, 0.0, 0.0, 0.0, 0.0, 1.645921521309585E9, 0.0, 2022-02-27 11:25:21.309
26.0, -1736.7305441773588, -4771.292778407666, -2208.374703928793, -10637.48575895855, -1103.103292358314, -192.87320290484465, -5897.194850110394, -1977.6823494055689, -4498.959123964206, -7224.553194588804, -4433.468512710156, -3290.713225688127, -3795.75089165579, -2942.920081963549, -10314.480699834909, -15727.290895854343, 0.016, -0.10400000000000001, 0.992, 192.0, 0.0, 0.0, 0.0, 0.0, 0.0, 0.0, 0.0, 0.0, 0.0, 1.645921521316661E9, 0.0, 2022-02-27 11:25:21.316
28.0, -1399.7779965136049, -4510.760845036608, -1899.6971130010027, -10288.575028011206, -766.9330557504959, 113.03277171048782, -5559.951729768722, -1538.7387917922488, -1546.4501436293297, -6250.307709015336, -4458.6589287112865, -3086.172412177612, -3975.5930275431906, -2917.103817117669, -9859.555644936043, -14443.540804808237, 0.012, -0.108, 0.992, 192.0, 0.0, 48.0, 126.0, 80.0, 15.5, 0.0, 0.0, 0.0, 0.0, 1.645921521323865E9, 0.0, 2022-02-27 11:25:21.323
30.0, -1193.6725608912184, -4377.0080062160505, -1805.2609926773303, -10222.525623145775, -612.8177777311537, 172.06372881695376, -5665.921350231332, -1713.9764683218561, -3886.454270655426, -6725.28227869061, -4185.341797511792, -3124.840930085293, -3580.570647784549, -2701.968276735339, -10112.66679914794, -15224.130776420925, 0.012, -0.108, 0.992, 192.0, 0.0, 0.0, 0.0, 0.0, 0.0, 0.0, 0.0, 0.0, 0.0, 1.64592152133132E9, 0.0, 2022-02-27 11:25:21.331
32.0, -1781.1211086655985, -4808.754302114761, -2192.281447920972, -10633.39538972323, -1125.6114990248084, -182.47964173312687, -5785.726700511778, -1825.1763969870087, -2917.8861281736054, -6926.962068910846, -4605.018151404637, -3314.450778299663, -4070.0738513557735, -3097.370636149721, -10144.607441974575, -15204.282427344613, 0.012, -0.108, 0.992, 192.0, 0.0, 0.0, 0.0, 0.0, 0.0, 0.0, 0.0, 0.0, 0.0, 1.645921521339331E9, 0.0, 2022-02-27 11:25:21.339
34.0, -1043.2900241959126, -4244.216292407071, -1672.6480928239935, -10047.734981505273, -454.4333165208479, 320.434608511282, -5477.250275284086, -1462.8769711109367, -2180.0103402150085, -6186.873458251173, -4216.8801089382305, -3037.8032371763275, -3714.4128935829276, -2710.2384221838024, -9853.453618699745, -14500.940084569465, 0.012, -0.108, 0.992, 192.0, 0.0, 0.0, 0.0, 0.0, 0.0, 0.0, 0.0, 0.0, 0.0, 1.645921521348853E9, 0.0, 2022-02-27 11:25:21.348
36.0, -1712.8365293546356, -4766.978891727793, -2168.7227092650783, -10624.72291287457, -1090.4969084855209, -177.62931318632522, -5909.443606071903, -1986.3771779986835, -4519.500377118633, -7224.799063777812, -4396.118747725338, -3268.652053910739, -3773.600312900581, -2945.15525640908, -10310.300923621766, -15728.721407499483, 0.012, -0.108, 0.992, 192.0, 0.0, 0.0, 0.0, 0.0, 0.0, 0.0, 0.0, 0.0, 0.0, 1.645921521354994E9, 0.0, 2022-02-27 11:25:21.354
38.0, -1416.541804855085, -4524.328353920979, -1894.198583864997, -10312.267877133832, -775.6502360880656, 105.54493731795995, -5568.981834528665, -1555.3908414114526, -1568.2654462177095, -6280.996654152472, -4456.4237542657565, -3105.909002531648, -3987.7300247824223, -2912.4546542709654, -9859.913272847329, -14462.606842828614, 0.012, -0.112, 0.984, 192.0, 0.0, 48.0, 126.0, 64.0, 15.0, 96.0, 0.0, 0.0, 0.0, 1.645921521361817E9, 0.0, 2022-02-27 11:25:21.361
40.0, -1178.0263397725034, -4354.678613505199, -1790.8664692481125, -10211.863841040593, -593.2376495883047, 195.68952270621332, -5656.332451860006, -1709.595526408616, -3839.560310788192, -6691.352330607454, -4172.735413638999, -3129.33363072081, -3571.1382116244095, -2686.0091311942497, -10095.835935573094, -15198.918008675339, 0.012, -0.112, 0.984, 192.0, 0.0, 0.0, 0.0, 0.0, 0.0, 0.0, 0.0, 0.0, 0.0, 1.645921521369947E9, 0.0, 2022-02-27 11:25:21.369
42.0, -1789.1453849250538, -4801.892316566982, -2176.545819824436, -10630.020276310477, -1137.8602549863167, -189.47573774763796, -5806.558526344124, -1850.8585513661567, -2949.111515177669, -6970.212694431865, -4609.957886929261, -3265.4334027091745, -4062.8095344077988, -3078.304598129344, -10154.129285112534, -15229.741064279207, 0.012, -0.112, 0.984, 192.0, 0.0, 0.0, 0.0, 0.0, 0.0, 0.0, 0.0, 0.0, 0.0, 1.645921521377007E9, 0.0, 2022-02-27 11:25:21.377
44.0, -1030.5718816008427, -4220.188167117616, -1646.049516922178, -10048.114961161013, -452.06403160858537, 318.0206201101089, -5486.012159110565, -1491.9789423917464, -2168.2533226315168, -6162.085373650239, -4222.132768885228, -3027.856710893716, -3719.084408174087, -2689.7195207738305, -9859.935624591782, -14502.795279359256, 0.012, -0.112, 0.984, 192.0, 0.0, 0.0, 0.0, 0.0, 0.0, 0.0, 0.0, 0.0, 0.0, 1.645921521391543E9, 0.0, 2022-02-27 11:25:21.391
46.0, -1674.4138806359626, -4715.793396925139, -2164.162953396196, -10607.28855219943, -1077.3540827458005, -166.11816479184208, -5937.182120940938, -2027.25851860744, -4508.860946757906, -7199.720406498958, -4377.410337616246, -3258.1690857611998, -3759.0046237712654, -2912.5887647376976, -10315.307714379755, -15741.663067539104, 0.011, -0.111, 0.986, 192.0, 0.0, 40.0, 126.0, 72.0, 15.0, 112.0, 0.0, 0.0, 0.0, 1.64592152139952E9, 0.0, 2022-02-27 11:25:21.399
48.0, -1395.6876272782836, -4488.342045347935, -1891.9857611639216, -10303.662455518539, -799.9912857998951, 83.43906205166127, -5573.452183419727, -1537.5988528250282, -1551.702803576327, -6268.949063891061, -4446.812504149974, -3078.7516330184503, -3980.6668735345456, -2900.6082297096527, -9867.71403166223, -14459.835226516156, 0.011, -0.111, 0.986, 192.0, 0.0, 0.0, 0.0, 0.0, 0.0, 0.0, 0.0, 0.0, 0.0, 1.645921521406603E9, 0.0, 2022-02-27 11:25:21.406
50.0, -1143.850522500339, -4315.987743853062, -1778.1930301419534, -10189.936779729936, -608.1239113955393, 170.0073683270655, -5681.612274838958, -1758.5011432768279, -3816.6944762104126, -6669.291158830066, -4171.282550249404, -3112.100435745768, -3587.5220403101494, -2700.20248892337, -10098.585200141097, -15199.208581353258, 0.011, -0.111, 0.986, 192.0, 0.0, 0.0, 0.0, 0.0, 0.0, 0.0, 0.0, 0.0, 0.0, 1.645921521414159E9, 0.0, 2022-02-27 11:25:21.414
52.0, -1777.6342365305707, -4805.982685802303, -2186.5594013404134, -10632.300154244918, -1168.7056623346405, -201.50097626459316, -5829.111436499529, -1838.7886093602908, -2974.1678207120685, -6964.848275762592, -4603.5876397594975, -3253.2740537254876, -4071.0796798562624, -3097.6612088276397, -10170.49076205382, -15256.697268092308, 0.011, -0.111, 0.986, 192.0, 0.0, 0.0, 0.0, 0.0, 0.0, 0.0, 0.0, 0.0, 0.0, 1.645921521422208E9, 0.0, 2022-02-27 11:25:21.422
54.0, -1032.628242090731, -4228.12303639925, -1654.051441437178, -10053.591138552563, -493.52651757317994, 309.25873628362854, -5503.625333741347, -1454.830343107026, -2150.6177962562797, -6172.233065632948, -4232.50397831249, -3042.0947721117464, -3735.2670711597293, -2707.8914890159954, -9865.009470583138, -14500.090718280164, 0.011, -0.111, 0.986, 192.0, 0.0, 0.0, 0.0, 0.0, 0.0, 0.0, 0.0, 0.0, 0.0, 1.645921521430198E9, 0.0, 2022-02-27 11:25:21.430
56.0, -1677.274903926242, -4722.722437706285, -2164.900560963221, -10608.853174311302, -1102.07511211337, -178.03164458652074, -5914.718617763355, -1998.3577130267279, -4535.168949981803, -7203.967237945466, -4395.112919224849, -3262.88530384127, -3785.334978739617, -2922.6470497425858, -10319.956877226457, -15738.82439599328, 0.0115, -0.1085, 0.988, 192.0, 0.0, 48.0, 126.0, 88.0, 15.0, 120.0, 0.0, 0.0, 0.0, 1.645921521436737E9, 0.0, 2022-02-27 11:25:21.436
58.0, -1398.0569121905462, -4494.309961117502, -1900.7923484793125, -10310.815013744237, -818.185605786515, 83.57317251839311, -5598.016750576109, -1575.5074114212289, -1561.2022949698323, -6283.321235575823, -4457.921321144262, -3085.792432521872, -3992.5356498403135, -2917.215575839946, -9873.212560798236, -14483.86335180561, 0.0115, -0.1085, 0.988, 192.0, 0.0, 0.0, 0.0, 0.0, 0.0, 0.0, 0.0, 0.0, 0.0, 1.645921521443753E9, 0.0, 2022-02-27 11:25:21.443
60.0, -1125.8126647249062, -4299.0004180670285, -1774.9296754514785, -10175.497552811808, -606.1122543945617, 193.87903140533345, -5662.814457752044, -1726.851073128113, -3773.0415192891983, -6653.779048178083, -4164.06293679034, -3090.5757058353074, -3596.1721654143535, -2674.252113610758, -10094.226609972311, -15179.00260436566, 0.0115, -0.1085, 0.988, 192.0, 0.0, 0.0, 0.0, 0.0, 0.0, 0.0, 0.0, 0.0, 0.0, 1.645921521451794E9, 0.0, 2022-02-27 11:25:21.451
62.0, -1761.7421462228474, -4775.070223220614, -2191.119157209296, -10624.968782063579, -1154.0876214608695, -197.38825528481667, -5829.938451044375, -1876.1160226006537, -3041.3348128002663, -6975.934741012424, -4595.898639666872, -3235.884396539259, -4066.1175925871844, -3080.6738830416066, -10175.2516836228, -15284.681652150352, 0.0115, -0.1085, 0.988, 192.0, 0.0, 0.0, 0.0, 0.0, 0.0, 0.0, 0.0, 0.0, 0.0, 1.645921521458938E9, 0.0, 2022-02-27 11:25:21.458
64.0, -1014.9256604821278, -4205.100739610283, -1658.2312176503203, -10042.996411680748, -479.37786333297055, 307.18002404928495, -5487.263856800063, -1464.8439246230037, -2079.673359355135, -6150.663632233576, -4227.720704999055, -3004.633248404652, -3738.0610392166427, -2694.547497576177, -9857.745153635164, -14480.421183159493, 0.0115, -0.1085, 0.988, 192.0, 0.0, 0.0, 0.0, 0.0, 0.0, 0.0, 0.0, 0.0, 0.0, 1.645921521466526E9, 0.0, 2022-02-27 11:25:21.466
66.0, -1656.5995403050829, -4706.003332853715, -2166.6439970307347, -10603.444052153118, -1083.2996467709122, -175.50589746307105, -5892.7245012193325, -1969.3898522126499, -4536.063019760015, -7182.554266757282, -4384.182916186204, -3244.266300709999, -3775.500211179282, -2892.025159838815, -10311.61967654463, -15729.123738899678, 0.012750000000000001, -0.10625000000000001, 0.989, 192.0, 0.0, 56.0, 126.0, 96.0, 15.0, 120.0, 0.0, 0.0, 0.0, 1.64592152147441E9, 0.0, 2022-02-27 11:25:21.474
68.0, -1405.0753599495126, -4503.474176344178, -1909.8895084726225, -10320.806243515759, -817.4256464750346, 62.3613670303067, -5584.2033725027295, -1556.888408289958, -1568.5336671511732, -6278.560314006843, -4470.795925950519, -3092.4085488806427, -3999.3082284102716, -2910.0406658697925, -9878.62168295642, -14485.316215195206, 0.012750000000000001, -0.10625000000000001, 0.989, 192.0, 0.0, 0.0, 0.0, 0.0, 0.0, 0.0, 0.0, 0.0, 0.0, 1.645921521482598E9, 0.0, 2022-02-27 11:25:21.482
70.0, -1134.7310107625738, -4323.587336967867, -1776.6284080300818, -10182.471297081864, -586.9791611408187, 194.19195582770777, -5630.292669569572, -1675.4197091364515, -3759.8986935494777, -6668.173571607301, -4181.519649209935, -3114.067389257835, -3596.373331114451, -2685.7632620052414, -10091.790269826684, -15170.441886239278, 0.012750000000000001, -0.10625000000000001, 0.989, 192.0, 0.0, 0.0, 0.0, 0.0, 0.0, 0.0, 0.0, 0.0, 0.0, 1.645921521489178E9, 0.0, 2022-02-27 11:25:21.489
72.0, -1787.916038980012, -4817.918517341437, -2202.5185468815025, -10641.442017727139, -1153.3053104049338, -206.26189783357358, -5814.135767714473, -1864.426060250528, -3107.205403710056, -7028.841320138135, -4616.194023632291, -3273.1671062907108, -4063.7483076749218, -3084.3842726211874, -10183.432422093443, -15298.271512779178, 0.012750000000000001, -0.10625000000000001, 0.989, 192.0, 0.0, 0.0, 0.0, 0.0, 0.0, 0.0, 0.0, 0.0, 0.0, 1.645921521497002E9, 0.0, 2022-02-27 11:25:21.497
74.0, -1057.237512736024, -4255.436868123636, -1662.276883396731, -10051.199501895846, -477.880296454465, 304.63192518138, -5462.788696621501, -1469.4260322363416, -2052.2701206529287, -6164.633472518143, -4247.367888375269, -3028.3260975272774, -3752.8131905571454, -2710.327829161624, -9852.850121599451, -14471.502837121825, 0.012750000000000001, -0.10625000000000001, 0.989, 192.0, 0.0, 0.0, 0.0, 0.0, 0.0, 0.0, 0.0, 0.0, 0.0, 1.645921521512172E9, 0.0, 2022-02-27 11:25:21.512
76.0, -1671.686967812415, -4735.217062856801, -2155.669290503179, -10584.646235066204, -1049.9731957880492, -160.7090426336578, -5888.030634883718, -1963.0866602762535, -4573.837467889484, -7207.945848458511, -4392.453061634667, -3260.4042602067307, -3771.3874901995055, -2906.687904201496, -10311.910249222547, -15727.40265457662, 0.012375, -0.106125, 0.9915, 192.0, 0.0, 48.0, 126.0, 88.0, 15.5, 8.0, 0.0, 0.0, 0.0, 1.645921521518747E9, 0.0, 2022-02-27 11:25:21.518
78.0, -1464.9556833452802, -4556.134886280881, -1938.6338518421476, -10344.588499616206, -832.2225013044479, 56.68402393865871, -5577.408442188316, -1577.1614405109217, -1644.1272668990216, -6354.958576555083, -4508.659781057809, -3111.6981043455726, -4019.1118739976737, -2941.176645896035, -9895.921933164827, -14520.25199177885, 0.012375, -0.106125, 0.9915, 192.0, 0.0, 0.0, 0.0, 0.0, 0.0, 0.0, 0.0, 0.0, 0.0, 1.645921521526737E9, 0.0, 2022-02-27 11:25:21.526
80.0, -1134.8427694848501, -4310.75743565052, -1763.2173613568975, -10171.407183576488, -568.5389719651904, 210.4640257911713, -5631.700829470257, -1675.9337992589235, -3699.3925213089615, -6634.958879346715, -4188.314579524348, -3104.1208629752236, -3592.171203156853, -2672.91100894344, -10072.523066106209, -15125.447824650744, 0.012375, -0.106125, 0.9915, 192.0, 0.0, 0.0, 0.0, 0.0, 0.0, 0.0, 0.0, 0.0, 0.0, 1.645921521534617E9, 0.0, 2022-02-27 11:25:21.534
82.0, -1797.370826884607, -4810.6765521379175, -2201.2668491920053, -10644.235985784053, -1147.1809324241797, -201.03158963103172, -5798.109566940018, -1854.9712723459331, -3123.1198457622345, -6996.923029055957, -4623.1901196468025, -3257.1185537718006, -4058.6521099391116, -3084.518383087919, -10182.068965681668, -15295.566951700086, 0.012375, -0.106125, 0.9915, 192.0, 0.0, 0.0, 0.0, 0.0, 0.0, 0.0, 0.0, 0.0, 0.0, 1.645921521541422E9, 0.0, 2022-02-27 11:25:21.541
84.0, -1056.7010708690966, -4245.713859285576, -1667.1719154324433, -10057.435638598876, -469.52074402818016, 303.00024783614253, -5454.295033728485, -1457.6243111639394, -2048.5373793288923, -6178.6480162916205, -4257.292062913426, -3039.300804054833, -3741.1902834403854, -2706.997419237783, -9844.222348239702, -14456.81774101469, 0.012375, -0.106125, 0.9915, 192.0, 0.0, 0.0, 0.0, 0.0, 0.0, 0.0, 0.0, 0.0, 0.0, 1.645921521549433E9, 0.0, 2022-02-27 11:25:21.549
86.0, -1668.8259445221358, -4729.65147848743, -2147.1979793546175, -10589.362453146274, -1059.0480040369039, -162.56423742344828, -5876.832410911609, -1978.5093639504153, -4568.785973642584, -7201.307380355285, -4396.230506447614, -3250.54714090194, -3766.26894071924, -2904.922116389527, -10307.70812126495, -15720.808889962304, 0.0121875, -0.1070625, 0.99075, 192.0, 0.0, 48.0, 126.0, 80.0, 15.0, 120.0, 0.0, 0.0, 0.0, 1.645921521557428E9, 0.0, 2022-02-27 11:25:21.557
88.0, -1445.9567005582692, -4549.317604222012, -1913.7563602633907, -10335.04430473379, -815.346934240691, 74.6995299696362, -5570.635863618358, -1569.919475307402, -1593.8805453634914, -6339.178244969636, -4495.1146239178925, -3101.461005385042, -4004.7620540573666, -2936.594538282697, -9876.297101533068, -14502.303540981238, 0.0121875, -0.1070625, 0.99075, 192.0, 0.0, 0.0, 0.0, 0.0, 0.0, 0.0, 0.0, 0.0, 0.0, 1.645921521564551E9, 0.0, 2022-02-27 11:25:21.564
90.0, -1125.723257747085, -4316.837110142364, -1752.0861926181547, -10157.839674692115, -556.3349194925928, 214.68850549322434, -5612.992419361165, -1669.6529590669822, -3691.3235415605955, -6643.497245728641, -4190.370940014236, -3110.0887787447905, -3589.6231042889485, -2671.234628109292, -10068.589159082076, -15127.168908973803, 0.0121875, -0.1070625, 0.99075, 192.0, 0.0, 0.0, 0.0, 0.0, 0.0, 0.0, 0.0, 0.0, 0.0, 1.64592152157111E9, 0.0, 2022-02-27 11:25:21.571
92.0, -1812.659420092037, -4836.448113494887, -2201.1774422141843, -10651.187378309653, -1166.783412311484, -214.9120229377774, -5815.275706681694, -1873.8361446662122, -3216.8407102633373, -7048.82377968118, -4615.05408466507, -3269.4120132222192, -4050.963109846486, -3087.5805720782964, -10197.02228272227, -15344.003181934737, 0.0121875, -0.1070625, 0.99075, 192.0, 0.0, 0.0, 0.0, 0.0, 0.0, 0.0, 0.0, 0.0, 0.0, 1.645921521578909E9, 0.0, 2022-02-27 11:25:21.578
94.0, -1067.0722802963592, -4258.901388514208, -1661.1816479184208, -10059.648461299952, -490.46432858280286, 303.35787574742744, -5460.642929153792, -1453.958625073269, -1994.7590821694234, -6173.685929022543, -4270.010205508495, -3033.623460963185, -3754.914254535944, -2720.408465910967, -9850.704354131742, -14447.698229276924, 0.0121875, -0.1070625, 0.99075, 192.0, 0.0, 0.0, 0.0, 0.0, 0.0, 0.0, 0.0, 0.0, 0.0, 1.645921521587013E9, 0.0, 2022-02-27 11:25:21.587
96.0, -1641.1991883753765, -4709.736074177751, -2129.026011112453, -10571.346947115297, -1045.2122742190688, -155.21051349765224, -5877.905294645464, -1966.3053114778177, -4563.443906717766, -7188.410423804573, -4375.711605037643, -3248.937815301158, -3743.984251497299, -2887.9794940924044, -10306.746996253372, -15714.930381170558, 0.01409375, -0.10553125000000001, 0.989375, 192.0, 0.0, 64.0, 126.0, 96.0, 15.0, 112.0, 0.0, 0.0, 0.0, 1.645921521594134E9, 0.0, 2022-02-27 11:25:21.594
98.0, -1476.7127009287717, -4567.891903864373, -1938.522093119871, -10358.58069164523, -856.9211789275622, 40.300195252918634, -5596.183907530774, -1589.0972720500556, -1647.144752400488, -6373.398765730712, -4506.670475801287, -3113.7097613465503, -4019.380094931137, -2933.15236963658, -9902.3368838235, -14536.389951275582, 0.01409375, -0.10553125000000001, 0.989375, 192.0, 0.0, 0.0, 0.0, 0.0, 0.0, 0.0, 0.0, 0.0, 0.0, 1.645921521601617E9, 0.0, 2022-02-27 11:25:21.601
100.0, -1122.3257925898781, -4310.980953095073, -1752.242654829342, -10166.288634096221, -566.8625911310424, 225.12677015385273, -5619.586183975481, -1662.6568630524712, -3637.0982095120207, -6614.149405258823, -4188.582800457812, -3104.880822286704, -3593.2664386351635, -2657.130677357993, -10068.075068959603, -15098.022234204083, 0.01409375, -0.10553125000000001, 0.989375, 192.0, 0.0, 0.0, 0.0, 0.0, 0.0, 0.0, 0.0, 0.0, 0.0, 1.645921521609566E9, 0.0, 2022-02-27 11:25:21.609
102.0, -1810.9383357689783, -4833.676497182429, -2206.9665440281087, -10655.568320222894, -1169.331511179389, -211.89453743631094, -5822.383561418482, -1874.7078626999692, -3242.0534780089233, -7063.1735996214875, -4617.691590510797, -3278.531524959985, -4054.0252988368634, -3095.4260343821093, -10209.695721828428, -15352.876824483494, 0.01409375, -0.10553125000000001, 0.989375, 192.0, 0.0, 0.0, 0.0, 0.0, 0.0, 0.0, 0.0, 0.0, 0.0, 1.645921521618007E9, 0.0, 2022-02-27 11:25:21.618
104.0, -1062.3337104718341, -4253.4475628671125, -1662.6568630524712, -10058.75439152174, -492.56539256160175, 299.53572744556993, -5469.248350769085, -1451.7458023721938, -1992.4792042349823, -6171.294292365825, -4270.479592142056, -3041.111295355713, -3766.26894071924, -2718.0168292542494, -9853.207749510735, -14446.714752520891, 0.01409375, -0.10553125000000001, 0.989375, 192.0, 0.0, 0.0, 0.0, 0.0, 0.0, 0.0, 0.0, 0.0, 0.0, 1.645921521623791E9, 0.0, 2022-02-27 11:25:21.623
106.0, -1635.700659239371, -4701.3765217514665, -2135.6644792156794, -10571.659871537671, -1039.3114136828679, -145.9121878042445, -5882.062719114151, -1970.7309568799685, -4559.599406671454, -7175.08878410921, -4373.185857914193, -3234.319774427387, -3754.8471993025782, -2885.543153946776, -10313.027836445313, -15714.68451198155, 0.014046875, -0.103765625, 0.9886874999999999, 192.0, 0.0, 56.0, 126.0, 104.0, 15.0, 112.0, 0.0, 0.0, 0.0, 1.645921521639245E9, 0.0, 2022-02-27 11:25:21.639
108.0, -1460.8876658544143, -4552.826828101495, -1932.844750028223, -10345.1919967165, -844.9406438995176, 57.62279720578161, -5594.976913330187, -1582.9952458137568, -1621.3284875546085, -6355.763239355474, -4501.350760620923, -3087.8711447562155, -4011.7134465829668, -2931.431285313521, -9902.359235567956, -14529.550317472258, 0.014046875, -0.103765625, 0.9886874999999999, 192.0, 0.0, 0.0, 0.0, 0.0, 0.0, 0.0, 0.0, 0.0, 0.0, 1.645921521647408E9, 0.0, 2022-02-27 11:25:21.647
110.0, -1113.3627430633, -4302.643752413243, -1743.3913640250403, -10152.765828700762, -556.0666985591291, 218.95768868418799, -5621.150806087352, -1668.9824067333232, -3622.368409915973, -6608.807338334005, -4186.2358672900045, -3099.8740315287155, -3596.9321247258335, -2674.453279310856, -10071.383127138988, -15102.13495518386, 0.014046875, -0.103765625, 0.9886874999999999, 192.0, 0.0, 0.0, 0.0, 0.0, 0.0, 0.0, 0.0, 0.0, 0.0, 1.645921521655361E9, 0.0, 2022-02-27 11:25:21.655
112.0, -1808.6361060900815, -4831.418970992443, -2205.871308549799, -10654.674250444681, -1160.1896476971683, -212.45333104769364, -5820.48366313978, -1889.8623454406675, -3219.5676230868844, -7055.4845995288615, -4612.953020686272, -3271.2225045230994, -4052.7959528918213, -3093.302618658855, -10208.779300305761, -15361.214025165324, 0.014046875, -0.103765625, 0.9886874999999999, 192.0, 0.0, 0.0, 0.0, 0.0, 0.0, 0.0, 0.0, 0.0, 0.0, 1.645921521661998E9, 0.0, 2022-02-27 11:25:21.661
114.0, -1070.6709111536636, -4261.516542615479, -1673.85508702458, -10058.776743266195, -491.13488091646207, 302.597916435947, -5467.124935045831, -1466.185029290322, -1992.2109833015186, -6148.02612638785, -4266.523333373468, -3028.437856249554, -3758.5799406266146, -2723.023620012238, -9846.591633151966, -14453.86731074659, 0.014046875, -0.103765625, 0.9886874999999999, 192.0, 0.0, 0.0, 0.0, 0.0, 0.0, 0.0, 0.0, 0.0, 0.0, 1.645921521669986E9, 0.0, 2022-02-27 11:25:21.669
116.0, -1625.6200224900274, -4695.475661215265, -2131.8870344027323, -10555.454856807573, -1031.2647856789572, -135.0939434878759, -5875.915989388942, -1966.551180666826, -4569.389470742878, -7180.140278356109, -4379.623160317321, -3234.7668093164934, -3735.0659054596313, -2872.0427002957704, -10305.316484608233, -15713.589276503239, 0.014, -0.106, 0.992, 192.0, 0.0, 56.0, 126.0, 88.0, 15.5, 0.0, 0.0, 0.0, 0.0, 1.645921521676482E9, 0.0, 2022-02-27 11:25:21.676
118.0, -1468.6213694359506, -4562.840409617474, -1941.00313675441, -10349.23766246291, -865.7724697318638, 41.70835515360298, -5603.738797156668, -1601.4130832449298, -1645.110743655055, -6381.512448967987, -4506.916344990295, -3097.5718018498187, -4022.5987461327013, -2941.6236807851415, -9903.119194879437, -14548.549300259268, 0.014, -0.106, 0.992, 192.0, 0.0, 0.0, 0.0, 0.0, 0.0, 0.0, 0.0, 0.0, 0.0, 1.64592152168454E9, 0.0, 2022-02-27 11:25:21.684
120.0, -1078.4716699685657, -4271.03838575344, -1732.6401749420377, -10130.212918545356, -549.6740996449113, 235.54268307002582, -5618.803872919545, -1666.0319764652224, -3559.6494149743817, -6573.44687860571, -4173.405965972658, -3072.9178277156147, -3591.791223501113, -2663.2997588276576, -10056.765086265217, -15071.960100169195, 0.014, -0.106, 0.992, 192.0, 0.0, 0.0, 0.0, 0.0, 0.0, 0.0, 0.0, 0.0, 0.0, 1.645921521691594E9, 0.0, 2022-02-27 11:25:21.691
122.0, -1787.8489837466461, -4810.721255626829, -2202.026808503486, -10645.219462540086, -1175.7017583491515, -207.49124377861546, -5838.230948237294, -1896.2549443548853, -3282.2866180284764, -7045.828645924169, -4602.402997303367, -3245.4732949105855, -4039.317850985271, -3082.9984644649585, -10213.920201530482, -15372.836932282084, 0.014, -0.106, 0.992, 192.0, 0.0, 0.0, 0.0, 0.0, 0.0, 0.0, 0.0, 0.0, 0.0, 1.645921521699731E9, 0.0, 2022-02-27 11:25:21.699
124.0, -1058.1539342586916, -4251.45825761059, -1665.629645065027, -10061.257786900735, -498.5333083311687, 308.7446461611565, -5468.801315879979, -1471.9741311042467, -1923.3229068902622, -6142.237024573926, -4265.2492839395145, -3018.1560538001127, -3762.133867995008, -2719.737913577308, -9841.763656349618, -14429.325095334661, 0.014, -0.106, 0.992, 192.0, 0.0, 0.0, 0.0, 0.0, 0.0, 0.0, 0.0, 0.0, 0.0, 1.645921521706162E9, 0.0, 2022-02-27 11:25:21.706
126.0, -1608.2974205371645, -4681.818745353073, -2118.3642290072717, -10563.009746433467, -1032.3823729017226, -135.40686791025018, -5888.902352917476, -1973.4578697035158, -4558.23595025968, -7147.6408419180925, -4362.479372320101, -3238.834826807359, -3728.1145129340307, -2861.067993768215, -10303.863621218637, -15701.206410075, 0.014, -0.108, 0.99, 192.0, 0.0, 56.0, 126.0, 80.0, 15.0, 120.0, 0.0, 0.0, 0.0, 1.645921521714183E9, 0.0, 2022-02-27 11:25:21.714
128.0, -1462.3852327329198, -4568.7189184092185, -1940.5337501208485, -10362.425191691542, -860.1398301291264, 40.88134060875662, -5610.243154793162, -1599.5131849662287, -1625.0388771341893, -6368.235512761536, -4504.569411822487, -3102.109205974246, -4013.5015861393913, -2948.1056866771805, -9908.729482737719, -14545.64357348008, 0.014, -0.108, 0.99, 192.0, 0.0, 0.0, 0.0, 0.0, 0.0, 0.0, 0.0, 0.0, 0.0, 1.645921521722246E9, 0.0, 2022-02-27 11:25:21.722
130.0, -1094.1849463206465, -4297.793423866442, -1732.081381330655, -10139.779465172227, -545.7848961096879, 234.89448248082192, -5630.024448636109, -1681.9687702618564, -3557.1683713398425, -6598.21261146219, -4182.6372364327, -3093.0567494698466, -3597.3568078704848, -2683.8633637265402, -10067.315109648122, -15072.74241122513, 0.014, -0.108, 0.99, 192.0, 0.0, 0.0, 0.0, 0.0, 0.0, 0.0, 0.0, 0.0, 0.0, 1.64592152172927E9, 0.0, 2022-02-27 11:25:21.729
132.0, -1811.6312398470927, -4839.644412951996, -2214.67789586519, -10654.853064400324, -1183.5695723974195, -221.99752593010976, -5849.20565476485, -1931.391886638628, -3313.6014120103614, -7074.774154993792, -4615.098788153981, -3267.467411454608, -4051.7677726468773, -3097.9294297611036, -10226.884213314559, -15394.294606959178, 0.014, -0.108, 0.99, 192.0, 0.0, 0.0, 0.0, 0.0, 0.0, 0.0, 0.0, 0.0, 0.0, 1.645921521736735E9, 0.0, 2022-02-27 11:25:21.736
134.0, -1079.0304635799484, -4276.0451765114285, -1679.4430231384067, -10074.914702762926, -508.43513112486977, 304.00607633663134, -5485.98980736611, -1452.3940029613975, -1940.4443431430273, -6152.988213656929, -4278.36975793478, -3026.8732341376826, -3766.0007197857763, -2729.192701481903, -9846.971612807705, -14435.896508204522, 0.014, -0.108, 0.99, 192.0, 0.0, 0.0, 0.0, 0.0, 0.0, 0.0, 0.0, 0.0, 0.0, 1.645921521744705E9, 0.0, 2022-02-27 11:25:21.744
136.0, -1603.5588507126392, -4693.084024558548, -2108.9988480804977, -10560.595758032294, -1007.0578464338597, -112.98806822157721, -5872.831448654109, -1992.3674455127057, -4581.660578448842, -7164.1364293261095, -4360.2218461301145, -3237.3596116733092, -3724.4711785878158, -2878.859982354639, -10302.075481662212, -15705.2073723325, 0.012, -0.106, 0.998, 192.0, 0.0, 48.0, 126.0, 88.0, 15.5, 24.0, 0.0, 0.0, 0.0, 1.645921521758872E9, 0.0, 2022-02-27 11:25:21.758
138.0, -1476.153907317389, -4584.543953483576, -1962.974901553977, -10385.29102626932, -872.2991791128135, 28.20790150259751, -5610.556079215537, -1625.9329469124016, -1671.821078279147, -6400.9361148996495, -4516.080560216971, -3121.6669823726397, -4013.389827417115, -2955.72763153644, -9913.021017673138, -14576.109001172663, 0.012, -0.106, 0.998, 192.0, 0.0, 0.0, 0.0, 0.0, 0.0, 0.0, 0.0, 0.0, 0.0, 1.645921521766418E9, 0.0, 2022-02-27 11:25:21.766
140.0, -1084.7078066715965, -4291.825508096875, -1721.3748957365628, -10143.57926172963, -539.8393320845762, 245.6680233082799, -5606.957448358232, -1661.5392758297057, -3498.9420770337674, -6580.06299496448, -4177.362224741248, -3104.277325186411, -3590.5842293005267, -2690.0771486851154, -10048.830216983582, -15049.630707458344, 0.012, -0.106, 0.998, 192.0, 0.0, 0.0, 0.0, 0.0, 0.0, 0.0, 0.0, 0.0, 0.0, 1.645921521774449E9, 0.0, 2022-02-27 11:25:21.774
142.0, -1813.9111177815341, -4843.53361648722, -2221.1375500127733, -10673.405012298228, -1187.8387555883833, -224.07623816445331, -5860.627396181512, -1912.325848618251, -3375.225171473643, -7089.660416801026, -4612.2154131192465, -3278.285655770976, -4041.910653342087, -3090.620409324218, -10228.69470461544, -15412.041892056692, 0.012, -0.106, 0.998, 192.0, 0.0, 0.0, 0.0, 0.0, 0.0, 0.0, 0.0, 0.0, 0.0, 1.645921521782333E9, 0.0, 2022-02-27 11:25:21.782
144.0, -1086.78651890594, -4284.717653360088, -1681.1864592059208, -10086.068223246124, -525.0648289996182, 273.6747591107797, -5490.70602544618, -1484.7816806771375, -1896.880793199634, -6156.989175914428, -4284.807060337908, -3043.5476355013416, -3776.774260613234, -2727.1363409920145, -9845.876377329396, -14422.463109786882, 0.012, -0.106, 0.998, 192.0, 0.0, 0.0, 0.0, 0.0, 0.0, 0.0, 0.0, 0.0, 0.0, 1.645921521789007E9, 0.0, 2022-02-27 11:25:21.789
146.0, -1598.730873910293, -4690.491222201732, -2105.4449207121042, -10547.698801481582, -1014.948012226583, -134.55750162094853, -5860.426230481414, -1973.2343522589629, -4574.9997586011605, -7164.6058159596705, -4354.790372227475, -3245.316832699398, -3718.793835496168, -2892.919229617027, -10299.683845005495, -15699.328863540753, 0.01, -0.10200000000000001, 0.994, 192.0, 0.0, 40.0, 126.0, 104.0, 15.5, 8.0, 0.0, 0.0, 0.0, 1.645921521797042E9, 0.0, 2022-02-27 11:25:21.797
148.0, -1495.801090693604, -4595.675122222319, -1967.4676021894936, -10386.520372214363, -889.3535601322127, 25.27982297895229, -5591.221820261696, -1611.60547871655, -1701.794767593714, -6428.898147213238, -4532.017354013605, -3123.1198457622345, -4033.349935215704, -2975.374814912655, -9918.228974131223, -14584.066222198751, 0.01, -0.10200000000000001, 0.994, 192.0, 0.0, 0.0, 0.0, 0.0, 0.0, 0.0, 0.0, 0.0, 0.0, 1.645921521804938E9, 0.0, 2022-02-27 11:25:21.804
150.0, -1063.4289459501442, -4267.931493274152, -1708.1873665079318, -10121.831014374617, -536.1289425049952, 250.47364836617095, -5592.58527667347, -1646.0942204110886, -3463.4028033498294, -6549.686974249718, -4175.283512506904, -3086.977074978003, -3592.484127579228, -2689.428948095912, -10045.477455315287, -15026.07196880245, 0.01, -0.10200000000000001, 0.994, 192.0, 0.0, 0.0, 0.0, 0.0, 0.0, 0.0, 0.0, 0.0, 0.0, 1.645921521811173E9, 0.0, 2022-02-27 11:25:21.811
152.0, -1805.4174548885173, -4828.312078513155, -2210.5204713965027, -10667.191227339654, -1189.6939503781737, -240.10243893890848, -5836.643974380967, -1912.2811451293405, -3379.449651175696, -7083.200762653442, -4597.53031701211, -3259.353728217331, -4033.349935215704, -3102.3550751632542, -10227.152434248022, -15418.747415393284, 0.01, -0.10200000000000001, 0.994, 192.0, 0.0, 0.0, 0.0, 0.0, 0.0, 0.0, 0.0, 0.0, 0.0, 1.645921521818748E9, 0.0, 2022-02-27 11:25:21.818
154.0, -1078.9187048576719, -4271.396013664725, -1675.6208748365493, -10084.257731945245, -527.7470383342551, 284.49300342714827, -5484.1793160652305, -1483.440576009819, -1877.300665056785, -6148.562568254777, -4281.119022502783, -3029.7119056835063, -3775.0308245457204, -2754.7183936498636, -9839.684944115275, -14426.307609833195, 0.01, -0.10200000000000001, 0.994, 192.0, 0.0, 0.0, 0.0, 0.0, 0.0, 0.0, 0.0, 0.0, 0.0, 1.645921521826755E9, 0.0, 2022-02-27 11:25:21.826
156.0, -1576.1779637548882, -4663.177390477346, -2098.113548530763, -10543.630783990715, -1004.822671988329, -114.46328335562747, -5878.486440001302, -1963.3548812097172, -4565.2543980186465, -7144.60100467217, -4342.832188943886, -3228.2848034244544, -3702.0076754102324, -2872.7132526294295, -10295.481717047896, -15701.072299608268, 0.006, -0.10200000000000001, 0.994, 192.0, 0.0, 24.0, 126.0, 104.0, 15.5, 8.0, 0.0, 0.0, 0.0, 1.645921521834927E9, 0.0, 2022-02-27 11:25:21.834
158.0, -1486.3686545334645, -4572.161087055336, -1970.8427156022449, -10389.694319927015, -899.0095137369053, 18.373133942262406, -5628.236309079684, -1619.5850514870945, -1697.5032326582948, -6410.234440593057, -4521.199109697236, -3116.727246848017, -4027.538481657324, -2976.4253469020546, -9923.705151522774, -14593.051623469786, 0.006, -0.10200000000000001, 0.994, 192.0, 0.0, 0.0, 0.0, 0.0, 0.0, 0.0, 0.0, 0.0, 0.0, 1.645921521841248E9, 0.0, 2022-02-27 11:25:21.841
160.0, -1054.2870824679235, -4255.950958246107, -1720.7043434029035, -10117.3383137391, -532.9773465367969, 245.35509888590562, -5590.327750483483, -1639.500455796773, -3431.417457034285, -6521.501424491576, -4172.2660270054375, -3084.518383087919, -3597.982656715233, -2687.0149596947385, -10042.795245980651, -15016.795994853497, 0.006, -0.10200000000000001, 0.994, 192.0, 0.0, 0.0, 0.0, 0.0, 0.0, 0.0, 0.0, 0.0, 0.0, 1.645921521849328E9, 0.0, 2022-02-27 11:25:21.849
162.0, -1813.1511584700536, -4836.783389661717, -2238.415448476726, -10672.019204142, -1204.6472674187742, -241.60000581741403, -5856.782896135199, -1922.004153967399, -3479.540762846561, -7107.675922832003, -4601.2407065916905, -3265.45575445363, -4030.2877462253273, -3097.102415216257, -10239.088265787157, -15449.81634018616, 0.006, -0.10200000000000001, 0.994, 192.0, 0.0, 0.0, 0.0, 0.0, 0.0, 0.0, 0.0, 0.0, 0.0, 1.64592152185724E9, 0.0, 2022-02-27 11:25:21.857
164.0, -1103.6620859696968, -4288.919781317685, -1702.2194507383647, -10100.2839327197, -539.0570210286404, 269.6290933643691, -5462.498123943583, -1469.448383980797, -1837.1569320150534, -6147.0650013762715, -4302.822566368886, -3034.4504755080316, -3802.6575806924798, -2748.5493121801987, -9838.746170848151, -14415.981103894843, 0.006, -0.10200000000000001, 0.994, 192.0, 0.0, 0.0, 0.0, 0.0, 0.0, 0.0, 0.0, 0.0, 0.0, 1.645921521864374E9, 0.0, 2022-02-27 11:25:21.864
166.0, -1596.406292486941, -4681.550524419609, -2112.4633684710707, -10553.219682362043, -1017.1161314387479, -135.67508884371387, -5861.879093871009, -1959.9574160525103, -4572.228142288702, -7153.988737343399, -4355.259758861036, -3243.908672798714, -3723.1300739204976, -2889.410005737544, -10292.106603635146, -15686.655424434593, 0.01, -0.10400000000000001, 0.992, 192.0, 0.0, 40.0, 126.0, 96.0, 15.5, 0.0, 0.0, 0.0, 0.0, 1.645921521871037E9, 0.0, 2022-02-27 11:25:21.871
168.0, -1510.8438147120255, -4594.401072788367, -1980.453965718027, -10402.43481426654, -904.6198015951875, -3.6880378351256655, -5617.976858374698, -1636.3488598285749, -1722.5595381926942, -6407.418120791688, -4546.56833965401, -3134.653345901173, -4049.42083947907, -3026.783827159861, -9929.538956825609, -14608.519030632859, 0.01, -0.10400000000000001, 0.992, 192.0, 0.0, 0.0, 0.0, 0.0, 0.0, 0.0, 0.0, 0.0, 0.0, 1.645921521886923E9, 0.0, 2022-02-27 11:25:21.886
170.0, -1067.6981291411078, -4267.618568851777, -1720.8161021251801, -10123.283877764212, -531.5691866361126, 246.78561053104528, -5583.2645992356065, -1651.4586390803622, -3428.0423436215337, -6543.942575924704, -4190.214477803049, -3091.2239064245114, -3606.8786510084456, -2721.391942667001, -10039.442484312354, -15015.365483208358, 0.01, -0.10400000000000001, 0.992, 192.0, 0.0, 0.0, 0.0, 0.0, 0.0, 0.0, 0.0, 0.0, 0.0, 1.645921521894015E9, 0.0, 2022-02-27 11:25:21.894
172.0, -1826.070466765221, -4844.382982776521, -2238.2589862655386, -10679.417631556706, -1192.4655666906317, -238.9177964827772, -5846.255224496749, -1917.0867701872314, -3482.1782686922875, -7132.285193477296, -4615.344657342989, -3282.5995424508505, -4039.675478896556, -3102.3550751632542, -10246.196120523944, -15447.938793651914, 0.01, -0.10400000000000001, 0.992, 192.0, 0.0, 0.0, 0.0, 0.0, 0.0, 0.0, 0.0, 0.0, 0.0, 1.645921521901679E9, 0.0, 2022-02-27 11:25:21.901
174.0, -1111.17227210668, -4289.567981906889, -1704.3652182060741, -10096.573543140119, -537.782971594688, 262.7224043276792, -5468.17546703523, -1473.3375875160204, -1845.8964640970785, -6156.095106136216, -4303.47076695809, -3035.724524941984, -3794.141566055008, -2766.676576933453, -9840.400199937845, -14405.408728767483, 0.01, -0.10400000000000001, 0.992, 192.0, 0.0, 0.0, 0.0, 0.0, 0.0, 0.0, 0.0, 0.0, 0.0, 1.645921521909586E9, 0.0, 2022-02-27 11:25:21.909
176.0, -1578.1672690114106, -4657.522399130154, -2097.487699686015, -10527.045789604877, -994.4514625610665, -115.60322232284813, -5854.3912594784815, -1961.6114451422031, -4580.833563903995, -7144.422190716528, -4350.4764855476005, -3234.3868296607534, -3710.0990069030536, -2884.2020492794572, -10290.519629778819, -15679.704031908994, 0.012, -0.108, 0.994, 192.0, 0.0, 48.0, 126.0, 80.0, 15.5, 8.0, 0.0, 0.0, 0.0, 1.64592152191672E9, 0.0, 2022-02-27 11:25:21.916
178.0, -1547.4783238742739, -4624.441817336299, -2000.257611305429, -10418.461015040995, -926.2562902279246, -17.099084508309904, -5627.364591045927, -1646.921234955935, -1779.6458935315484, -6464.504476130543, -4557.5653979260205, -3139.235453514511, -4050.1807987905504, -3012.88104210866, -9940.446608119799, -14635.832862357243, 0.012, -0.108, 0.994, 192.0, 0.0, 0.0, 0.0, 0.0, 0.0, 0.0, 0.0, 0.0, 0.0, 1.645921521924393E9, 0.0, 2022-02-27 11:25:21.924
180.0, -1074.4036524776998, -4265.875132784264, -1717.9327270904455, -10122.255697519267, -519.7674655637104, 250.16072394379665, -5567.037232761054, -1623.6754207224155, -3372.2747412055423, -6513.901831376771, -4191.130899325717, -3094.1296332037014, -3602.341246884018, -2697.944962733384, -10025.115016116502, -14981.68140431421, 0.012, -0.108, 0.994, 192.0, 0.0, 0.0, 0.0, 0.0, 0.0, 0.0, 0.0, 0.0, 0.0, 1.645921521932201E9, 0.0, 2022-02-27 11:25:21.932
182.0, -1834.1170947691317, -4858.062250383169, -2244.0033845905527, -10694.817983486413, -1189.4480811891654, -237.6884505377353, -5828.3291254435935, -1911.4094270955834, -3522.858443600946, -7137.247280746375, -4609.5108520401545, -3309.3769323083084, -4022.1070077546847, -3113.8662235577376, -10236.473111685886, -15462.24391010331, 0.012, -0.108, 0.994, 192.0, 0.0, 0.0, 0.0, 0.0, 0.0, 0.0, 0.0, 0.0, 0.0, 1.645921521939238E9, 0.0, 2022-02-27 11:25:21.939
184.0, -1121.8564059563168, -4301.973200079585, -1716.658677656493, -10108.24115374579, -536.3524599495482, 269.07029975298644, -5456.843132596389, -1464.0839653115231, -1839.4591616939501, -6156.698603236509, -4311.070360072895, -3052.7342024724726, -3795.5720777001475, -2760.4627919748777, -9825.648048597342, -14402.793574666211, 0.013000000000000001, -0.11, 0.996, 192.0, 0.0, 56.0, 126.0, 64.0, 15.5, 24.0, 0.0, 0.0, 0.0, 1.645921521946449E9, 0.0, 2022-02-27 11:25:21.946
186.0, -1583.9340190808796, -4677.147230761913, -2112.5527754488917, -10532.589022229795, -979.2522763314578, -105.3661233623175, -5838.476817426303, -1953.0283752713651, -4589.953075641761, -7135.2579754898525, -4352.510494293034, -3246.2779577109764, -3700.823032954101, -2885.923133602516, -10279.544923251262, -15672.395011472108, 0.013000000000000001, -0.11, 0.996, 192.0, 0.0, 0.0, 0.0, 0.0, 0.0, 0.0, 0.0, 0.0, 0.0, 1.645921521953983E9, 0.0, 2022-02-27 11:25:21.953
188.0, -1544.1702656948885, -4633.315459885056, -2001.5987159727474, -10418.036331896345, -907.4808248854667, -5.185604713631238, -5610.980762360187, -1633.6219470050273, -1766.9053991920232, -6463.856275541339, -4558.99590957116, -3165.945788138603, -4045.1740080325617, -3032.818798162794, -9929.762474270163, -14623.248830228906, 0.013000000000000001, -0.11, 0.996, 192.0, 0.0, 0.0, 0.0, 0.0, 0.0, 0.0, 0.0, 0.0, 0.0, 1.645921521961946E9, 0.0, 2022-02-27 11:25:21.961
190.0, -1078.1810972906467, -4281.946037047629, -1723.0065730818003, -10115.863098605048, -501.6625525549117, 252.5076571116039, -5560.219950702185, -1618.5792229866056, -3381.036625032023, -6521.456721002665, -4198.395216273691, -3111.2957729453774, -3617.853357536001, -2723.5377101347103, -10015.012027622704, -14975.601729822367, 0.013000000000000001, -0.11, 0.996, 192.0, 0.0, 0.0, 0.0, 0.0, 0.0, 0.0, 0.0, 0.0, 0.0, 1.645921521969885E9, 0.0, 2022-02-27 11:25:21.969
192.0, -1836.4416761924836, -4859.29159632821, -2253.502875984058, -10694.058024174932, -1190.6103719008413, -246.38327913084976, -5838.990907548775, -1930.9672034939772, -3573.1051651364764, -7123.6350683730925, -4609.868479951439, -3307.2758683295096, -4027.1808537460392, -3132.7981511113826, -10243.849187356138, -15479.790029500728, 0.013000000000000001, -0.11, 0.996, 192.0, 0.0, 0.0, 0.0, 0.0, 0.0, 0.0, 0.0, 0.0, 0.0, 1.645921521976554E9, 0.0, 2022-02-27 11:25:21.976
194.0, -1128.6960397596408, -4313.149072307238, -1714.468206699873, -10114.253773004268, -531.0103930247299, 262.78945956104513, -5458.094830285887, -1471.3929857484086, -1820.1249027401095, -6151.423591545056, -4303.560173935911, -3052.242464094456, -3801.785862658723, -2783.865068419584, -9829.201975965736, -14399.194943808907, 0.013500000000000002, -0.111, 0.996, 192.0, 0.0, 56.0, 126.0, 64.0, 15.5, 16.0, 0.0, 0.0, 0.0, 1.645921521984539E9, 0.0, 2022-02-27 11:25:21.984
196.0, -1532.3014893891204, -4639.01515472116, -2080.7462430889896, -10515.60169644376, -939.2203020120028, -77.02411139298813, -5825.781026575688, -1940.645508843125, -4566.148467796858, -7112.50389963435, -4343.323927321902, -3259.1749142616886, -3681.8016984226347, -2874.6802061414965, -10277.957949394937, -15664.393086957109, 0.013500000000000002, -0.111, 0.996, 192.0, 0.0, 0.0, 0.0, 0.0, 0.0, 0.0, 0.0, 0.0, 0.0, 1.645921521992383E9, 0.0, 2022-02-27 11:25:21.992
198.0, -1588.2926092496646, -4661.165733476369, -2017.2449370914624, -10443.07028568629, -936.6722031440978, -16.763808341480296, -5627.6998672127565, -1657.8065345056696, -1828.0597720217434, -6492.265342744034, -4545.048421031049, -3168.069203861857, -4064.061232097296, -3036.216263320001, -9943.68761106582, -14667.080601105763, 0.013500000000000002, -0.111, 0.996, 192.0, 0.0, 0.0, 0.0, 0.0, 0.0, 0.0, 0.0, 0.0, 0.0, 1.645921522006166E9, 0.0, 2022-02-27 11:25:22.006
200.0, -1070.268579753468, -4275.79930732242, -1711.3613142205852, -10106.408310700454, -499.5391368316575, 261.3589479159055, -5550.1616656972965, -1616.6569729634493, -3311.075664886912, -6470.4947436445655, -4195.713006939055, -3142.3423459937985, -3623.106017482998, -2699.777805778719, -10003.545582717132, -14939.77188346051, 0.013500000000000002, -0.111, 0.996, 192.0, 0.0, 0.0, 0.0, 0.0, 0.0, 0.0, 0.0, 0.0, 0.0, 1.645921522014065E9, 0.0, 2022-02-27 11:25:22.014
202.0, -1837.0004698038663, -4858.53163701673, -2239.1307042992958, -10691.219352629108, -1186.2517817320565, -241.75646802860118, -5850.658518154445, -1951.4861049039491, -3662.378032490973, -7175.781688187324, -4583.940456383283, -3305.0630456284343, -4009.4559203929807, -3112.9498020350698, -10248.140722291557, -15512.155355472012, 0.013500000000000002, -0.111, 0.996, 192.0, 0.0, 0.0, 0.0, 0.0, 0.0, 0.0, 0.0, 0.0, 0.0, 1.645921522022128E9, 0.0, 2022-02-27 11:25:22.022
204.0, -1133.7028305176295, -4312.612630440311, -1711.6742386429596, -10103.748453110273, -539.8393320845762, 277.5863143904584, -5474.590417693904, -1464.9780350897356, -1758.367032810096, -6136.671440204554, -4313.014961840506, -3044.374650046188, -3819.2202233338626, -2783.127460852559, -9824.709275330219, -14391.595350694102, 0.014750000000000001, -0.1095, 0.992, 192.0, 0.0, 64.0, 126.0, 80.0, 15.0, 112.0, 0.0, 0.0, 0.0, 1.645921522028854E9, 0.0, 2022-02-27 11:25:22.028
206.0, -1538.2694051586873, -4636.48940759771, -2069.771536561434, -10508.493841706973, -944.2941480033575, -84.10961438532048, -5818.315543927615, -1950.5249798923708, -4544.154351252836, -7090.621541812604, -4313.059665329417, -3237.2478529510327, -3689.5801054930816, -2870.3216159727117, -10264.345737021655, -15648.076313504735, 0.014750000000000001, -0.1095, 0.992, 192.0, 0.0, 0.0, 0.0, 0.0, 0.0, 0.0, 0.0, 0.0, 0.0, 1.645921522036826E9, 0.0, 2022-02-27 11:25:22.036
208.0, -1534.8495882570253, -4616.015209676649, -1997.2177740595073, -10418.930401674557, -923.9317088045727, -11.309982694385374, -5637.2664138396285, -1669.4741451113398, -1794.5321553387828, -6476.149734991758, -4541.203920984736, -3154.367584510754, -4051.61131043569, -3021.575870701775, -9931.3941516154, -14651.99317359843, 0.014750000000000001, -0.1095, 0.992, 192.0, 0.0, 0.0, 0.0, 0.0, 0.0, 0.0, 0.0, 0.0, 0.0, 1.645921522044695E9, 0.0, 2022-02-27 11:25:22.044
210.0, -1024.469855364544, -4223.250356107993, -1692.1611657334765, -10085.352967423554, -493.9959042067414, 294.2607157541175, -5587.444375448749, -1616.1875863298878, -3258.906693328225, -6469.578322121897, -4163.995881556974, -3084.5407348323747, -3606.051636463599, -2684.0868811710934, -10008.686483941852, -14937.827281692897, 0.014750000000000001, -0.1095, 0.992, 192.0, 0.0, 0.0, 0.0, 0.0, 0.0, 0.0, 0.0, 0.0, 0.0, 1.645921522051983E9, 0.0, 2022-02-27 11:25:22.051
212.0, -1806.5350421112828, -4823.417046477442, -2230.7935036174663, -10673.382660553772, -1196.9359155816933, -234.536854569537, -5822.830596307587, -1946.1216862346753, -3631.4208664203725, -7118.784739826291, -4567.4225172308115, -3295.876478657303, -4001.789272044811, -3108.7476740774723, -10252.83458862717, -15509.987236259847, 0.014750000000000001, -0.1095, 0.992, 192.0, 0.0, 0.0, 0.0, 0.0, 0.0, 0.0, 0.0, 0.0, 0.0, 1.645921522058463E9, 0.0, 2022-02-27 11:25:22.058
214.0, -1116.2014146091242, -4296.206450010115, -1706.24276474032, -10106.363607211544, -557.1619340374391, 264.10821248390823, -5451.03167903801, -1453.153962272878, -1746.431201270962, -6130.167082568059, -4297.704016888621, -3039.725487199484, -3820.203700089896, -2796.4043970590114, -9814.002789736127, -14385.001586079787, 0.013375000000000001, -0.10975, 0.99, 192.0, 0.0, 48.0, 126.0, 72.0, 15.0, 112.0, 0.0, 0.0, 0.0, 1.645921522066434E9, 0.0, 2022-02-27 11:25:22.066
216.0, -1497.5892302500285, -4601.285410080602, -2046.5704258168253, -10478.386041925674, -934.8840635876732, -56.10287858282073, -5831.972459789808, -1918.9866684659326, -4543.461447174722, -7072.136649148065, -4304.543650691945, -3221.847501021326, -3683.858058912523, -2852.864903553117, -10262.959928865424, -15636.922793021537, 0.013375000000000001, -0.10975, 0.99, 192.0, 0.0, 0.0, 0.0, 0.0, 0.0, 0.0, 0.0, 0.0, 0.0, 1.645921522074518E9, 0.0, 2022-02-27 11:25:22.074
218.0, -1548.081820974567, -4615.9705061877385, -2010.4947102659596, -10438.264660628398, -948.2280550274916, -27.31383172438523, -5626.984611390187, -1663.238008408309, -1865.3201300287403, -6509.520889463532, -4553.027993801594, -3157.5862357123183, -4063.3683280191817, -3039.144341843646, -9954.125875726448, -14693.880342707676, 0.013375000000000001, -0.10975, 0.99, 192.0, 0.0, 0.0, 0.0, 0.0, 0.0, 0.0, 0.0, 0.0, 0.0, 1.645921522081654E9, 0.0, 2022-02-27 11:25:22.081
220.0, -1017.2055384165691, -4224.8596817087755, -1675.4867643698174, -10081.62022609952, -492.87831698397605, 288.71748312920136, -5557.001299500621, -1596.2274785312986, -3190.286837850432, -6438.598804306842, -4166.141649024684, -3076.1811824060896, -3608.420921375862, -2692.4911370862887, -9988.726376143262, -14903.606760931822, 0.013375000000000001, -0.10975, 0.99, 192.0, 0.0, 0.0, 0.0, 0.0, 0.0, 0.0, 0.0, 0.0, 0.0, 1.645921522089042E9, 0.0, 2022-02-27 11:25:22.089
222.0, -1803.4505013764503, -4835.308174527666, -2232.4698844516142, -10678.50121003404, -1204.4684534631317, -228.92656671125494, -5857.3863932354925, -1942.8583315442006, -3706.6791900013914, -7143.103437793665, -4567.489572464177, -3276.162240047722, -3993.1167951961515, -3087.915848245126, -10259.540111963763, -15528.762701602305, 0.013375000000000001, -0.10975, 0.99, 192.0, 0.0, 0.0, 0.0, 0.0, 0.0, 0.0, 0.0, 0.0, 0.0, 1.645921522097037E9, 0.0, 2022-02-27 11:25:22.097
224.0, -1123.0410484124482, -4306.130624548272, -1713.0376950547334, -10109.291685735188, -574.3504255235703, 260.33076767096134, -5463.995690822088, -1473.382291004931, -1705.371046706563, -6131.955222124484, -4313.149072307238, -3036.5515394868303, -3833.815912463178, -2790.145908611525, -9827.302077687034, -14379.011318565765, 0.0116875, -0.112875, 0.99, 192.0, 0.0, 40.0, 126.0, 48.0, 15.0, 120.0, 0.0, 0.0, 0.0, 1.645921522105069E9, 0.0, 2022-02-27 11:25:22.105
226.0, -1499.958515162291, -4604.3475990709785, -2048.962062473543, -10482.878742561192, -946.372860237701, -76.71118697061384, -5829.089084755074, -1950.7708490813793, -4517.935755006762, -7051.975375649378, -4294.530069175968, -3212.9291549836585, -3685.8026606801345, -2841.733734814374, -10268.145533579056, -15630.686656318505, 0.0116875, -0.112875, 0.99, 192.0, 0.0, 0.0, 0.0, 0.0, 0.0, 0.0, 0.0, 0.0, 0.0, 1.645921522111725E9, 0.0, 2022-02-27 11:25:22.111
228.0, -1545.153742450922, -4627.928689471328, -2003.4092072736273, -10434.487215815452, -955.7829446533854, -25.235119490041672, -5631.343201558972, -1665.696700298393, -1838.8556645936567, -6488.085566530892, -4548.669403632808, -3158.2120845570666, -4074.2312758244607, -3023.0063823469145, -9955.221111204757, -14682.458601291013, 0.0116875, -0.112875, 0.99, 192.0, 0.0, 0.0, 0.0, 0.0, 0.0, 0.0, 0.0, 0.0, 0.0, 1.645921522118678E9, 0.0, 2022-02-27 11:25:22.118
230.0, -1024.693372809097, -4240.483551083034, -1671.955188745879, -10080.636749343485, -499.82970950957656, 288.51631742910354, -5552.598005842925, -1602.1059873230442, -3199.0263699324573, -6452.814513780417, -4171.930750838608, -3076.0917754282686, -3621.8096163045907, -2678.2083723793476, -10002.316236772089, -14910.446394735145, 0.0116875, -0.112875, 0.99, 192.0, 0.0, 0.0, 0.0, 0.0, 0.0, 0.0, 0.0, 0.0, 0.0, 1.645921522134787E9, 0.0, 2022-02-27 11:25:22.134
232.0, -1828.8644348221344, -4866.175933620445, -2232.4251809627035, -10687.710128749624, -1197.6735231487182, -231.18409290124094, -5867.109402073551, -1945.1382094786418, -3715.619887783514, -7169.076164850732, -4575.9385318682835, -3288.6345134537833, -3999.509394110369, -3088.206420923045, -10268.883141146081, -15538.865690096103, 0.0116875, -0.112875, 0.99, 192.0, 0.0, 0.0, 0.0, 0.0, 0.0, 0.0, 0.0, 0.0, 0.0, 1.645921522141376E9, 0.0, 2022-02-27 11:25:22.141
234.0, -1182.6755026192072, -4366.614445044333, -1715.1834625224428, -10128.313020266654, -553.5185996912242, 271.9313230432657, -5461.089964042898, -1457.7584216306714, -1716.8151398676803, -6154.575187513255, -4319.608726454821, -3058.143324630657, -3823.75762745829, -2790.8611644340954, -9829.246679454647, -14380.575940677636, 0.01084375, -0.1134375, 0.991, 192.0, 0.0, 40.0, 126.0, 56.0, 15.5, 0.0, 0.0, 0.0, 0.0, 1.645921522149312E9, 0.0, 2022-02-27 11:25:22.149
236.0, -1575.3509492100418, -4690.468870457276, -2036.4674373230264, -10477.894303547657, -896.729635802464, -33.8628928497902, -5790.085290680563, -1901.5299560463377, -4544.5343309085765, -7088.945160978456, -4315.741874664053, -3243.998079776535, -3674.984416363766, -2840.549092358243, -10257.304937518233, -15618.080272445712, 0.01084375, -0.1134375, 0.991, 192.0, 0.0, 0.0, 0.0, 0.0, 0.0, 0.0, 0.0, 0.0, 0.0, 1.645921522158365E9, 0.0, 2022-02-27 11:25:22.158
238.0, -1718.0891893016326, -4798.6960171098735, -2032.2429576209734, -10473.69217559006, -939.3544124787346, -22.239985733030526, -5624.347105544461, -1663.729746786326, -1948.9827095249545, -6578.498372852609, -4593.261133821146, -3202.133262411745, -4073.3372060462484, -3042.6088622342186, -9961.63606186343, -14716.321494140804, 0.01084375, -0.1134375, 0.991, 192.0, 0.0, 0.0, 0.0, 0.0, 0.0, 0.0, 0.0, 0.0, 0.0, 1.645921522163884E9, 0.0, 2022-02-27 11:25:22.163
240.0, -1230.8658636648493, -4445.381992504835, -1688.629590109538, -10105.156613010957, -456.914360155387, 316.1654253203184, -5516.991676925621, -1562.5881031260615, -3188.6998639941057, -6491.013645054537, -4222.535100285423, -3123.231604484511, -3627.7775320741575, -2698.995494722783, -9977.25993123769, -14871.464952405091, 0.01084375, -0.1134375, 0.991, 192.0, 0.0, 0.0, 0.0, 0.0, 0.0, 0.0, 0.0, 0.0, 0.0, 1.645921522171976E9, 0.0, 2022-02-27 11:25:22.171
242.0, -2074.286588941406, -5096.935343377036, -2256.1403818297845, -10715.560402340938, -1176.2158484716235, -209.79347345751208, -5829.670230110912, -1912.7952352518125, -3823.2882408247283, -7249.564796634293, -4648.447590881299, -3368.832572559425, -4017.457844907981, -3109.7311508335056, -10263.876350388093, -15533.434216193464, 0.01084375, -0.1134375, 0.991, 192.0, 0.0, 0.0, 0.0, 0.0, 0.0, 0.0, 0.0, 0.0, 0.0, 1.645921522179938E9, 0.0, 2022-02-27 11:25:22.179
244.0, -1413.099636208968, -4600.726616469218, -1740.0833058456549, -10151.938814155916, -548.48945718878, 268.3773956748719, -5440.995745777577, -1444.2356162352105, -1801.5729548422046, -6209.046388750839, -4394.308256424458, -3137.4249622136313, -3846.690517269435, -2783.2392195748353, -9820.194222950247, -14370.025917294732, 0.013421875, -0.10971875, 0.9884999999999999, 192.0, 0.0, 64.0, 126.0, 88.0, 15.0, 104.0, 0.0, 0.0, 0.0, 1.645921522187099E9, 0.0, 2022-02-27 11:25:22.187
246.0, -1768.5147247928055, -4884.817288496171, -2059.2438649229844, -10502.972960826512, -896.5955253357322, -34.01935506097735, -5781.792793487643, -1895.3161710877623, -4617.713942255252, -7159.934301368511, -4379.489049850589, -3308.6840282301937, -3684.886239157467, -2849.735659329374, -10250.55471069273, -15607.99963569637, 0.013421875, -0.10971875, 0.9884999999999999, 192.0, 0.0, 0.0, 0.0, 0.0, 0.0, 0.0, 0.0, 0.0, 0.0, 1.645921522193523E9, 0.0, 2022-02-27 11:25:22.193
