%OpenBCI Raw EEG Data
%Number of channels = 16
%Sample Rate = 125 Hz
%Board = OpenBCI_GUI$BoardCytonSerialDaisy
Sample Index, EXG Channel 0, EXG Channel 1, EXG Channel 2, EXG Channel 3, EXG Channel 4, EXG Channel 5, EXG Channel 6, EXG Channel 7, EXG Channel 8, EXG Channel 9, EXG Channel 10, EXG Channel 11, EXG Channel 12, EXG Channel 13, EXG Channel 14, EXG Channel 15, Accel Channel 0, Accel Channel 1, Accel Channel 2, Other, Other, Other, Other, Other, Other, Other, Analog Channel 0, Analog Channel 1, Analog Channel 2, Timestamp, Other, Timestamp (Formatted)
30.0, -1311.4439024262313, -4513.040722971049, -1824.4387894199838, -10366.649671393594, -714.8981946585411, 263.3929566613384, -5319.223441985064, -1597.926211109902, -3931.135407821585, -6881.766841622215, -4147.701459849055, -2974.5254486233534, -3698.051416641643, -2687.7525672617635, -10081.687281332885, -15136.578993389487, 0.012, -0.1, 0.9520000000000001, 192.0, 0.0, 48.0, 126.0, 112.0, 14.5, 96.0, 0.0, 0.0, 0.0, 1.645921450786351E9, 0.0, 2022-02-27 11:24:10.786
32.0, -1826.4727981654166, -4887.700663530906, -2121.6275836977466, -10691.666387518215, -1149.1478859362467, -16.67440136365907, -5382.389471815762, -1654.2973106261863, -2656.1472006019594, -6958.053345448178, -4556.648976403353, -3060.1996851205454, -4161.380727455703, -3031.343583028744, -10046.013897182214, -14950.880700454796, 0.012, -0.1, 0.9520000000000001, 192.0, 0.0, 0.0, 0.0, 0.0, 0.0, 0.0, 0.0, 0.0, 0.0, 1.645921450786353E9, 0.0, 2022-02-27 11:24:10.786
0.0, -934.213511254014, -2531.8044461970862, -1119.397714066233, -5362.58582622836, -600.9266496809304, -49.665576179692295, -2945.244663386901, -970.1998198270584, -1505.3005820871094, -3249.943643801647, -2056.4946003549817, -1449.6670901378502, -1850.7914961327906, -1313.2990972160217, -4954.107696307623, -7336.3566203542505, 0.012, -0.106, 0.968, 192.0, 0.0, 48.0, 126.0, 88.0, 15.0, 32.0, 0.0, 0.0, 0.0, 1.645921450889029E9, 0.0, 2022-02-27 11:24:10.889
2.0, -1949.6532618586139, -5106.0548551148, -2249.3230997709156, -10725.641039090282, -1254.9833959321256, -100.67225702670301, -5734.541205709124, -1717.2174712678757, -2649.396973776457, -6947.972708698834, -4653.208512450279, -3101.304543173855, -4237.577824303845, -3216.907765496703, -10106.967104311838, -14990.130363718315, 0.012, -0.106, 0.968, 192.0, 0.0, 0.0, 0.0, 0.0, 0.0, 0.0, 0.0, 0.0, 0.0, 1.64592145089626E9, 0.0, 2022-02-27 11:24:10.896
4.0, -1356.616777970407, -4636.914090742361, -1835.8381790921903, -10276.594492983162, -723.3471540626472, 313.5726229635028, -5502.887726174322, -1473.8069741495817, -2523.422542026346, -6432.317964114901, -4314.467825230101, -2949.5809018112304, -3896.0878725156635, -2885.409043480044, -9919.63713403191, -14579.685280285512, 0.012, -0.106, 0.968, 192.0, 0.0, 0.0, 0.0, 0.0, 0.0, 0.0, 0.0, 0.0, 0.0, 1.645921450904357E9, 0.0, 2022-02-27 11:24:10.904
6.0, -1958.6386631296473, -5120.225861099465, -2302.922582974742, -10796.786641691524, -1299.8880505428376, -165.1793915247192, -5869.568093963635, -1896.009075165877, -4125.48382586048, -7264.898093330633, -4536.554758138032, -3171.5113725079746, -4032.388810204126, -3121.845796328282, -10275.40985052703, -15535.937611572459, 0.008, -0.10500000000000001, 0.973, 192.0, 0.0, 16.0, 126.0, 96.0, 15.0, 72.0, 0.0, 0.0, 0.0, 1.645921450911301E9, 0.0, 2022-02-27 11:24:10.911
8.0, -1590.0583970616337, -4809.648371892974, -1992.1886315570632, -10444.1655211646, -941.276662501891, 159.90437983326672, -5552.843875031934, -1510.8438147120255, -1761.4515735449284, -6414.45892029511, -4479.26723709908, -2967.1940764420124, -4115.872575744698, -3047.2356733364672, -9888.344691794478, -14435.874156460066, 0.008, -0.10500000000000001, 0.973, 192.0, 0.0, 0.0, 0.0, 0.0, 0.0, 0.0, 0.0, 0.0, 0.0, 1.645921450917869E9, 0.0, 2022-02-27 11:24:10.917
10.0, -1522.533777062151, -4756.965310211815, -1995.6084484587252, -10465.064402230311, -905.6703335845868, 156.50691467606006, -5673.990329979698, -1705.1698810064652, -3862.2696831547837, -6878.704652631838, -4310.869194372796, -3049.1355716151684, -3807.463205750371, -2896.897840130072, -10117.740645139294, -15200.39322380939, 0.008, -0.10500000000000001, 0.973, 192.0, 0.0, 0.0, 0.0, 0.0, 0.0, 0.0, 0.0, 0.0, 0.0, 1.645921450926513E9, 0.0, 2022-02-27 11:24:10.926
12.0, -1904.458034569983, -5056.366927190653, -2240.114181055329, -10723.718789067125, -1232.4081340322655, -96.35837034682875, -5722.650077658901, -1714.7587793777918, -2685.159764904948, -6939.076714405623, -4635.81885526405, -3107.4736246435195, -4231.699315512099, -3218.673553308672, -10102.630865887508, -15014.82904134143, 0.008, -0.10500000000000001, 0.973, 192.0, 0.0, 0.0, 0.0, 0.0, 0.0, 0.0, 0.0, 0.0, 0.0, 1.645921450933937E9, 0.0, 2022-02-27 11:24:10.933
14.0, -1308.292306458033, -4590.109537852948, -1815.9004230380565, -10264.681013188483, -701.3083340297144, 347.8378472134885, -5484.782813165523, -1458.7866018756154, -2445.660823066333, -6396.845745664328, -4294.999455809529, -2925.508073032865, -3895.7749480932894, -2878.703520143452, -9902.225125101224, -14555.992431162887, 0.008, -0.10500000000000001, 0.973, 192.0, 0.0, 0.0, 0.0, 0.0, 0.0, 0.0, 0.0, 0.0, 0.0, 1.645921450940582E9, 0.0, 2022-02-27 11:24:10.940
16.0, -1904.7262555034467, -5061.977215048935, -2277.4192425512365, -10776.55831295947, -1283.8618497683824, -152.5283041630154, -5849.20565476485, -1896.165537377064, -4133.083418975284, -7252.269357713385, -4503.295362388535, -3149.7631251529606, -4006.9525250139864, -3097.2812291718997, -10259.495408474852, -15532.204870248423, 0.007, -0.10550000000000001, 0.9784999999999999, 192.0, 0.0, 24.0, 126.0, 88.0, 15.0, 96.0, 0.0, 0.0, 0.0, 1.645921450948578E9, 0.0, 2022-02-27 11:24:10.948
18.0, -1556.8437048010476, -4765.950711482848, -1989.9758088559877, -10440.052800184823, -941.8801596021843, 154.4058506972612, -5576.96140729921, -1520.566823550084, -1754.5448845082385, -6410.234440593057, -4463.643367724821, -2950.2291024004344, -4116.409017611625, -3044.2181878350007, -9892.971502896728, -14445.373647853572, 0.007, -0.10550000000000001, 0.9784999999999999, 192.0, 0.0, 0.0, 0.0, 0.0, 0.0, 0.0, 0.0, 0.0, 0.0, 1.645921450956594E9, 0.0, 2022-02-27 11:24:10.956
20.0, -1468.3978519913974, -4710.518385233687, -1978.129384294675, -10444.031410697868, -905.9162027735953, 151.9471588071774, -5700.119519247952, -1736.6411371995375, -3814.0793221091417, -6836.124579444478, -4288.428042939669, -3018.5807369447634, -3800.601220202592, -2883.7103109014406, -10116.868927105537, -15183.987043379193, 0.007, -0.10550000000000001, 0.9784999999999999, 192.0, 0.0, 0.0, 0.0, 0.0, 0.0, 0.0, 0.0, 0.0, 0.0, 1.645921450963633E9, 0.0, 2022-02-27 11:24:10.963
22.0, -1872.0256533653323, -5017.363133116142, -2238.7283728991, -10720.366027398828, -1253.4411255647094, -104.94144021766665, -5749.606281472002, -1729.3768202515628, -2708.4279308829227, -6943.99409818579, -4612.751854986173, -3084.853659254749, -4217.863585694264, -3208.8611374927927, -10112.063302047647, -15045.294469034014, 0.007, -0.10550000000000001, 0.9784999999999999, 192.0, 0.0, 0.0, 0.0, 0.0, 0.0, 0.0, 0.0, 0.0, 0.0, 1.645921450970061E9, 0.0, 2022-02-27 11:24:10.970
24.0, -1277.0445677095138, -4551.977461812194, -1812.9499927699558, -10255.472094472898, -714.9876016363623, 323.27328005710604, -5501.904249418289, -1466.1626775458667, -2386.585162470956, -6370.06835580687, -4277.6097986233, -2912.7005234599737, -3893.137442247563, -2869.4498979389546, -9898.201811099269, -14544.21306183494, 0.007, -0.10550000000000001, 0.9784999999999999, 192.0, 0.0, 0.0, 0.0, 0.0, 0.0, 0.0, 0.0, 0.0, 0.0, 1.645921450986328E9, 0.0, 2022-02-27 11:24:10.986
26.0, -1863.5096387278604, -5020.559432573251, -2272.1442308597843, -10764.13074304232, -1283.0571869679914, -146.96271979364394, -5849.742096631778, -1891.0916913857093, -4143.655794102645, -7244.490950642938, -4481.234190611147, -3136.7097063910614, -4001.677513322534, -3081.299731886355, -10263.071687587702, -15541.525547686286, 0.0085, -0.10675000000000001, 0.98025, 192.0, 0.0, 40.0, 126.0, 80.0, 15.0, 88.0, 0.0, 0.0, 0.0, 1.645921450993309E9, 0.0, 2022-02-27 11:24:10.993
28.0, -1551.8145622986035, -4764.497848093253, -2001.7328264394794, -10452.368611379698, -972.7479186949633, 136.41269641073902, -5566.970177527688, -1522.9137567178914, -1751.750916451325, -6411.106158626814, -4462.369318290868, -2946.2728436318453, -4125.282660160382, -3046.4757140249867, -9896.458375031754, -14458.807046271211, 0.0085, -0.10675000000000001, 0.98025, 192.0, 0.0, 0.0, 0.0, 0.0, 0.0, 0.0, 0.0, 0.0, 0.0, 1.645921451001397E9, 0.0, 2022-02-27 11:24:11.001
30.0, -1424.2084532032554, -4672.520419659665, -1960.5609131528038, -10422.797253465325, -885.4643565969893, 167.66043515925827, -5686.462603385759, -1700.0513315261999, -3753.7743155687235, -6816.477396068263, -4270.457240397602, -3003.917992582082, -3799.1930603019073, -2867.259426982335, -10104.70957812185, -15153.23104300869, 0.0085, -0.10675000000000001, 0.98025, 192.0, 0.0, 0.0, 0.0, 0.0, 0.0, 0.0, 0.0, 0.0, 0.0, 1.64592145100876E9, 0.0, 2022-02-27 11:24:11.008
32.0, -1878.5300110018268, -5020.626487806617, -2253.9722626176194, -10735.051123505966, -1273.8482682524048, -122.75578054854638, -5736.441103987826, -1752.466172273895, -2798.863088949095, -6947.100990665078, -4609.533203784609, -3085.5912668217743, -4220.612850262267, -3206.000114202513, -10129.967049356348, -15081.07961190696, 0.0085, -0.10675000000000001, 0.98025, 192.0, 0.0, 0.0, 0.0, 0.0, 0.0, 0.0, 0.0, 0.0, 0.0, 1.645921451016937E9, 0.0, 2022-02-27 11:24:11.016
34.0, -1274.9435037307148, -4552.446848445756, -1821.7342283408916, -10257.416696240509, -731.7290582333873, 320.7475329336564, -5505.413473297772, -1466.252084523688, -2319.2840599160268, -6368.302567994901, -4288.875077828775, -2913.7063519604626, -3910.2141750114174, -2868.2652554828237, -9899.140584366392, -14525.325837770206, 0.0085, -0.10675000000000001, 0.98025, 192.0, 0.0, 0.0, 0.0, 0.0, 0.0, 0.0, 0.0, 0.0, 0.0, 1.64592145102356E9, 0.0, 2022-02-27 11:24:11.023
36.0, -1858.9051793700671, -5020.4029703620645, -2278.536829774002, -10762.767286630546, -1278.9221142437596, -150.85192332886737, -5867.154105562461, -1911.4988340734046, -4141.398267912658, -7236.064342983287, -4481.636522011343, -3135.5027121904745, -4001.1187197111512, -3089.9275052461035, -10278.784963939783, -15538.93274532947, 0.01125, -0.107375, 0.985125, 192.0, 0.0, 56.0, 126.0, 80.0, 15.0, 120.0, 0.0, 0.0, 0.0, 1.64592145103145E9, 0.0, 2022-02-27 11:24:11.031
38.0, -1542.9632714943018, -4752.673775276396, -2000.1682043276078, -10452.458018357518, -969.9763023825053, 127.00261199505474, -5578.906009066822, -1530.7592190217042, -1732.014326097289, -6401.338446299845, -4458.524818244555, -2942.3389366077113, -4123.963907237519, -3050.253158837934, -9899.989950655694, -14458.494121848837, 0.01125, -0.107375, 0.985125, 192.0, 0.0, 0.0, 0.0, 0.0, 0.0, 0.0, 0.0, 0.0, 0.0, 1.645921451038571E9, 0.0, 2022-02-27 11:24:11.038
40.0, -1420.8780432794147, -4674.152097004902, -1957.3199102067842, -10430.77682623587, -899.3000864148244, 154.3611472083506, -5690.485917387715, -1701.794767593714, -3740.78795204019, -6807.87197445297, -4268.266769440981, -3009.662390907096, -3796.957885856377, -2872.4897351848767, -10106.676531633919, -15153.901595342351, 0.01125, -0.107375, 0.985125, 192.0, 0.0, 0.0, 0.0, 0.0, 0.0, 0.0, 0.0, 0.0, 0.0, 1.645921451045727E9, 0.0, 2022-02-27 11:24:11.045
42.0, -1865.9012753845782, -5006.701351010961, -2242.2599485230385, -10727.607992602349, -1275.5917043199188, -131.6964783306692, -5756.892950164432, -1763.4855822903614, -2761.826248386651, -6945.558720297661, -4608.996761917682, -3092.050920969358, -4221.328106084837, -3200.143957155223, -10132.738665668807, -15072.518893780578, 0.01125, -0.107375, 0.985125, 192.0, 0.0, 0.0, 0.0, 0.0, 0.0, 0.0, 0.0, 0.0, 0.0, 1.64592145105312E9, 0.0, 2022-02-27 11:24:11.053
44.0, -1262.9629687026702, -4540.578072139987, -1814.626373604104, -10257.617861940607, -729.8962151880521, 314.824320653, -5519.293906604517, -1470.8341921370259, -2345.592063139923, -6359.294814979412, -4286.863420827797, -2909.057189113759, -3904.514480175314, -2883.732662645896, -9907.790709470595, -14534.221832063418, 0.01125, -0.107375, 0.985125, 192.0, 0.0, 0.0, 0.0, 0.0, 0.0, 0.0, 0.0, 0.0, 0.0, 1.645921451061039E9, 0.0, 2022-02-27 11:24:11.061
46.0, -1836.5534349147601, -5002.856850964648, -2268.0985651133738, -10756.575853416427, -1262.4041750912877, -146.4709814156272, -5862.214370037838, -1906.0897119152203, -4170.410832215647, -7232.197491192519, -4473.299321329513, -3127.5678429088407, -3980.4657078344476, -3073.141345160168, -10273.08526910368, -15548.342829745154, 0.013625, -0.10868749999999999, 0.9845625, 192.0, 0.0, 64.0, 126.0, 72.0, 15.0, 96.0, 0.0, 0.0, 0.0, 1.645921451069224E9, 0.0, 2022-02-27 11:24:11.069
48.0, -1545.7795912956706, -4751.51148456472, -2011.3664282997167, -10462.963338251513, -979.274628075913, 116.87727175680062, -5590.126584783386, -1534.246091156732, -1739.2562913008085, -6407.373417302778, -4466.571446248466, -2945.6469947870964, -4132.77049455291, -3056.2210746075007, -9907.589543770498, -14469.938215009954, 0.013625, -0.10868749999999999, 0.9845625, 192.0, 0.0, 0.0, 0.0, 0.0, 0.0, 0.0, 0.0, 0.0, 0.0, 1.645921451075785E9, 0.0, 2022-02-27 11:24:11.075
50.0, -1401.9461157257697, -4650.414544393367, -1949.7203170919797, -10413.163651605088, -884.9055629856066, 166.05110955847616, -5687.781356308622, -1696.6985698579037, -3701.11360563202, -6793.34334055702, -4261.002452493007, -2995.916068067082, -3799.7965574022005, -2875.66368289753, -10106.967104311838, -15134.835557321974, 0.013625, -0.10868749999999999, 0.9845625, 192.0, 0.0, 0.0, 0.0, 0.0, 0.0, 0.0, 0.0, 0.0, 0.0, 1.645921451083689E9, 0.0, 2022-02-27 11:24:11.083
52.0, -1873.2549993103744, -5017.631354049606, -2252.6088062058457, -10743.79065558799, -1300.357437176399, -151.99186229608802, -5775.847229462533, -1781.232867387875, -2853.624862864597, -6984.316645183164, -4610.226107862724, -3090.307484901844, -4220.970478173552, -3210.0234282044685, -10155.850369435593, -15116.70829256872, 0.013625, -0.10868749999999999, 0.9845625, 192.0, 0.0, 0.0, 0.0, 0.0, 0.0, 0.0, 0.0, 0.0, 0.0, 1.645921451091676E9, 0.0, 2022-02-27 11:24:11.091
54.0, -1258.269102367056, -4534.721915092697, -1807.9655537564224, -10263.563425965718, -733.9865844233733, 308.96816360570955, -5516.723455992157, -1485.9216196443583, -2274.982902405608, -6339.781742069929, -4287.46691792809, -2906.732607690407, -3907.3755034655937, -2880.581066677698, -9904.884982691407, -14520.743730156868, 0.013625, -0.10868749999999999, 0.9845625, 192.0, 0.0, 0.0, 0.0, 0.0, 0.0, 0.0, 0.0, 0.0, 0.0, 1.64592145110537E9, 0.0, 2022-02-27 11:24:11.105
56.0, -1830.294946467274, -4989.356397313642, -2260.20839932065, -10761.426181963228, -1284.331236401944, -163.16773452374156, -5869.813963152643, -1915.0304096973432, -4169.337948481792, -7219.188775919531, -4468.1137166158815, -3133.71457263405, -3979.7281002674226, -3079.332778374288, -10279.634330229084, -15553.237861780866, 0.0148125, -0.10434375, 0.98428125, 192.0, 0.0, 64.0, 126.0, 112.0, 15.0, 96.0, 0.0, 0.0, 0.0, 1.645921451113362E9, 0.0, 2022-02-27 11:24:11.113
58.0, -1551.4792861317737, -4760.385127113477, -2010.4723585215045, -10466.427858642086, -1003.8615469767508, 104.29323962846276, -5602.487099467171, -1530.669812043883, -1732.4166574974845, -6407.954562658616, -4472.986396907138, -2948.999756455393, -4139.610128356234, -3060.1996851205454, -9911.456395561267, -14467.881854520067, 0.0148125, -0.10434375, 0.98428125, 192.0, 0.0, 0.0, 0.0, 0.0, 0.0, 0.0, 0.0, 0.0, 0.0, 1.645921451121398E9, 0.0, 2022-02-27 11:24:11.121
60.0, -1386.7469294961609, -4645.787733291118, -1943.3277181777619, -10406.279314312855, -880.9493042170172, 169.71679564914652, -5682.4616411282595, -1692.1388139890212, -3679.3877100214613, -6788.850639921504, -4259.594292592322, -2993.5467831548194, -3802.0540835921865, -2863.437278680477, -10102.362644954044, -15116.484775124167, 0.0148125, -0.10434375, 0.98428125, 192.0, 0.0, 0.0, 0.0, 0.0, 0.0, 0.0, 0.0, 0.0, 0.0, 1.6459214511286E9, 0.0, 2022-02-27 11:24:11.128
62.0, -1853.9654438454443, -5003.013313175835, -2252.54175097248, -10738.806216574458, -1296.5129371300861, -141.4865424020937, -5778.529438797169, -1788.8995157360455, -2850.249749451846, -6968.245740919798, -4607.320381083534, -3081.210324908534, -4228.7935887329095, -3191.9855704290358, -10155.58214850213, -15115.27778092358, 0.0148125, -0.10434375, 0.98428125, 192.0, 0.0, 0.0, 0.0, 0.0, 0.0, 0.0, 0.0, 0.0, 0.0, 1.645921451135991E9, 0.0, 2022-02-27 11:24:11.135
64.0, -1247.003823161581, -4518.673362573786, -1810.848928791157, -10254.779190394782, -739.2615961148258, 313.75143691914525, -5519.47272056016, -1485.1616603328778, -2260.320158042927, -6329.432884387123, -4279.5096969020005, -2892.0698633277257, -3915.7350558918783, -2889.924095860016, -9903.745043724186, -14512.831212619689, 0.0148125, -0.10434375, 0.98428125, 192.0, 0.0, 0.0, 0.0, 0.0, 0.0, 0.0, 0.0, 0.0, 0.0, 1.64592145114396E9, 0.0, 2022-02-27 11:24:11.143
66.0, -1808.300829923252, -4975.163039584522, -2252.92173062822, -10748.238652734597, -1275.9493322312037, -145.01811802603223, -5873.345538776582, -1922.1829679230414, -4196.540021483901, -7210.069264181765, -4456.446106010211, -3106.892479287682, -3971.9273414525205, -3070.4814875699867, -10280.059013373735, -15554.310745514722, 0.014406249999999999, -0.105171875, 0.984140625, 192.0, 0.0, 56.0, 126.0, 88.0, 15.0, 96.0, 0.0, 0.0, 0.0, 1.645921451152012E9, 0.0, 2022-02-27 11:24:11.152
68.0, -1549.0652977306006, -4756.60768230053, -2016.552033013348, -10478.0731175033, -1016.5349860829099, 105.65669604023648, -5607.762111158623, -1552.3957076544414, -1732.5060644753057, -6418.07990289687, -4475.333330074946, -2941.3554598516776, -4144.907491792142, -3060.110278142724, -9917.379607841922, -14484.265683205806, 0.014406249999999999, -0.105171875, 0.984140625, 192.0, 0.0, 0.0, 0.0, 0.0, 0.0, 0.0, 0.0, 0.0, 0.0, 1.645921451157993E9, 0.0, 2022-02-27 11:24:11.157
70.0, -1355.7674116811052, -4611.813081719051, -1924.9769359799548, -10389.91783737157, -867.7841267328414, 202.57385999844792, -5690.530620876625, -1698.7996338367027, -3629.655078608403, -6750.4279912028305, -4254.878074512252, -2986.148355740113, -3804.0880923376194, -2865.3595287036337, -10098.562848396641, -15099.60920806041, 0.014406249999999999, -0.105171875, 0.984140625, 192.0, 0.0, 0.0, 0.0, 0.0, 0.0, 0.0, 0.0, 0.0, 0.0, 1.645921451165712E9, 0.0, 2022-02-27 11:24:11.165
72.0, -1843.3260134847183, -4986.718891467916, -2250.3289282714045, -10737.643925862782, -1309.3651901918877, -153.08709777439807, -5811.520613613202, -1804.076350221199, -2898.7530349198623, -6988.943456285412, -4590.735386697696, -3077.3881766066766, -4219.271745594949, -3202.066207178379, -10169.77550623125, -15146.123188271904, 0.014406249999999999, -0.105171875, 0.984140625, 192.0, 0.0, 0.0, 0.0, 0.0, 0.0, 0.0, 0.0, 0.0, 0.0, 1.645921451173702E9, 0.0, 2022-02-27 11:24:11.173
74.0, -1232.4975410100867, -4506.826938012474, -1801.7294170533917, -10247.537225191263, -747.1517619075491, 301.32386700199453, -5543.299680149517, -1488.2909045566207, -2192.14733745424, -6295.167660137136, -4268.020900251973, -2884.470270212921, -3919.132521049085, -2875.797793364262, -9899.00647389966, -14497.497915923348, 0.014406249999999999, -0.105171875, 0.984140625, 192.0, 0.0, 0.0, 0.0, 0.0, 0.0, 0.0, 0.0, 0.0, 0.0, 1.645921451181832E9, 0.0, 2022-02-27 11:24:11.181
76.0, -1783.1551174110316, -4949.056202060724, -2233.989803074575, -10733.441797905183, -1256.5256662995419, -144.39226918128364, -5887.717710461344, -1924.4851976019381, -4174.903532851164, -7187.583409259726, -4431.456855709178, -3100.455176884553, -3964.774783226822, -3058.724469986495, -10276.527437749797, -15540.765588374805, 0.014, -0.108, 0.99, 192.0, 0.0, 56.0, 126.0, 80.0, 15.0, 120.0, 0.0, 0.0, 0.0, 1.64592145118817E9, 0.0, 2022-02-27 11:24:11.188
78.0, -1532.5697103225841, -4743.733077494273, -2001.5093089949262, -10474.250969201443, -998.854756218762, 107.06485594092084, -5609.796119904056, -1567.1925624838548, -1719.206776524398, -6404.154766101214, -4461.721117701664, -2930.9618986799596, -4145.354526681248, -3064.3571095892326, -9916.083206663514, -14480.108258737118, 0.014, -0.108, 0.99, 192.0, 0.0, 0.0, 0.0, 0.0, 0.0, 0.0, 0.0, 0.0, 0.0, 1.645921451196218E9, 0.0, 2022-02-27 11:24:11.196
80.0, -1341.4399434852533, -4600.011360646648, -1907.8331479827343, -10390.409575749585, -845.6111962331768, 211.38044731383889, -5688.943647020298, -1711.5848316651384, -3597.2003456592975, -6728.478578147719, -4236.750809758998, -2974.3242829232554, -3794.0968625660976, -2865.1807147479913, -10084.168324967424, -15086.533437554055, 0.014, -0.108, 0.99, 192.0, 0.0, 0.0, 0.0, 0.0, 0.0, 0.0, 0.0, 0.0, 0.0, 1.645921451204341E9, 0.0, 2022-02-27 11:24:11.204
82.0, -1835.0558680362547, -4962.355490011631, -2242.6846316676892, -10751.144379513786, -1296.0882539854354, -154.58466465290365, -5819.947221272853, -1802.623486831604, -2911.6723432150297, -6989.52460164125, -4582.599351715965, -3086.172412177612, -4207.581783244823, -3191.0244454174576, -10160.34307007111, -15149.028915051094, 0.014, -0.108, 0.99, 192.0, 0.0, 0.0, 0.0, 0.0, 0.0, 0.0, 0.0, 0.0, 0.0, 1.645921451210926E9, 0.0, 2022-02-27 11:24:11.210
84.0, -1235.8726544228382, -4501.887202487851, -1798.3766553850955, -10257.640213685061, -757.1206399346162, 279.30739871351705, -5572.692224108247, -1485.6533987108946, -2164.207656885106, -6286.159907121648, -4261.114211215283, -2888.76180514834, -3916.0256285697974, -2877.921209087516, -9890.423404028823, -14485.316215195206, 0.014, -0.108, 0.99, 192.0, 0.0, 0.0, 0.0, 0.0, 0.0, 0.0, 0.0, 0.0, 0.0, 1.645921451217932E9, 0.0, 2022-02-27 11:24:11.217
86.0, -1783.848021489146, -4967.451687747442, -2231.1734832732063, -10729.820815303423, -1263.3429483584105, -155.52343792002654, -5885.817812182643, -1924.9322324910443, -4197.791719173399, -7186.711691225969, -4425.511291684066, -3095.0907582152795, -3959.4997715353697, -3070.7720602479053, -10273.308786548232, -15543.31368724271, 0.018000000000000002, -0.112, 0.99, 192.0, 0.0, 72.0, 126.0, 64.0, 15.0, 120.0, 0.0, 0.0, 0.0, 1.64592145123406E9, 0.0, 2022-02-27 11:24:11.234
88.0, -1552.5968733545392, -4758.731098023784, -2021.2458993489624, -10485.851524573747, -1022.1229221967367, 75.81711719240155, -5635.455922538748, -1563.1916002263547, -1743.301957047219, -6430.507472814021, -4473.969873663173, -2947.412782599066, -4160.151381510661, -3081.7020632865506, -9922.855785233472, -14496.53679091177, 0.018000000000000002, -0.112, 0.99, 192.0, 0.0, 0.0, 0.0, 0.0, 0.0, 0.0, 0.0, 0.0, 0.0, 1.645921451240591E9, 0.0, 2022-02-27 11:24:11.240
90.0, -1333.7062399037172, -4597.95500015676, -1905.1732903925529, -10375.478610453441, -853.3896033036236, 190.1686418257525, -5683.132193461918, -1681.7005493283928, -3539.666955431337, -6707.378531381909, -4241.399972605703, -2966.992910741915, -3802.076435336642, -2857.759935588829, -10084.324787178612, -15053.229338315647, 0.018000000000000002, -0.112, 0.99, 192.0, 0.0, 0.0, 0.0, 0.0, 0.0, 0.0, 0.0, 0.0, 0.0, 1.645921451248567E9, 0.0, 2022-02-27 11:24:11.248
92.0, -1861.2521125378744, -4997.425377062008, -2258.688480697689, -10756.307632482962, -1319.1552542633121, -166.7216618921354, -5808.81605253411, -1809.5078241238386, -2971.4185561440654, -7011.2281455073535, -4598.0667588790375, -3093.3473221477657, -4223.205652619083, -3203.96610545708, -10172.100087654602, -15169.05607808305, 0.018000000000000002, -0.112, 0.99, 192.0, 0.0, 0.0, 0.0, 0.0, 0.0, 0.0, 0.0, 0.0, 0.0, 1.645921451256626E9, 0.0, 2022-02-27 11:24:11.256
94.0, -1249.4178115627542, -4506.446958356733, -1804.8586612771346, -10270.246597557854, -753.2761398883033, 284.5600586605142, -5557.761258812101, -1499.444425039819, -2141.610043240791, -6289.736186234497, -4282.840106825842, -2905.5479652342756, -3945.9322626509984, -2904.318619289234, -9896.637188987397, -14483.550427383236, 0.018000000000000002, -0.112, 0.99, 192.0, 0.0, 0.0, 0.0, 0.0, 0.0, 0.0, 0.0, 0.0, 0.0, 1.64592145126375E9, 0.0, 2022-02-27 11:24:11.263
96.0, -1765.139611380054, -4948.899739849537, -2221.9869163020753, -10728.390303658283, -1252.0106139195698, -141.01715576853226, -5894.713806475855, -1918.6960957880135, -4183.151326555172, -7178.240380077408, -4416.145910757293, -3108.300639188366, -3956.7952104562773, -3065.005310178436, -10274.538132493273, -15543.626611665084, 0.012, -0.108, 0.992, 192.0, 0.0, 48.0, 126.0, 80.0, 15.5, 0.0, 0.0, 0.0, 0.0, 1.645921451271131E9, 0.0, 2022-02-27 11:24:11.271
98.0, -1551.5463413651398, -4757.032365445181, -2019.5471667703591, -10487.55025715235, -1035.1316374697253, 76.77824220397976, -5658.142943160885, -1574.0545480316339, -1732.9530993644119, -6443.806760764928, -4467.443164282223, -2929.173759123535, -4163.794715856876, -3071.8002404928498, -9928.041389947104, -14507.06446255022, 0.012, -0.108, 0.992, 192.0, 0.0, 0.0, 0.0, 0.0, 0.0, 0.0, 0.0, 0.0, 0.0, 1.645921451279175E9, 0.0, 2022-02-27 11:24:11.279
100.0, -1324.094989787935, -4585.303912795057, -1901.0158659238657, -10365.934415571024, -842.2360828204254, 190.97330462614354, -5691.134117976919, -1689.9930465213117, -3502.3618939354296, -6688.9159904618255, -4236.437885336624, -2964.7800880408395, -3805.5633074716698, -2857.9163978000165, -10081.597874355064, -15047.350829523903, 0.012, -0.108, 0.992, 192.0, 0.0, 0.0, 0.0, 0.0, 0.0, 0.0, 0.0, 0.0, 0.0, 1.645921451286329E9, 0.0, 2022-02-27 11:24:11.286
102.0, -1861.229760793419, -5009.383560345597, -2255.6262917073122, -10758.498103439582, -1315.4448646837313, -173.24837127308504, -5826.988020776274, -1815.7663125713245, -2980.560419626286, -7013.373912975063, -4601.441872291788, -3079.7574615189387, -4217.193033360605, -3221.4451696211304, -10175.877532467548, -15182.355366033957, 0.012, -0.108, 0.992, 192.0, 0.0, 0.0, 0.0, 0.0, 0.0, 0.0, 0.0, 0.0, 0.0, 1.645921451292858E9, 0.0, 2022-02-27 11:24:11.292
104.0, -1264.0135006920698, -4530.765656324107, -1811.7877020582798, -10276.147458094056, -760.8533812586525, 269.5843898754585, -5560.24230244664, -1488.804994679093, -2131.1941303246176, -6298.542773549888, -4297.189926766148, -2882.7491858898625, -3945.8875591620877, -2902.8657558996388, -9893.15031685237, -14477.940139524955, 0.012, -0.108, 0.992, 192.0, 0.0, 0.0, 0.0, 0.0, 0.0, 0.0, 0.0, 0.0, 0.0, 1.645921451300813E9, 0.0, 2022-02-27 11:24:11.300
106.0, -1770.526381793783, -4944.809370614215, -2217.8518435778433, -10725.305762923452, -1257.7550122445837, -150.22607448411875, -5907.588411282112, -1953.38600318265, -4203.714931454055, -7178.128621355131, -4433.0661813099605, -3104.1208629752236, -3963.5007337928696, -3062.36780433271, -10274.359318537632, -15545.302992499233, 0.012, -0.112, 0.99, 192.0, 0.0, 48.0, 126.0, 64.0, 15.0, 120.0, 0.0, 0.0, 0.0, 1.645921451310519E9, 0.0, 2022-02-27 11:24:11.310
108.0, -1587.8679261050138, -4772.209199930335, -2039.2837571243952, -10505.677521905603, -1066.625245407253, 48.525637212471636, -5650.54335004608, -1589.4325482168852, -1764.983149168867, -6461.464638884621, -4494.578182050966, -2948.5080180773757, -4192.382597015214, -3101.1927844515785, -9942.97235524325, -14532.009009362342, 0.012, -0.112, 0.99, 192.0, 0.0, 0.0, 0.0, 0.0, 0.0, 0.0, 0.0, 0.0, 0.0, 1.645921451316024E9, 0.0, 2022-02-27 11:24:11.316
110.0, -1337.8189608834937, -4597.95500015676, -1898.6689327560584, -10365.532084170829, -857.3905655611236, 180.3338742654174, -5714.581097910535, -1683.756909818281, -3482.1335652033767, -6690.882943973893, -4253.782839033943, -2983.6449603611186, -3829.0549908941975, -2878.8152788657285, -10085.777650568205, -15035.794977640508, 0.012, -0.112, 0.99, 192.0, 0.0, 0.0, 0.0, 0.0, 0.0, 0.0, 0.0, 0.0, 0.0, 1.645921451323531E9, 0.0, 2022-02-27 11:24:11.323
112.0, -1895.4726332989496, -5037.94908975948, -2267.2715505685273, -10761.202664518674, -1327.4253997117758, -184.89363013430003, -5832.86652956802, -1830.9654988009333, -3043.6146907347074, -7047.840302925147, -4614.763511987151, -3092.0285692249026, -4224.747922986498, -3224.68617256715, -10194.92121874347, -15211.546744292587, 0.012, -0.112, 0.99, 192.0, 0.0, 0.0, 0.0, 0.0, 0.0, 0.0, 0.0, 0.0, 0.0, 1.64592145133162E9, 0.0, 2022-02-27 11:24:11.331
114.0, -1309.253431469611, -4582.308779038046, -1826.9421847989781, -10276.527437749797, -775.8737535326187, 270.07612825347525, -5537.510578335593, -1482.3900440204197, -2124.890938388221, -6315.373637124734, -4323.341467778858, -2891.4216627385217, -3963.0536989037632, -2919.115474118647, -9894.849049430974, -14477.224883702385, 0.012, -0.112, 0.99, 192.0, 0.0, 0.0, 0.0, 0.0, 0.0, 0.0, 0.0, 0.0, 0.0, 1.64592145133951E9, 0.0, 2022-02-27 11:24:11.339
116.0, -1829.1550075000534, -5002.409816075542, -2230.3911722172707, -10722.668257077725, -1258.4926198116088, -142.87235055832275, -5884.744928448788, -1916.103293431198, -4237.17549290365, -7191.673778495047, -4452.333385030435, -3103.003275752458, -3963.16545762604, -3057.718641486006, -10272.660585959029, -15542.576079675686, 0.01, -0.11, 0.984, 192.0, 0.0, 40.0, 126.0, 72.0, 15.0, 96.0, 0.0, 0.0, 0.0, 1.645921451353158E9, 0.0, 2022-02-27 11:24:11.353
118.0, -1681.7676045617586, -4878.335282604133, -2048.35856537325, -10513.970019098524, -1062.624283149753, 45.19522728863088, -5658.612329794447, -1599.6696471774158, -1805.6633240775257, -6487.347958963866, -4527.122321977892, -2960.153276938591, -4196.517669739445, -3105.4619676425423, -9944.82755003304, -14540.860300166643, 0.01, -0.11, 0.984, 192.0, 0.0, 0.0, 0.0, 0.0, 0.0, 0.0, 0.0, 0.0, 0.0, 1.645921451361188E9, 0.0, 2022-02-27 11:24:11.361
120.0, -1461.1782385323334, -4726.0304958856705, -1906.9167264600667, -10369.108363283678, -841.5431787423109, 188.87224064734468, -5675.823173025033, -1663.7744502752364, -3498.1374142333766, -6722.622421100428, -4283.287141714948, -2994.150280255113, -3829.0773426386527, -2865.8512670816503, -10077.440449886377, -15027.077797302938, 0.01, -0.11, 0.984, 192.0, 0.0, 0.0, 0.0, 0.0, 0.0, 0.0, 0.0, 0.0, 0.0, 1.645921451369148E9, 0.0, 2022-02-27 11:24:11.369
122.0, -2046.6821845391019, -5190.209172989032, -2286.963437433653, -10776.871237381845, -1329.3476497349322, -186.61471445735867, -5832.508901656735, -1833.8041703467572, -3150.590139697807, -7113.286210690286, -4642.703192556285, -3141.135351793212, -4220.702257240088, -3232.643393593239, -10197.335207144644, -15233.831433514528, 0.01, -0.11, 0.984, 192.0, 0.0, 0.0, 0.0, 0.0, 0.0, 0.0, 0.0, 0.0, 0.0, 1.645921451375762E9, 0.0, 2022-02-27 11:24:11.375
124.0, -1489.5649539905733, -4751.422077586899, -1850.0538885657656, -10289.782022211793, -774.0632622317389, 280.2238202361846, -5560.734040824657, -1483.0158928651683, -2140.023069384464, -6356.567902155865, -4363.9769391986065, -2941.0425354293034, -3980.5327630678134, -2924.3234305767337, -9895.586656997999, -14463.836188773656, 0.01, -0.11, 0.984, 192.0, 0.0, 0.0, 0.0, 0.0, 0.0, 0.0, 0.0, 0.0, 0.0, 1.645921451383797E9, 0.0, 2022-02-27 11:24:11.383
126.0, -1978.0176255723984, -5156.905073750624, -2235.0403350639745, -10723.159995455742, -1230.0835526089136, -119.2912601579738, -5890.332864562615, -1919.0984271882091, -4301.392054723747, -7234.678534827058, -4488.02912092556, -3164.24705556, -3962.740774481389, -3055.0364321513694, -10274.091097604169, -15537.211661006411, 0.014, -0.11, 0.988, 192.0, 0.0, 56.0, 126.0, 72.0, 15.0, 112.0, 0.0, 0.0, 0.0, 1.645921451391961E9, 0.0, 2022-02-27 11:24:11.391
128.0, -1846.6117199196483, -5039.8936915270915, -2084.478984413026, -10542.289679323398, -1065.9323413291386, 38.22148301857508, -5646.8329604665, -1603.0447605901672, -1897.0819588997317, -6562.941558711715, -4586.197982573269, -3020.3241730122772, -4209.436978034613, -3124.0586190293575, -9954.97524201575, -14561.289794598795, 0.014, -0.11, 0.988, 192.0, 0.0, 0.0, 0.0, 0.0, 0.0, 0.0, 0.0, 0.0, 0.0, 1.645921451398993E9, 0.0, 2022-02-27 11:24:11.398
130.0, -1556.5307803786732, -4820.176043531424, -1918.2043574099969, -10376.372680231652, -848.4275160345455, 193.63316221632508, -5676.404318380871, -1672.6033893350827, -3509.7156178612254, -6745.443552189297, -4329.465845759612, -3027.40967600461, -3838.5768340321583, -2890.080558071203, -10070.667871316418, -15009.375215694336, 0.014, -0.11, 0.988, 192.0, 0.0, 0.0, 0.0, 0.0, 0.0, 0.0, 0.0, 0.0, 0.0, 1.645921451405558E9, 0.0, 2022-02-27 11:24:11.405
132.0, -2108.7082754025787, -5231.649307209171, -2301.5591265629682, -10785.744879930602, -1352.705222690728, -199.51167100807083, -5851.7537536327545, -1850.5679786882376, -3207.96706771458, -7122.808053828247, -4679.360053462989, -3167.6668724616616, -4233.956841702085, -3256.5150566715074, -10207.013512493791, -15246.68368657633, 0.014, -0.11, 0.988, 192.0, 0.0, 0.0, 0.0, 0.0, 0.0, 0.0, 0.0, 0.0, 0.0, 1.645921451413999E9, 0.0, 2022-02-27 11:24:11.413
134.0, -1491.1072243579895, -4744.761257739217, -1853.071374067232, -10289.983187911892, -785.4403001594902, 263.23649445015127, -5556.733078567157, -1466.5873606905177, -2155.9822149255533, -6358.043117289915, -4376.0692329489275, -2960.3544426386884, -3985.2713328923387, -2932.6159277696524, -9895.810174442551, -14457.778866026267, 0.014, -0.11, 0.988, 192.0, 0.0, 0.0, 0.0, 0.0, 0.0, 0.0, 0.0, 0.0, 0.0, 1.645921451421455E9, 0.0, 2022-02-27 11:24:11.421
136.0, -1943.394773411128, -5113.274468573865, -2236.2249775201058, -10721.193041943676, -1234.5091980110644, -124.23099568259666, -5874.463125999347, -1912.7058282739913, -4315.048970585939, -7234.544424360326, -4473.411080051789, -3150.4783809755304, -3958.1139633791404, -3056.0199089074026, -10269.620748713107, -15531.355503959121, 0.012, -0.108, 0.988, 192.0, 0.0, 48.0, 126.0, 80.0, 15.0, 112.0, 0.0, 0.0, 0.0, 1.645921451428103E9, 0.0, 2022-02-27 11:24:11.428
138.0, -1778.7294720088807, -4972.41377501652, -2074.957141275065, -10541.485016523005, -1077.0188065789707, 32.61119516029301, -5652.1750273913185, -1605.4811007357957, -1874.4619935109608, -6550.469285305654, -4560.716993894219, -3008.1201205396796, -4203.491414009502, -3115.7661218364387, -9947.800332045595, -14563.815541722244, 0.012, -0.108, 0.988, 192.0, 0.0, 0.0, 0.0, 0.0, 0.0, 0.0, 0.0, 0.0, 0.0, 1.645921451436107E9, 0.0, 2022-02-27 11:24:11.436
140.0, -1473.2034770492885, -4733.674792489385, -1904.7039037589914, -10357.731325355928, -831.7531146708864, 189.85571740337818, -5679.93589400481, -1665.7637555317588, -3459.2006753922315, -6711.603011083962, -4300.766205878997, -3008.3212862397777, -3835.5369967862366, -2891.3322557607003, -10066.46574335882, -14999.763965578553, 0.012, -0.108, 0.988, 192.0, 0.0, 0.0, 0.0, 0.0, 0.0, 0.0, 0.0, 0.0, 0.0, 1.645921451444036E9, 0.0, 2022-02-27 11:24:11.444
142.0, -2034.7910564888784, -5163.565893598306, -2305.3142196314598, -10792.942141645211, -1344.8150568980047, -213.19093861471876, -5856.358212990548, -1862.4367549940057, -3262.9523590746358, -7147.484379706905, -4660.673995098352, -3161.0954595918015, -4229.397085833202, -3250.1671612462, -10217.697646343428, -15282.580588171553, 0.012, -0.108, 0.988, 192.0, 0.0, 0.0, 0.0, 0.0, 0.0, 0.0, 0.0, 0.0, 0.0, 1.645921451451565E9, 0.0, 2022-02-27 11:24:11.451
144.0, -1415.6030315879623, -4667.558332390587, -1853.205484533964, -10293.000673413359, -792.995189785384, 240.1471424278191, -5557.2024652007185, -1493.476509270252, -2091.6538943831797, -6334.685544334119, -4367.374404355813, -2950.3632128671666, -3991.619228317646, -2940.3943348400994, -9892.680930218808, -14461.779828283767, 0.012, -0.108, 0.988, 192.0, 0.0, 0.0, 0.0, 0.0, 0.0, 0.0, 0.0, 0.0, 0.0, 1.645921451458693E9, 0.0, 2022-02-27 11:24:11.458
146.0, -1854.233664778908, -5036.228005436422, -2225.384381459282, -10706.59735281436, -1226.171997329235, -130.22126319661893, -5883.135602848006, -1910.7612265063797, -4283.220086481582, -7202.782595489335, -4450.366431518368, -3138.184921525112, -3939.271442803317, -3058.6127112642184, -10265.798600411248, -15530.528489414275, 0.012, -0.11, 0.992, 192.0, 0.0, 48.0, 126.0, 72.0, 15.5, 0.0, 0.0, 0.0, 0.0, 1.645921451465642E9, 0.0, 2022-02-27 11:24:11.465
148.0, -1720.011439324789, -4907.30314341821, -2083.6966733570903, -10537.037019376401, -1081.0197688364708, 21.07769502135456, -5654.745478003679, -1600.2954960221646, -1863.3978800055838, -6534.018401386547, -4552.5139036791215, -2998.240649490434, -4201.0327221194175, -3136.7097063910614, -9949.476712879743, -14574.276158127328, 0.012, -0.11, 0.992, 192.0, 0.0, 0.0, 0.0, 0.0, 0.0, 0.0, 0.0, 0.0, 0.0, 1.645921451480884E9, 0.0, 2022-02-27 11:24:11.480
150.0, -1389.6973597642614, -4643.709021056774, -1894.9808949209328, -10337.055961734768, -815.346934240691, 204.4514065326937, -5664.870818241932, -1658.857066495069, -3399.8344421189363, -6677.002510667147, -4279.42028992418, -2993.4350244325433, -3823.064723380175, -2876.2448282533683, -10050.953632706838, -14978.552160090467, 0.012, -0.11, 0.992, 192.0, 0.0, 0.0, 0.0, 0.0, 0.0, 0.0, 0.0, 0.0, 0.0, 1.645921451488423E9, 0.0, 2022-02-27 11:24:11.488
152.0, -1976.3412447382505, -5111.195756339522, -2304.911888231264, -10775.463077481161, -1349.5983302114405, -209.05586589048696, -5857.431096724403, -1852.8255048782237, -3251.240044980055, -7120.818748571724, -4633.382515118422, -3136.7767616244273, -4211.627448991233, -3224.8873382672477, -10212.3108759297, -15286.067460306582, 0.012, -0.11, 0.992, 192.0, 0.0, 0.0, 0.0, 0.0, 0.0, 0.0, 0.0, 0.0, 0.0, 1.645921451496326E9, 0.0, 2022-02-27 11:24:11.496
154.0, -1369.290217076566, -4621.446683579288, -1852.8702083671342, -10277.734431950383, -794.0680735192387, 254.7428315571346, -5558.074183234476, -1479.1043375854895, -2060.339100401294, -6321.8109395278625, -4350.588244269878, -2921.730628219918, -3984.354911369671, -2933.8005702257838, -9893.060909874548, -14449.307554877705, 0.013000000000000001, -0.11, 0.989, 192.0, 0.0, 56.0, 126.0, 72.0, 15.0, 104.0, 0.0, 0.0, 0.0, 1.645921451504248E9, 0.0, 2022-02-27 11:24:11.504
156.0, -1797.4602338624281, -4975.69948145145, -2210.2075469741285, -10685.340843837363, -1208.1564912982574, -109.76941702001298, -5866.908236373453, -1895.6290955101367, -4277.8109643233975, -7169.232627061919, -4430.272213253047, -3118.1801102376116, -3932.6106229556353, -3023.855748636216, -10264.45749574393, -15523.018303277291, 0.013000000000000001, -0.11, 0.989, 192.0, 0.0, 0.0, 0.0, 0.0, 0.0, 0.0, 0.0, 0.0, 0.0, 1.645921451510995E9, 0.0, 2022-02-27 11:24:11.510
158.0, -1683.8463167961022, -4875.876590714049, -2079.740414588501, -10533.41603677464, -1080.8856583697388, 23.82695958935733, -5645.514207543637, -1593.0982343075557, -1867.264731796352, -6551.832741717428, -4543.506150663633, -2989.6799313640513, -4196.517669739445, -3121.5775753948183, -9948.627346590441, -14580.445239596993, 0.013000000000000001, -0.11, 0.989, 192.0, 0.0, 0.0, 0.0, 0.0, 0.0, 0.0, 0.0, 0.0, 0.0, 1.645921451518926E9, 0.0, 2022-02-27 11:24:11.518
160.0, -1340.83644638496, -4611.120177640936, -1874.2384760664079, -10323.577859828218, -797.2643729763477, 236.16853191477443, -5641.580300519503, -1628.6822114804045, -3344.8491507588806, -6655.656594712329, -4260.913045515185, -2975.151297468102, -3804.266906293262, -2863.951368802949, -10037.743751733751, -14956.446284824167, 0.013000000000000001, -0.11, 0.989, 192.0, 0.0, 0.0, 0.0, 0.0, 0.0, 0.0, 0.0, 0.0, 0.0, 1.645921451526968E9, 0.0, 2022-02-27 11:24:11.526
162.0, -1932.5765290947593, -5069.822677352748, -2292.9090014587646, -10773.876103624834, -1335.3826207378652, -197.34355179590605, -5839.639108137979, -1852.9819670894108, -3299.944496148169, -7116.102530491654, -4609.421445062333, -3126.3161452193435, -4180.82674513182, -3222.1604254437, -10212.288524185244, -15309.425033262378, 0.013000000000000001, -0.11, 0.989, 192.0, 0.0, 0.0, 0.0, 0.0, 0.0, 0.0, 0.0, 0.0, 0.0, 1.645921451534463E9, 0.0, 2022-02-27 11:24:11.534
164.0, -1333.7285916481724, -4581.660578448842, -1842.36488847314, -10275.767478438316, -784.0991954921717, 262.9906252611429, -5541.802113271012, -1479.1937445633107, -1994.423806002594, -6308.511651576955, -4334.405581284235, -2909.995962380882, -3969.3121873512496, -2906.352628034667, -9881.214485313236, -14441.573851296169, 0.013500000000000002, -0.108, 0.9895, 192.0, 0.0, 56.0, 126.0, 88.0, 15.0, 120.0, 0.0, 0.0, 0.0, 1.645921451540593E9, 0.0, 2022-02-27 11:24:11.540
166.0, -1754.0307943857665, -4929.990164040347, -2191.990875243053, -10668.152352351231, -1193.359636468844, -115.73733278957997, -5872.429117253914, -1913.1528631630974, -4252.374679133258, -7159.979004857422, -4407.9428205421955, -3101.103377473757, -3898.3901021945603, -3026.113274826202, -10253.818065383204, -15516.849221807626, 0.013500000000000002, -0.108, 0.9895, 192.0, 0.0, 0.0, 0.0, 0.0, 0.0, 0.0, 0.0, 0.0, 0.0, 1.645921451548523E9, 0.0, 2022-02-27 11:24:11.548
168.0, -1658.4100316059628, -4845.6570322104735, -2075.381824419716, -10532.901946652168, -1076.8399926233283, 11.779369327946823, -5664.379079863916, -1625.5306155122062, -1864.8507433951788, -6543.763761969061, -4532.464388902711, -2984.695492350518, -4187.8228411463315, -3126.8302353418158, -9959.4008874179, -14600.65121658459, 0.013500000000000002, -0.108, 0.9895, 192.0, 0.0, 0.0, 0.0, 0.0, 0.0, 0.0, 0.0, 0.0, 0.0, 1.645921451556685E9, 0.0, 2022-02-27 11:24:11.556
170.0, -1302.1902802217342, -4574.262151034135, -1858.8381241367013, -10313.56427831224, -780.8805442906075, 229.88769172283315, -5643.681364498301, -1642.9649761873457, -3304.1242723613113, -6613.031818036058, -4248.083144197839, -2970.2562654323897, -3808.401979017494, -2854.4071739205333, -10050.238376884268, -14951.48419755509, 0.013500000000000002, -0.108, 0.9895, 192.0, 0.0, 0.0, 0.0, 0.0, 0.0, 0.0, 0.0, 0.0, 0.0, 1.645921451563203E9, 0.0, 2022-02-27 11:24:11.563
172.0, -1908.1684241495639, -5053.707069600471, -2282.7166059871442, -10770.299824511985, -1343.8539318864266, -202.64091523181384, -5859.755678147755, -1865.7895166623018, -3334.3661826093416, -7129.625335887115, -4597.016226889637, -3131.1217702772346, -4176.222285774027, -3214.203204417611, -10225.476053413875, -15328.17814686038, 0.013500000000000002, -0.108, 0.9895, 192.0, 0.0, 0.0, 0.0, 0.0, 0.0, 0.0, 0.0, 0.0, 0.0, 1.645921451571281E9, 0.0, 2022-02-27 11:24:11.571
174.0, -1315.9142513172926, -4576.653787690853, -1834.5641296582378, -10273.241731314865, -798.6948846214873, 255.88277052435527, -5559.705860579713, -1481.9430091313136, -1964.807744599312, -6294.944142692583, -4331.14222659376, -2898.3283517752116, -3975.3695100986374, -2935.1863783820127, -9886.444793515777, -14437.662296016491, 0.014750000000000001, -0.10500000000000001, 0.98975, 192.0, 0.0, 64.0, 126.0, 104.0, 15.0, 120.0, 0.0, 0.0, 0.0, 1.645921451579314E9, 0.0, 2022-02-27 11:24:11.579
176.0, -1712.0989217876104, -4908.398378896521, -2169.348558109827, -10653.221387055086, -1181.2449909740676, -95.66546626871423, -5880.833373169109, -1909.7330462614354, -4248.597234320311, -7141.516463937339, -4388.496802866078, -3086.5747435778076, -3897.138404505063, -3011.7411031414395, -10261.21649279791, -15517.095090996634, 0.014750000000000001, -0.10500000000000001, 0.98975, 192.0, 0.0, 0.0, 0.0, 0.0, 0.0, 0.0, 0.0, 0.0, 0.0, 1.645921451586401E9, 0.0, 2022-02-27 11:24:11.586
178.0, -1665.2720171537421, -4852.563721247163, -2088.479946670526, -10556.013650418956, -1120.336487333356, -2.145767467709478, -5686.350844663482, -1635.1418656279882, -1912.325848618251, -6564.796753501506, -4534.140769736859, -2984.82960281725, -4195.467137750046, -3132.8652063447485, -9979.606864405498, -14639.27503100336, 0.014750000000000001, -0.10500000000000001, 0.98975, 192.0, 0.0, 0.0, 0.0, 0.0, 0.0, 0.0, 0.0, 0.0, 0.0, 1.645921451600861E9, 0.0, 2022-02-27 11:24:11.600
180.0, -1279.1903351772232, -4543.461447174722, -1853.719574656436, -10306.322313108722, -792.995189785384, 240.25890115009562, -5647.704678500257, -1636.8405982065915, -3240.9358907861583, -6603.755844087106, -4242.159931917183, -2955.7723350253505, -3807.8655371505665, -2858.2293222223907, -10039.666001756907, -14918.627133205788, 0.014750000000000001, -0.10500000000000001, 0.98975, 192.0, 0.0, 0.0, 0.0, 0.0, 0.0, 0.0, 0.0, 0.0, 0.0, 1.645921451609E9, 0.0, 2022-02-27 11:24:11.609
182.0, -1896.9254966885444, -5034.573976346729, -2290.9643996911527, -10773.138496057809, -1342.8257516414824, -199.15404309678593, -5867.77995440721, -1880.9216476585445, -3353.812200285459, -7129.2677079758305, -4592.322360554023, -3119.7670840939386, -4168.913265337142, -3197.5064513094967, -10238.417713453498, -15340.449254566343, 0.014750000000000001, -0.10500000000000001, 0.98975, 192.0, 0.0, 0.0, 0.0, 0.0, 0.0, 0.0, 0.0, 0.0, 0.0, 1.645921451616081E9, 0.0, 2022-02-27 11:24:11.616
184.0, -1309.5440041475301, -4568.405993986845, -1848.1092867981538, -10279.65668197354, -781.8416693021858, 252.03827047804245, -5559.325880923972, -1486.6592272113833, -1952.2907677043402, -6290.227924612514, -4330.739895193565, -2905.927944890016, -3978.7669752558445, -2924.926927677027, -9894.200848841769, -14433.661333758992, 0.014375, -0.10250000000000001, 0.988875, 192.0, 0.0, 56.0, 126.0, 112.0, 15.0, 112.0, 0.0, 0.0, 0.0, 1.6459214516235E9, 0.0, 2022-02-27 11:24:11.623
186.0, -1698.8666890700686, -4891.008721710292, -2177.6857587916566, -10649.265128286497, -1180.2391624735787, -97.40890233622818, -5873.837277154598, -1914.7621887638795, -4242.338745872825, -7115.499033391361, -4381.076023706916, -3090.8662785132265, -3894.1432707480517, -2982.952056283004, -10262.781114909783, -15508.489669381343, 0.014375, -0.10250000000000001, 0.988875, 192.0, 0.0, 0.0, 0.0, 0.0, 0.0, 0.0, 0.0, 0.0, 0.0, 1.64592145163157E9, 0.0, 2022-02-27 11:24:11.631
188.0, -1656.7112990273595, -4844.830017665627, -2094.492565929004, -10545.910661925158, -1114.659144241708, -7.018447758966418, -5687.669597586346, -1638.0475924071782, -1898.7359879894243, -6561.82397148895, -4537.582938382976, -2983.0638150052805, -4200.78685293041, -3141.6717936601394, -9980.031547550148, -14630.84842334371, 0.014375, -0.10250000000000001, 0.988875, 192.0, 0.0, 0.0, 0.0, 0.0, 0.0, 0.0, 0.0, 0.0, 0.0, 1.645921451638699E9, 0.0, 2022-02-27 11:24:11.638
190.0, -1285.649989324807, -4561.253435761147, -1857.809943891757, -10304.51182180784, -793.2187072299371, 226.9596131991879, -5660.378117606416, -1627.922252168924, -3236.532597128463, -6600.671303352274, -4253.894597756219, -2958.2980821488004, -3819.130816356041, -2855.5918163766646, -10042.705839002829, -14918.202450061137, 0.014375, -0.10250000000000001, 0.988875, 192.0, 0.0, 0.0, 0.0, 0.0, 0.0, 0.0, 0.0, 0.0, 0.0, 1.64592145164616E9, 0.0, 2022-02-27 11:24:11.646
192.0, -1900.099444401198, -5037.747924059382, -2296.798204993988, -10787.287150298018, -1349.9783098671808, -226.13259865434156, -5882.666216214445, -1909.6436392836142, -3407.3222765114638, -7134.296850478274, -4600.05606413556, -3138.140218036201, -4183.35249225527, -3207.6988467811166, -10248.163074036012, -15361.303432143144, 0.014375, -0.10250000000000001, 0.988875, 192.0, 0.0, 0.0, 0.0, 0.0, 0.0, 0.0, 0.0, 0.0, 0.0, 1.645921451653156E9, 0.0, 2022-02-27 11:24:11.653
194.0, -1322.3515537204212, -4578.352520269456, -1856.133563057609, -10300.242638616877, -812.4635592059565, 223.94212769772147, -5557.604796600914, -1497.0304366386458, -1941.137247221142, -6287.545715277876, -4333.556214994934, -2915.740360705896, -3996.223687675439, -2943.9929656974036, -9890.758680195651, -14444.412522841994, 0.0141875, -0.10425000000000001, 0.9864375, 192.0, 0.0, 56.0, 126.0, 88.0, 15.0, 96.0, 0.0, 0.0, 0.0, 1.645921451661181E9, 0.0, 2022-02-27 11:24:11.661
196.0, -1686.6849883419263, -4883.856163484593, -2172.924837222676, -10655.970651623089, -1160.8602000308276, -83.5284690294825, -5880.6322074690115, -1922.5182440898711, -4255.280405912448, -7139.236586002897, -4380.249009162069, -3091.4474238690646, -3898.0771777721857, -3003.2921437373334, -10264.010460854824, -15511.753024071817, 0.0141875, -0.10425000000000001, 0.9864375, 192.0, 0.0, 0.0, 0.0, 0.0, 0.0, 0.0, 0.0, 0.0, 0.0, 1.645921451668645E9, 0.0, 2022-02-27 11:24:11.668
198.0, -1661.4498688518845, -4845.478218254831, -2103.8579468557773, -10567.435391835617, -1114.2121093526018, -25.369229956773516, -5701.170051237351, -1643.2555488652647, -1931.2354244274409, -6584.39923338881, -4545.316641964512, -2996.6536756341075, -4213.683809481122, -3139.548377936885, -9994.31431225709, -14655.770618411378, 0.0141875, -0.10425000000000001, 0.9864375, 192.0, 0.0, 0.0, 0.0, 0.0, 0.0, 0.0, 0.0, 0.0, 0.0, 1.645921451675778E9, 0.0, 2022-02-27 11:24:11.675
200.0, -1275.8152217644717, -4548.4235344438, -1859.4863247259052, -10303.327179351709, -766.3742621391133, 228.1442556553192, -5638.87573944041, -1611.0019816162564, -3199.495756566019, -6597.184431217245, -4253.626376822755, -2967.9987392424036, -3824.8975664255104, -2846.6287668500863, -10042.236452369269, -14898.510563196012, 0.0141875, -0.10425000000000001, 0.9864375, 192.0, 0.0, 0.0, 0.0, 0.0, 0.0, 0.0, 0.0, 0.0, 0.0, 1.645921451683752E9, 0.0, 2022-02-27 11:24:11.683
202.0, -1901.3287903462399, -5045.012241007357, -2305.470681842647, -10781.878028139834, -1367.6361879868732, -226.49022656562647, -5877.882942901009, -1897.7525112333908, -3461.927588215779, -7163.689394437003, -4612.237764863702, -3146.1868460401115, -4186.660550434655, -3217.1312829412564, -10253.75101014984, -15373.887464271482, 0.0141875, -0.10425000000000001, 0.9864375, 192.0, 0.0, 0.0, 0.0, 0.0, 0.0, 0.0, 0.0, 0.0, 0.0, 1.645921451691821E9, 0.0, 2022-02-27 11:24:11.691
204.0, -1309.1193210028794, -4562.505133450643, -1856.133563057609, -10286.898647177059, -820.8678151211519, 239.20836916069618, -5552.128619209364, -1507.7592739771933, -1927.2568139143962, -6283.276532086913, -4347.838979701874, -2905.4585582564546, -4006.7513593138888, -2929.4866835459097, -9892.770337196629, -14433.28135410325, 0.013093750000000001, -0.105125, 0.98521875, 192.0, 0.0, 48.0, 126.0, 88.0, 15.0, 96.0, 0.0, 0.0, 0.0, 1.645921451698402E9, 0.0, 2022-02-27 11:24:11.698
206.0, -1652.8667989810467, -4853.413087536465, -2154.506999791503, -10633.14952053422, -1163.6765198321964, -90.5245650439936, -5882.3979952809805, -1922.875872001156, -4234.426228335647, -7093.035530213778, -4361.741764753076, -3079.310426629833, -3887.527154389281, -2960.2426839164123, -10255.98618459537, -15504.265189679289, 0.013093750000000001, -0.105125, 0.98521875, 192.0, 0.0, 0.0, 0.0, 0.0, 0.0, 0.0, 0.0, 0.0, 0.0, 1.645921451706519E9, 0.0, 2022-02-27 11:24:11.706
208.0, -1653.0456129366892, -4844.651203709985, -2102.1368625327186, -10565.602548790283, -1135.7591910075178, -0.15646221118714942, -5706.087435017519, -1645.3342610996083, -1945.6075961122033, -6573.1563059277905, -4535.392467426356, -2986.6847976070403, -4212.029780391429, -3130.115941776746, -9996.057748324603, -14664.733667937955, 0.013093750000000001, -0.105125, 0.98521875, 192.0, 0.0, 0.0, 0.0, 0.0, 0.0, 0.0, 0.0, 0.0, 0.0, 1.645921451713487E9, 0.0, 2022-02-27 11:24:11.713
210.0, -1240.9912039031035, -4528.37401966739, -1836.5981384036706, -10289.1785251115, -769.0341197292948, 234.73802026963477, -5638.249890595662, -1618.0651328641336, -3165.3199392938545, -6567.210741902679, -4240.192978405115, -2953.023070457348, -3827.5127205267813, -2836.7939992897514, -10035.352115077034, -14887.334690968359, 0.013093750000000001, -0.105125, 0.98521875, 192.0, 0.0, 0.0, 0.0, 0.0, 0.0, 0.0, 0.0, 0.0, 0.0, 1.645921451728081E9, 0.0, 2022-02-27 11:24:11.728
212.0, -1876.1160226006537, -5024.828615764215, -2293.8701264703427, -10786.504839242083, -1346.2679202875997, -218.48830205062654, -5880.54280049119, -1894.846784454201, -3494.963466520723, -7159.50961822386, -4575.983235357194, -3134.42982845662, -4153.6023203852565, -3210.8280910048597, -10251.806408382226, -15394.607531381553, 0.013093750000000001, -0.105125, 0.98521875, 192.0, 0.0, 0.0, 0.0, 0.0, 0.0, 0.0, 0.0, 0.0, 0.0, 1.645921451736066E9, 0.0, 2022-02-27 11:24:11.736
214.0, -1306.772387835072, -4568.361290497934, -1851.7079176554582, -10295.772289725815, -811.7259516389313, 240.63888080583584, -5540.729229537157, -1493.1188813589672, -1867.331787029718, -6286.204610610558, -4343.748610466553, -2908.029008868815, -4005.969048257953, -2954.274768146845, -9881.035671357593, -14421.881964431044, 0.012546875, -0.1055625, 0.988609375, 192.0, 0.0, 48.0, 126.0, 88.0, 15.5, 0.0, 0.0, 0.0, 0.0, 1.645921451743396E9, 0.0, 2022-02-27 11:24:11.743
216.0, -1631.2079586038542, -4834.995250105292, -2134.569243737369, -10610.14957548971, -1133.8369409843613, -70.69856771213624, -5852.49136119978, -1890.6446564966031, -4211.3592280577695, -7074.036547426766, -4357.427878073201, -3083.3560923762434, -3875.47956412787, -2972.6255503446523, -10240.317611732198, -15478.270110877767, 0.012546875, -0.1055625, 0.988609375, 192.0, 0.0, 0.0, 0.0, 0.0, 0.0, 0.0, 0.0, 0.0, 0.0, 1.645921451751594E9, 0.0, 2022-02-27 11:24:11.751
218.0, -1677.8784010265354, -4867.919369687959, -2114.966763850065, -10580.287644897418, -1137.7931997529506, -36.94743358462257, -5691.290580188105, -1670.6811393119265, -1992.9262391240884, -6612.49537616913, -4549.80934260003, -3005.2590972494004, -4218.221213605549, -3144.1528372946786, -9995.521306457676, -14686.727784481978, 0.012546875, -0.1055625, 0.988609375, 192.0, 0.0, 0.0, 0.0, 0.0, 0.0, 0.0, 0.0, 0.0, 0.0, 1.6459214517595E9, 0.0, 2022-02-27 11:24:11.759
220.0, -1240.9241486697374, -4523.523691120588, -1835.9946413033774, -10283.03179538629, -768.5870848401887, 242.22585466216265, -5621.530785743093, -1625.7988364456698, -3082.9314092315926, -6539.405171800277, -4234.672097524654, -2944.8646837311608, -3820.9413076569213, -2840.7279063138853, -10005.780757162662, -14847.615641071277, 0.012546875, -0.1055625, 0.988609375, 192.0, 0.0, 0.0, 0.0, 0.0, 0.0, 0.0, 0.0, 0.0, 0.0, 1.645921451765941E9, 0.0, 2022-02-27 11:24:11.765
222.0, -1887.6718744840473, -5033.411685635053, -2304.174280664239, -10788.002406120588, -1354.8956936473483, -224.83619747593374, -5877.6370737120005, -1901.5076043018823, -3511.8613853289353, -7161.074240335732, -4579.71597668123, -3136.4861889465083, -4161.604244900256, -3201.462710078086, -10249.50417870333, -15394.786345337196, 0.012546875, -0.1055625, 0.988609375, 192.0, 0.0, 0.0, 0.0, 0.0, 0.0, 0.0, 0.0, 0.0, 0.0, 1.645921451773913E9, 0.0, 2022-02-27 11:24:11.773
224.0, -1310.2369082256448, -4573.390433000378, -1862.1461823160867, -10298.812126971738, -812.7764836283308, 218.15302588379694, -5554.363793654895, -1506.5299280321512, -1865.744813173391, -6286.517535032933, -4333.0421248724615, -2906.4643867569434, -4004.9855715019194, -2944.81998024225, -9880.365119023934, -14414.19296433842, 0.014, -0.11, 0.992, 192.0, 0.0, 56.0, 126.0, 72.0, 15.5, 0.0, 0.0, 0.0, 0.0, 1.645921451781023E9, 0.0, 2022-02-27 11:24:11.781
226.0, -1632.079676637611, -4844.807665921172, -2148.874360188766, -10623.00182855151, -1131.758228750018, -67.83754442185693, -5850.032669309696, -1894.489156542916, -4214.577879259334, -7084.921846976501, -4347.86133144633, -3078.7963365073606, -3866.7400320458455, -2970.5468381103087, -10243.379800722576, -15475.833770732139, 0.014, -0.11, 0.992, 192.0, 0.0, 0.0, 0.0, 0.0, 0.0, 0.0, 0.0, 0.0, 0.0, 1.645921451788992E9, 0.0, 2022-02-27 11:24:11.788
228.0, -1667.1942671768984, -4860.252721339789, -2117.5372144624253, -10583.372185632252, -1135.17804565168, -28.364363713784662, -5690.687083087812, -1671.1281742010326, -1989.1487943111415, -6619.290306483545, -4542.388563440867, -3006.242574005434, -4215.404893804181, -3142.9011396051815, -10001.600980949519, -14692.38277582917, 0.014, -0.11, 0.992, 192.0, 0.0, 0.0, 0.0, 0.0, 0.0, 0.0, 0.0, 0.0, 0.0, 1.645921451795659E9, 0.0, 2022-02-27 11:24:11.795
230.0, -1238.1078288683689, -4520.685019574764, -1831.367830201129, -10282.94238840847, -754.6619480445323, 254.67577632376867, -5616.233422307185, -1612.0078101167453, -3085.4795080994977, -6527.446988516687, -4233.5992137908, -2957.851047259694, -3817.0297523772424, -2858.855171067139, -10011.189879320846, -14854.27646091896, 0.014, -0.11, 0.992, 192.0, 0.0, 0.0, 0.0, 0.0, 0.0, 0.0, 0.0, 0.0, 0.0, 1.645921451803602E9, 0.0, 2022-02-27 11:24:11.803
232.0, -1896.9478484329998, -5051.136618988111, -2303.928411475231, -10790.818725921956, -1347.519617977097, -234.60390980290293, -5881.034538869208, -1918.6066888101923, -3563.8738946764347, -7188.723348226947, -4578.263113291635, -3155.440468244609, -4151.456552917547, -3206.6036113028067, -10256.455571228931, -15415.886392103004, 0.014, -0.11, 0.992, 192.0, 0.0, 0.0, 0.0, 0.0, 0.0, 0.0, 0.0, 0.0, 0.0, 1.645921451811783E9, 0.0, 2022-02-27 11:24:11.811
234.0, -1339.6518039288287, -4607.05216015007, -1872.271522554341, -10311.150289911067, -813.1117597951603, 225.6855637652354, -5565.986700771654, -1523.181977651355, -1876.496002256394, -6308.86927948824, -4347.90603493524, -2914.533366505309, -4014.216841961961, -2946.183436654024, -9881.4827062467, -14423.603048754103, 0.012, -0.11, 0.988, 192.0, 0.0, 48.0, 126.0, 72.0, 15.0, 112.0, 0.0, 0.0, 0.0, 1.645921451818371E9, 0.0, 2022-02-27 11:24:11.818
236.0, -1632.7502289712704, -4854.9330061594255, -2134.122208848263, -10611.714197601581, -1124.136283890758, -57.62279720578161, -5843.573015162113, -1908.8836799721337, -4229.732362000032, -7100.8586407731345, -4356.086773405883, -3084.719548788017, -3868.997558235831, -2959.125096693647, -10232.136873261557, -15471.11755265207, 0.012, -0.11, 0.988, 192.0, 0.0, 0.0, 0.0, 0.0, 0.0, 0.0, 0.0, 0.0, 0.0, 1.645921451826395E9, 0.0, 2022-02-27 11:24:11.826
238.0, -1704.2534594837975, -4892.550992077708, -2139.2407583285285, -10596.179735205144, -1161.6425110867633, -46.53633195594931, -5712.100054275997, -1680.3594446610743, -2072.5878563628025, -6658.539969747063, -4570.842334132473, -3023.4087137471097, -4229.955879444585, -3160.2907967914102, -10008.328856030566, -14722.781148288388, 0.012, -0.11, 0.988, 192.0, 0.0, 0.0, 0.0, 0.0, 0.0, 0.0, 0.0, 0.0, 0.0, 1.645921451834347E9, 0.0, 2022-02-27 11:24:11.834
240.0, -1246.3109190834666, -4534.766618581608, -1832.9324523130003, -10281.243655829867, -766.3519103946579, 253.58054084545861, -5626.44816952326, -1633.3313743271083, -3055.7740397183943, -6540.433352045221, -4253.98400473404, -2952.240759401412, -3846.109371913597, -2847.2993191837454, -10007.703007185819, -14823.922791948653, 0.012, -0.11, 0.988, 192.0, 0.0, 0.0, 0.0, 0.0, 0.0, 0.0, 0.0, 0.0, 0.0, 1.645921451847928E9, 0.0, 2022-02-27 11:24:11.847
242.0, -1901.0605694127762, -5053.751773089382, -2303.5484318194904, -10795.870220168856, -1359.1201733494013, -224.053886419998, -5882.755623192265, -1935.5716628517705, -3604.8446422630122, -7202.939057700522, -4578.084299335993, -3152.579444954329, -4160.106678021751, -3201.5744688003624, -10257.729620662883, -15430.638543443507, 0.012, -0.11, 0.988, 192.0, 0.0, 0.0, 0.0, 0.0, 0.0, 0.0, 0.0, 0.0, 0.0, 1.645921451855882E9, 0.0, 2022-02-27 11:24:11.855
244.0, -1349.5089232336193, -4602.335942070001, -1875.2219528224414, -10310.882068977604, -840.4926467529115, 225.9537846986991, -5571.440526418749, -1522.667887528883, -1863.2190660499414, -6309.919811477639, -4355.639738516777, -2915.9415264059935, -4029.6395456361233, -2960.041518216314, -9877.951130622761, -14417.746891706813, 0.012, -0.106, 0.988, 192.0, 0.0, 48.0, 126.0, 88.0, 15.0, 112.0, 0.0, 0.0, 0.0, 1.645921451863923E9, 0.0, 2022-02-27 11:24:11.863
246.0, -1635.6559557504602, -4838.660936195963, -2129.5401012349253, -10596.783232305435, -1116.0673041423922, -44.323509254873905, -5847.8198466086205, -1901.1946798795082, -4227.944222443607, -7093.862544758624, -4359.417183329723, -3086.820612766816, -3875.09958447213, -2965.5176956078644, -10231.063989527702, -15460.142846124512, 0.012, -0.106, 0.988, 192.0, 0.0, 0.0, 0.0, 0.0, 0.0, 0.0, 0.0, 0.0, 0.0, 1.645921451871042E9, 0.0, 2022-02-27 11:24:11.871
248.0, -1710.914279331479, -4885.957227463392, -2136.1338658492405, -10596.76088056098, -1157.842714529361, -44.21175053259737, -5714.111711276974, -1697.8161570806692, -2088.5022984149814, -6664.641995983362, -4574.61977894542, -3025.0627428368025, -4236.057905680884, -3157.3180147788544, -10013.380350277466, -14738.181500218094, 0.012, -0.106, 0.988, 192.0, 0.0, 0.0, 0.0, 0.0, 0.0, 0.0, 0.0, 0.0, 0.0, 1.645921451878539E9, 0.0, 2022-02-27 11:24:11.878
250.0, -1249.48486679612, -4536.666516860309, -1828.819731333224, -10268.167885323512, -750.8174479982196, 260.5542851155144, -5619.049742108553, -1606.4198740029185, -3031.8576731512157, -6536.678258976729, -4253.98400473404, -2956.44288735901, -3842.846017223122, -2850.406211663033, -9999.030530337159, -14819.050111657396, 0.012, -0.106, 0.988, 192.0, 0.0, 0.0, 0.0, 0.0, 0.0, 0.0, 0.0, 0.0, 0.0, 1.645921451886562E9, 0.0, 2022-02-27 11:24:11.886
252.0, -1900.3676653346618, -5048.320299186743, -2301.268553885049, -10791.66809221126, -1353.5322372355745, -215.69433399371314, -5888.6117802395565, -1941.0701919877758, -3682.762823434213, -7212.215031649474, -4576.4302702463, -3153.9652531105585, -4139.699535334055, -3175.1547068541895, -10267.65379520104, -15452.252680331789, 0.012, -0.106, 0.988, 192.0, 0.0, 0.0, 0.0, 0.0, 0.0, 0.0, 0.0, 0.0, 0.0, 1.645921451894617E9, 0.0, 2022-02-27 11:24:11.894
254.0, -1350.8500279009377, -4599.877250179917, -1880.7651854473575, -10314.950086468469, -837.6092717181768, 202.46210127617138, -5565.517314138093, -1531.0497916996233, -1838.9003680825674, -6288.573895522821, -4367.329700866902, -2911.560584492753, -4036.4568276949917, -2968.7810502983393, -9883.092031847482, -14427.559307522692, 0.012, -0.10200000000000001, 0.986, 192.0, 0.0, 48.0, 126.0, 104.0, 15.0, 104.0, 0.0, 0.0, 0.0, 1.645921451900654E9, 0.0, 2022-02-27 11:24:11.900
0.0, -1605.7046181803487, -4821.606555176563, -2110.161138792174, -10593.162249703677, -1109.6747052281744, -47.27393952297444, -5852.379602477504, -1905.7544357483907, -4191.421472003635, -7042.431180766962, -4337.71363946362, -3063.4183363221096, -3863.7001947999233, -2950.2291024004344, -10227.845338326137, -15452.476197776343, 0.012, -0.10200000000000001, 0.986, 192.0, 0.0, 0.0, 0.0, 0.0, 0.0, 0.0, 0.0, 0.0, 0.0, 1.645921451908225E9, 0.0, 2022-02-27 11:24:11.908
2.0, -1698.7996338367027, -4878.53644830423, -2126.2096913110845, -10594.23513343753, -1167.7892408119728, -58.65097745072573, -5713.307048476583, -1709.1261397750545, -2077.482888398515, -6676.756641478139, -4555.33022348049, -3026.4261992485763, -4229.061809666373, -3129.5794999098184, -10019.258859069212, -14749.290317212382, 0.012, -0.10200000000000001, 0.986, 192.0, 0.0, 0.0, 0.0, 0.0, 0.0, 0.0, 0.0, 0.0, 0.0, 1.64592145191611E9, 0.0, 2022-02-27 11:24:11.916
4.0, -1234.5315497555198, -4519.858005029918, -1815.7663125713245, -10257.371992751598, -759.8252010137082, 258.2744071810731, -5597.815584876012, -1614.9805921293012, -2999.6711611355736, -6506.279886517512, -4244.640975551722, -2934.1805498815243, -3842.980127689854, -2841.577272603187, -9996.12480355797, -14814.400948810691, 0.012, -0.10200000000000001, 0.986, 192.0, 0.0, 0.0, 0.0, 0.0, 0.0, 0.0, 0.0, 0.0, 0.0, 1.645921451923377E9, 0.0, 2022-02-27 11:24:11.923
6.0, -1895.6290955101367, -5042.821770050737, -2294.048940425985, -10784.403775263283, -1367.3456153089542, -234.11217142488618, -5888.052986628174, -1950.0332415143541, -3685.176811835386, -7192.947827929, -4570.909389365839, -3139.52602619243, -4147.097962748761, -3180.4744220345524, -10263.60812945463, -15458.578224012641, 0.012, -0.10200000000000001, 0.986, 192.0, 0.0, 0.0, 0.0, 0.0, 0.0, 0.0, 0.0, 0.0, 0.0, 1.645921451930884E9, 0.0, 2022-02-27 11:24:11.930
8.0, -1355.163914580812, -4606.739235727696, -1875.199601077986, -10315.285362635299, -859.2457603509141, 202.59621174290322, -5570.345290940439, -1528.6358032984501, -1833.9382808134892, -6304.242468385991, -4362.0993926643605, -2914.3098490607563, -4043.4976271984137, -2953.179532668535, -9880.4321742573, -14423.200717353908, 0.012, -0.10400000000000001, 0.988, 192.0, 0.0, 48.0, 126.0, 96.0, 15.0, 112.0, 0.0, 0.0, 0.0, 1.645921451938845E9, 0.0, 2022-02-27 11:24:11.938
10.0, -1595.020484330712, -4794.449185663365, -2099.097025286797, -10573.202141905087, -1105.718446459585, -34.220520761075115, -5831.771294089711, -1906.8049677377903, -4187.934599868608, -7033.959869618401, -4333.735028950576, -3056.5116472854197, -3870.7633460478005, -2946.339898865211, -10228.515890659797, -15445.949488395392, 0.012, -0.10400000000000001, 0.988, 192.0, 0.0, 0.0, 0.0, 0.0, 0.0, 0.0, 0.0, 0.0, 0.0, 1.645921451946847E9, 0.0, 2022-02-27 11:24:11.946
12.0, -1710.1543200199987, -4887.499497830809, -2132.9152146476763, -10597.766709061469, -1181.4685084186208, -58.74038442854696, -5730.093208562518, -1700.5654216486719, -2125.6956011886123, -6673.895618187859, -4568.5401044535765, -3022.626402691174, -4246.295004641414, -3147.9302821076253, -10034.055713898626, -14768.82574186632, 0.012, -0.10400000000000001, 0.988, 192.0, 0.0, 0.0, 0.0, 0.0, 0.0, 0.0, 0.0, 0.0, 0.0, 1.645921451953545E9, 0.0, 2022-02-27 11:24:11.953
14.0, -1218.974735614626, -4519.388618396356, -1801.751768797847, -10247.403114724531, -750.3927648535687, 259.5708083594809, -5612.9700676167095, -1611.6501822054604, -2944.8423319867056, -6488.487897931087, -4239.142446415716, -2917.126168862125, -3847.8081044922, -2850.339156429667, -10000.461041982298, -14794.820820667843, 0.012, -0.10400000000000001, 0.988, 192.0, 0.0, 0.0, 0.0, 0.0, 0.0, 0.0, 0.0, 0.0, 0.0, 1.645921451960511E9, 0.0, 2022-02-27 11:24:11.960
16.0, -1880.5193162583491, -5038.910214771058, -2285.443518810692, -10781.27453103954, -1355.163914580812, -237.19671215971854, -5873.725518432322, -1953.877741560667, -3726.4828355887935, -7204.391921090117, -4554.503208935644, -3119.2306422270112, -4131.541148607868, -3157.72034617905, -10275.163981338022, -15483.880398736048, 0.012, -0.10400000000000001, 0.988, 192.0, 0.0, 0.0, 0.0, 0.0, 0.0, 0.0, 0.0, 0.0, 0.0, 1.645921451976657E9, 0.0, 2022-02-27 11:24:11.976
18.0, -1363.9481501517475, -4619.904413211872, -1878.9546941464776, -10331.937412254503, -862.442059808023, 199.3999122857943, -5555.771953555579, -1518.666925271383, -1813.9558212704446, -6308.086968432304, -4376.315102137935, -2905.14563383408, -4065.648205953623, -2955.2582449028787, -9884.164915581336, -14424.027731898754, 0.01, -0.10200000000000001, 0.992, 192.0, 0.0, 40.0, 126.0, 104.0, 15.5, 0.0, 0.0, 0.0, 0.0, 1.645921451983132E9, 0.0, 2022-02-27 11:24:11.983
20.0, -1586.5938766710613, -4808.419025947932, -2089.8210513378444, -10576.890179740212, -1093.2238213090684, -31.71712538208072, -5821.176567217894, -1898.4007118225948, -4170.187314771094, -7026.337924759141, -4336.663107474221, -3070.9732259480033, -3870.3163111586946, -2930.112532390658, -10224.939611546948, -15435.354761523577, 0.01, -0.10200000000000001, 0.992, 192.0, 0.0, 0.0, 0.0, 0.0, 0.0, 0.0, 0.0, 0.0, 0.0, 1.64592145199113E9, 0.0, 2022-02-27 11:24:11.991
22.0, -1715.7646078782807, -4894.808518267693, -2135.1727408376623, -10613.703502858103, -1186.8552788323498, -69.64803572273681, -5719.364371223971, -1725.6217271830712, -2149.254339844506, -6692.827545741505, -4579.179534814302, -3022.7828649023613, -4253.9169495006745, -3145.8515698732817, -10039.576594779086, -14787.489448486502, 0.01, -0.10200000000000001, 0.992, 192.0, 0.0, 0.0, 0.0, 0.0, 0.0, 0.0, 0.0, 0.0, 0.0, 1.645921451999125E9, 0.0, 2022-02-27 11:24:11.999
24.0, -1221.0310961045143, -4509.263278158102, -1802.556431598238, -10256.589681695663, -741.5638257937225, 256.8438955359335, -5608.455015236737, -1578.1225655224998, -2925.86570094415, -6493.070005544425, -4252.93347274464, -2925.441017799499, -3854.3124621286947, -2849.981528518382, -9995.320140757578, -14790.931617132619, 0.01, -0.10200000000000001, 0.992, 192.0, 0.0, 0.0, 0.0, 0.0, 0.0, 0.0, 0.0, 0.0, 0.0, 1.64592145200644E9, 0.0, 2022-02-27 11:24:12.006
26.0, -1880.0052261358771, -5029.522482099829, -2287.1198996448397, -10784.56023747447, -1353.5322372355745, -235.76620051457888, -5902.514565290758, -1945.2723199453737, -3746.0406119871873, -7187.181077859531, -4563.041575317571, -3120.7282091055167, -4134.536282364879, -3172.5172010084634, -10280.215475584922, -15490.138887183535, 0.01, -0.10200000000000001, 0.992, 192.0, 0.0, 0.0, 0.0, 0.0, 0.0, 0.0, 0.0, 0.0, 0.0, 1.645921452013768E9, 0.0, 2022-02-27 11:24:12.013
28.0, -1369.0443478875575, -4629.135683671914, -1884.140298860109, -10333.457330877463, -864.0290336643499, 181.45146148818273, -5555.593139599936, -1539.5881580815505, -1787.916038980012, -6284.662340243142, -4377.72326203862, -2893.2992092727673, -4056.9980808494192, -2964.4671636184653, -9888.948188894772, -14428.721598234368, 0.012, -0.1, 0.988, 192.0, 0.0, 48.0, 126.0, 112.0, 15.0, 112.0, 0.0, 0.0, 0.0, 1.645921452021704E9, 0.0, 2022-02-27 11:24:12.021
30.0, -1574.3227689650976, -4804.552174157164, -2083.4061006791712, -10565.960176701568, -1086.1606700611915, -21.23415723254171, -5830.407837677937, -1885.5708105052486, -4156.48569541999, -7025.242689280831, -4343.2568720885365, -3063.038356666369, -3870.428069880971, -2940.595500540197, -10225.07372201368, -15430.52678472123, 0.012, -0.1, 0.988, 192.0, 0.0, 0.0, 0.0, 0.0, 0.0, 0.0, 0.0, 0.0, 0.0, 1.645921452028818E9, 0.0, 2022-02-27 11:24:12.028
32.0, -1725.9793550943562, -4912.444044642931, -2146.4603717875925, -10625.080540785855, -1206.7259796531177, -80.57803876138196, -5749.3827640274485, -1734.495369731828, -2180.47972684857, -6713.458205873752, -4587.874363407417, -3028.6390219496516, -4254.31928090087, -3174.595913242807, -10053.345269363555, -14814.468004044058, 0.012, -0.1, 0.988, 192.0, 0.0, 0.0, 0.0, 0.0, 0.0, 0.0, 0.0, 0.0, 0.0, 1.645921452036022E9, 0.0, 2022-02-27 11:24:12.036
34.0, -1219.712343181651, -4519.008638740616, -1800.9694577419114, -10258.958966607925, -747.0400031852727, 264.890523539844, -5594.999265074643, -1595.7804436421925, -2863.861961825128, -6472.752269834551, -4251.681775055144, -2922.1329596201135, -3861.107392443108, -2858.765764089318, -9993.710815156795, -14774.480733213513, 0.012, -0.1, 0.988, 192.0, 0.0, 0.0, 0.0, 0.0, 0.0, 0.0, 0.0, 0.0, 0.0, 1.645921452043373E9, 0.0, 2022-02-27 11:24:12.043
36.0, -1875.3784150336285, -5038.507883370863, -2286.337588588904, -10788.18122007623, -1360.036594872069, -220.76817998506786, -5909.108329905072, -1953.6318723716586, -3801.718807425357, -7219.948735231011, -4558.146543281859, -3129.1995202540784, -4131.563500352323, -3151.752430409483, -10284.261141331333, -15510.210753704401, 0.012, -0.10500000000000001, 0.988, 192.0, 0.0, 48.0, 126.0, 72.0, 15.0, 112.0, 0.0, 0.0, 0.0, 1.645921452051479E9, 0.0, 2022-02-27 11:24:12.051
38.0, -1370.7877839550715, -4628.286317382613, -1885.3696448051508, -10337.637107090606, -873.9979116914168, 186.19003131270784, -5581.610570145914, -1550.2052366978214, -1764.5808177686713, -6298.00633168296, -4390.843736033886, -2898.9094971310496, -4073.381909535159, -2968.0881462202246, -9893.217372085735, -14429.816833712679, 0.012, -0.10500000000000001, 0.988, 192.0, 0.0, 0.0, 0.0, 0.0, 0.0, 0.0, 0.0, 0.0, 0.0, 1.645921452058615E9, 0.0, 2022-02-27 11:24:12.058
40.0, -1556.1060972340224, -4790.917610039426, -2073.683091841113, -10561.914510955157, -1066.3570244737894, -26.24094799053049, -5808.81605253411, -1872.3609295321621, -4111.134005920173, -6993.905543554491, -4327.700057947643, -3041.8712546671936, -3853.8654272395884, -2929.4866835459097, -10213.495518385831, -15412.354816479066, 0.012, -0.10500000000000001, 0.988, 192.0, 0.0, 0.0, 0.0, 0.0, 0.0, 0.0, 0.0, 0.0, 0.0, 1.645921452066008E9, 0.0, 2022-02-27 11:24:12.066
42.0, -1729.6450411850265, -4915.126253977568, -2153.992909669031, -10635.474101957572, -1199.3499039828664, -94.23495462357458, -5733.5353772086355, -1727.9463086064231, -2190.7615292980113, -6714.598144840974, -4590.24364831968, -3031.3212312842884, -4256.710917557588, -3165.7222706940497, -10050.439542584365, -14828.594306539811, 0.012, -0.10500000000000001, 0.988, 192.0, 0.0, 0.0, 0.0, 0.0, 0.0, 0.0, 0.0, 0.0, 0.0, 1.645921452074055E9, 0.0, 2022-02-27 11:24:12.074
44.0, -1211.4421977331874, -4510.246754914136, -1797.370826884607, -10252.119332804601, -743.866055472619, 261.89538978283286, -5598.597895931947, -1593.5899726855723, -2822.7124002829078, -6455.831999281883, -4253.715783800577, -2924.546948021287, -3864.6389680670463, -2853.669566353508, -9984.390137718932, -14762.50019818547, 0.012, -0.10500000000000001, 0.988, 192.0, 0.0, 0.0, 0.0, 0.0, 0.0, 0.0, 0.0, 0.0, 0.0, 1.64592145208209E9, 0.0, 2022-02-27 11:24:12.082
46.0, -1874.7749179333352, -5039.625470593628, -2290.7408822465995, -10789.030586365532, -1364.1493158518454, -231.7205347681683, -5910.896469461497, -1958.1245730071753, -3824.428179791949, -7223.167386432575, -4555.576092669498, -3129.8924243321926, -4123.561575837323, -3171.1537445966896, -10290.31846407872, -15524.225297477878, 0.011, -0.10750000000000001, 0.987, 192.0, 0.0, 40.0, 126.0, 72.0, 15.0, 104.0, 0.0, 0.0, 0.0, 1.645921452095523E9, 0.0, 2022-02-27 11:24:12.095
48.0, -1375.325188079499, -4641.25032916669, -1900.5241275458488, -10350.109380496668, -900.1718044485814, 167.48162120361582, -5578.906009066822, -1535.564844079595, -1750.4545152729172, -6311.909116734161, -4396.185802958704, -2901.3234855322225, -4089.363406820704, -2989.411710430588, -9895.00551164216, -14438.645772772525, 0.011, -0.10750000000000001, 0.987, 192.0, 0.0, 0.0, 0.0, 0.0, 0.0, 0.0, 0.0, 0.0, 0.0, 1.645921452103574E9, 0.0, 2022-02-27 11:24:12.103
50.0, -1512.609602523995, -4754.037231688169, -2055.6228823212246, -10532.074932107322, -1056.4775534245437, 20.31773570987412, -5811.028875235185, -1865.074260839732, -4084.155450362617, -6979.935703269924, -4317.66412468721, -3034.4728272524867, -3857.1287819300633, -2935.4769510599317, -10207.281733427255, -15399.077880272614, 0.011, -0.10750000000000001, 0.987, 192.0, 0.0, 0.0, 0.0, 0.0, 0.0, 0.0, 0.0, 0.0, 0.0, 1.645921452111746E9, 0.0, 2022-02-27 11:24:12.111
52.0, -1733.400134253518, -4910.9911812533355, -2176.925799480176, -10646.024125340477, -1241.840570192405, -105.18730940667504, -5765.5207235241805, -1742.9666808803895, -2272.4795070266136, -6735.362915439954, -4584.722767439219, -3014.3339054982553, -4258.633167580744, -3175.288817320921, -10069.773801538206, -14880.830333331864, 0.011, -0.10750000000000001, 0.987, 192.0, 0.0, 0.0, 0.0, 0.0, 0.0, 0.0, 0.0, 0.0, 0.0, 1.645921452118199E9, 0.0, 2022-02-27 11:24:12.118
54.0, -1211.4198459887323, -4510.17969968077, -1808.1890712009754, -10256.83555088467, -757.4112126125351, 255.23456993515134, -5592.674683651291, -1572.959312553324, -2737.932233563928, -6435.693077527652, -4252.17351343316, -2913.438131026999, -3883.973227020887, -2862.409098435533, -9978.444573693821, -14727.072683223807, 0.011, -0.10750000000000001, 0.987, 192.0, 0.0, 0.0, 0.0, 0.0, 0.0, 0.0, 0.0, 0.0, 0.0, 1.645921452127703E9, 0.0, 2022-02-27 11:24:12.127
56.0, -1879.491136013405, -5043.447618895486, -2303.1684521637503, -10808.387197063828, -1377.4039003138425, -264.44348865073783, -5912.617553784556, -1958.5045526629156, -3825.1434356145187, -7225.022581222365, -4558.548874682054, -3143.2811192609215, -4134.133950964684, -3197.4170443316752, -10287.36803381062, -15527.801576590728, 0.0125, -0.10875000000000001, 0.9875, 192.0, 0.0, 56.0, 126.0, 72.0, 15.0, 112.0, 0.0, 0.0, 0.0, 1.645921452134263E9, 0.0, 2022-02-27 11:24:12.134
58.0, -1381.7848422270827, -4637.897567498394, -1913.7563602633907, -10363.743944614405, -916.8462058122404, 155.14345826428632, -5585.097442280941, -1551.345175665042, -1751.7956199402358, -6300.286209617402, -4392.855393034863, -2909.0795408582144, -4084.222505595983, -3021.2629462794002, -9889.059947617048, -14448.18996765494, 0.0125, -0.10875000000000001, 0.9875, 192.0, 0.0, 0.0, 0.0, 0.0, 0.0, 0.0, 0.0, 0.0, 0.0, 1.645921452142161E9, 0.0, 2022-02-27 11:24:12.142
60.0, -1526.154759663911, -4765.078993449091, -2072.5431528738923, -10548.771685215437, -1065.3735477177559, -14.662744362681433, -5819.120206728006, -1869.4999062418826, -4090.4362905545586, -6979.041633491712, -4320.793368910953, -3040.194873833045, -3861.8002965212227, -2961.092050205714, -10209.651018339518, -15410.723139133828, 0.0125, -0.10875000000000001, 0.9875, 192.0, 0.0, 0.0, 0.0, 0.0, 0.0, 0.0, 0.0, 0.0, 0.0, 1.645921452147979E9, 0.0, 2022-02-27 11:24:12.147
62.0, -1736.7752476662695, -4918.881347046059, -2180.792651270944, -10645.621793940281, -1233.905700910771, -104.22618439509684, -5750.679165205856, -1733.042506342233, -2249.770134660022, -6751.612633658962, -4597.619723989931, -3037.311498798311, -4261.673004826665, -3186.3082273373875, -10064.968176480315, -14870.70499309361, 0.0125, -0.10875000000000001, 0.9875, 192.0, 0.0, 0.0, 0.0, 0.0, 0.0, 0.0, 0.0, 0.0, 0.0, 1.645921452155933E9, 0.0, 2022-02-27 11:24:12.155
64.0, -1212.9621163561483, -4509.486795602656, -1820.8401585626793, -10256.83555088467, -766.5307243503004, 251.3230146554726, -5595.133375541374, -1578.6590073894272, -2777.5618764831875, -6456.793124293462, -4265.3610426617915, -2929.754904479373, -3878.6311600960685, -2872.3332729736894, -9981.283245239645, -14743.858843309743, 0.0125, -0.10875000000000001, 0.9875, 192.0, 0.0, 0.0, 0.0, 0.0, 0.0, 0.0, 0.0, 0.0, 0.0, 1.645921452163902E9, 0.0, 2022-02-27 11:24:12.163
66.0, -1881.167516847553, -5043.157046217567, -2315.0372284695186, -10800.51938301556, -1382.2542288606442, -246.5173895975816, -5926.162710924472, -1973.0778900477756, -3879.391119407549, -7240.646450596625, -4560.4264212163, -3143.079953560824, -4126.087322960773, -3173.5453812534074, -10296.129917637101, -15536.138777272557, 0.01125, -0.108375, 0.98775, 192.0, 0.0, 40.0, 126.0, 80.0, 15.0, 112.0, 0.0, 0.0, 0.0, 1.64592145217103E9, 0.0, 2022-02-27 11:24:12.171
68.0, -1411.9373454972917, -4663.356204432989, -1933.5600058507928, -10376.305624998287, -923.663487871109, 139.5642923789373, -5598.106157553931, -1549.8476087865365, -1760.9821869113669, -6330.170491954147, -4415.609468890366, -2925.9774596664265, -4096.404206324125, -3006.019056560881, -9903.588581512999, -14445.083075175653, 0.01125, -0.108375, 0.98775, 192.0, 0.0, 0.0, 0.0, 0.0, 0.0, 0.0, 0.0, 0.0, 0.0, 1.645921452178497E9, 0.0, 2022-02-27 11:24:12.178
70.0, -1536.3248033910756, -4772.097441208058, -2074.7783273194227, -10541.842644434291, -1060.4785156820435, -6.124377980754135, -5811.475910124292, -1855.2171415349414, -4093.967866178497, -6991.960941786879, -4333.936194650673, -3061.4960862989533, -3867.3435291461387, -2967.4175938865656, -10213.517870130287, -15387.074993500113, 0.01125, -0.108375, 0.98775, 192.0, 0.0, 0.0, 0.0, 0.0, 0.0, 0.0, 0.0, 0.0, 0.0, 1.64592145218659E9, 0.0, 2022-02-27 11:24:12.186
72.0, -1784.9209052230008, -4959.919149866003, -2207.4582824061254, -10676.981291411077, -1259.2078756341787, -134.93748127668874, -5766.95123516932, -1756.9365211649563, -2358.176095268261, -6802.887535439437, -4617.870404466439, -3066.525228801397, -4279.80026957992, -3230.944661014636, -10093.71251984984, -14912.815679647409, 0.01125, -0.108375, 0.98775, 192.0, 0.0, 0.0, 0.0, 0.0, 0.0, 0.0, 0.0, 0.0, 0.0, 1.645921452193759E9, 0.0, 2022-02-27 11:24:12.193
74.0, -1236.1408753563019, -4533.827845314485, -1826.3833911875954, -10268.503161490342, -762.7532795373535, 256.1286397133636, -5589.2548667496285, -1569.606550885028, -2727.7845415812185, -6451.8310370243835, -4274.9946445220285, -2937.2650906163562, -3892.757462591823, -2894.796776151273, -9980.4562306948, -14719.495441853458, 0.01125, -0.108375, 0.98775, 192.0, 0.0, 0.0, 0.0, 0.0, 0.0, 0.0, 0.0, 0.0, 0.0, 1.645921452201149E9, 0.0, 2022-02-27 11:24:12.201
76.0, -1908.0566654272875, -5073.734232632427, -2330.2587664435823, -10816.344418089917, -1379.929647437292, -254.87694202386643, -5916.037370686218, -1978.0846808057645, -3924.027553084797, -7239.662973840592, -4568.830677131496, -3159.5755409688404, -4125.215604927016, -3180.1838493566333, -10306.612885786639, -15546.97937333338, 0.011625, -0.10818749999999999, 0.986875, 192.0, 0.0, 48.0, 126.0, 80.0, 15.0, 104.0, 0.0, 0.0, 0.0, 1.645921452208308E9, 0.0, 2022-02-27 11:24:12.208
78.0, -1449.9129593268585, -4694.291018759134, -1955.5317706503597, -10397.204506064, -932.9618135645168, 135.02688825450997, -5595.8262796194895, -1543.4997133612292, -1769.0064631708221, -6348.58832938532, -4435.770742389052, -2944.730573264429, -4115.202023411039, -3034.986917374959, -9917.938401453304, -14449.508720577804, 0.011625, -0.10818749999999999, 0.986875, 192.0, 0.0, 0.0, 0.0, 0.0, 0.0, 0.0, 0.0, 0.0, 0.0, 1.645921452223501E9, 0.0, 2022-02-27 11:24:12.223
80.0, -1553.4015361549302, -4790.671740850418, -2079.7851180774114, -10549.978679416023, -1058.8021348478956, -6.549061125404969, -5819.321372428104, -1865.297778284285, -4091.330360332771, -6965.407069373974, -4342.586319754877, -3079.1986679075562, -3869.1093169581077, -2975.7771463128506, -10217.49648064333, -15384.370432421021, 0.011625, -0.10818749999999999, 0.986875, 192.0, 0.0, 0.0, 0.0, 0.0, 0.0, 0.0, 0.0, 0.0, 0.0, 1.645921452230876E9, 0.0, 2022-02-27 11:24:12.230
82.0, -1805.0598269772324, -4982.069728621213, -2210.386360929771, -10683.709166492124, -1254.9386924432151, -131.6517748417586, -5767.66649099189, -1749.8957216615347, -2358.019633057074, -6812.543489044129, -4625.849977236984, -3078.081080684791, -4280.761394591498, -3232.4422278931415, -10097.624075129519, -14912.972141858596, 0.011625, -0.10818749999999999, 0.986875, 192.0, 0.0, 0.0, 0.0, 0.0, 0.0, 0.0, 0.0, 0.0, 0.0, 1.645921452239317E9, 0.0, 2022-02-27 11:24:12.239
84.0, -1250.0213086630474, -4546.23306348718, -1825.8693010651234, -10268.190237067967, -756.2936253897698, 250.42894487726034, -5586.349139970439, -1569.1818677403771, -2740.4579806873776, -6468.348976176855, -4283.644769626233, -2950.2291024004344, -3895.640837626557, -2900.0494360982702, -9986.088870297537, -14722.132947699183, 0.011625, -0.10818749999999999, 0.986875, 192.0, 0.0, 0.0, 0.0, 0.0, 0.0, 0.0, 0.0, 0.0, 0.0, 1.645921452246904E9, 0.0, 2022-02-27 11:24:12.246
86.0, -1917.8020260098012, -5078.249285012399, -2328.0906472314177, -10817.350246590406, -1377.2250863581999, -251.14420069983015, -5920.17244341045, -1970.6415499021473, -3966.898198950076, -7265.702756131024, -4570.171781798814, -3175.8699626767593, -4118.375971123693, -3189.593933772318, -10312.022007944825, -15561.150379318045, 0.0118125, -0.10809374999999999, 0.9894375, 192.0, 0.0, 48.0, 126.0, 80.0, 15.5, 0.0, 0.0, 0.0, 0.0, 1.645921452253578E9, 0.0, 2022-02-27 11:24:12.253
88.0, -1452.7739826171378, -4701.64474268493, -1952.0225467708765, -10399.417328765074, -925.9210140610951, 127.8743300288117, -5605.549288457548, -1559.7270798357822, -1769.9675881824003, -6339.960556025571, -4434.4743412106445, -2946.049326187292, -4105.546069806346, -3036.7750569313835, -9912.842203717495, -14452.839130501645, 0.0118125, -0.10809374999999999, 0.9894375, 192.0, 0.0, 0.0, 0.0, 0.0, 0.0, 0.0, 0.0, 0.0, 0.0, 1.64592145226144E9, 0.0, 2022-02-27 11:24:12.261
90.0, -1544.9078732619137, -4785.776708814706, -2072.252580195973, -10540.032153133412, -1040.8760357947392, -6.303191936396591, -5798.62365706249, -1863.8225631502348, -4074.968883391486, -6961.9201972389465, -4334.137360350771, -3067.3969468351543, -3859.5427703312366, -2960.3544426386884, -10213.607277108107, -15371.696993314863, 0.0118125, -0.10809374999999999, 0.9894375, 192.0, 0.0, 0.0, 0.0, 0.0, 0.0, 0.0, 0.0, 0.0, 0.0, 1.645921452269523E9, 0.0, 2022-02-27 11:24:12.269
92.0, -1811.7653503138247, -4989.579914758196, -2217.96360230012, -10689.788840983969, -1262.8512099803938, -145.84513257087858, -5761.363299055493, -1759.9093031775121, -2404.265392335104, -6829.217890407788, -4629.538015072109, -3093.570839592319, -4284.918819060185, -3242.9922512760463, -10109.00111305727, -14933.736912457576, 0.0118125, -0.10809374999999999, 0.9894375, 192.0, 0.0, 0.0, 0.0, 0.0, 0.0, 0.0, 0.0, 0.0, 0.0, 1.645921452276609E9, 0.0, 2022-02-27 11:24:12.276
94.0, -1250.4459918076984, -4548.356479210434, -1827.948013299467, -10264.636309699574, -767.7377185508869, 244.9751192301654, -5588.986645816165, -1558.6765478463826, -2705.812776781652, -6441.973917719593, -4280.090842257839, -2963.975425240448, -3904.760349364323, -2893.366264506133, -9986.40179471991, -14707.269037636404, 0.0118125, -0.10809374999999999, 0.9894375, 192.0, 0.0, 0.0, 0.0, 0.0, 0.0, 0.0, 0.0, 0.0, 0.0, 1.645921452283109E9, 0.0, 2022-02-27 11:24:12.283
96.0, -1910.3141916172733, -5086.161802549577, -2329.610565854379, -10812.09758664341, -1379.482612548186, -264.3317299284613, -5932.108274949584, -1965.1653725105969, -3997.0954057091963, -7250.436514668049, -4554.324394980001, -3160.9613491250693, -4115.626706555689, -3182.530782524441, -10324.181356928511, -15571.856864912137, 0.01190625, -0.11104687499999999, 0.98871875, 192.0, 0.0, 48.0, 126.0, 56.0, 15.0, 112.0, 0.0, 0.0, 0.0, 1.645921452291304E9, 0.0, 2022-02-27 11:24:12.291
98.0, -1458.8089536200707, -4720.487263260754, -1955.777639839368, -10406.234610823944, -945.2105695260251, 109.88117574228951, -5605.951619857743, -1549.7582018087153, -1763.8879136905568, -6355.137390510726, -4431.25569000908, -2945.9375674650155, -4119.873538002198, -3041.0218883778916, -9920.598259043487, -14455.946022980932, 0.01190625, -0.11104687499999999, 0.98871875, 192.0, 0.0, 0.0, 0.0, 0.0, 0.0, 0.0, 0.0, 0.0, 0.0, 1.645921452299176E9, 0.0, 2022-02-27 11:24:12.299
100.0, -1528.926375976369, -4784.189734958379, -2054.393536376183, -10529.683295450604, -1039.4902276385103, -3.442168646117288, -5791.940485470353, -1845.9188158415338, -4044.9728423324636, -6951.593691300594, -4315.898336875241, -3054.0082519064254, -3865.398927378527, -2950.5867303117193, -10213.11553873009, -15359.80586526464, 0.01190625, -0.11104687499999999, 0.98871875, 192.0, 0.0, 0.0, 0.0, 0.0, 0.0, 0.0, 0.0, 0.0, 0.0, 1.645921452305676E9, 0.0, 2022-02-27 11:24:12.305
102.0, -1816.816844560724, -4994.206725860444, -2218.0306575334857, -10700.763547511524, -1277.1116229428796, -153.8470570858785, -5765.118392123984, -1773.3650533396071, -2443.649166065355, -6842.070143469589, -4627.34754411549, -3084.9430662325703, -4282.571885892378, -3232.9563180156138, -10114.81256661565, -14956.602747035355, 0.01190625, -0.11104687499999999, 0.98871875, 192.0, 0.0, 0.0, 0.0, 0.0, 0.0, 0.0, 0.0, 0.0, 0.0, 1.645921452313859E9, 0.0, 2022-02-27 11:24:12.313
104.0, -1247.1155818838577, -4543.1261710078925, -1820.7731033293132, -10262.378783509586, -756.450087600957, 262.632997349858, -5578.77189860009, -1565.1362019939666, -2660.3716803040124, -6424.450150066633, -4274.189981721638, -2945.9375674650155, -3908.269573243806, -2896.3613982631446, -9979.83038185005, -14690.594636272746, 0.01190625, -0.11104687499999999, 0.98871875, 192.0, 0.0, 0.0, 0.0, 0.0, 0.0, 0.0, 0.0, 0.0, 0.0, 1.645921452321766E9, 0.0, 2022-02-27 11:24:12.321
106.0, -1898.333656589229, -5074.404784966086, -2305.6941992872003, -10795.199667835197, -1356.7285366926833, -240.5271220835593, -5907.946039193397, -1965.098317277231, -4029.483083424936, -7246.122627988176, -4535.303060448535, -3156.714517678561, -4091.8891539441533, -3170.2820265629325, -10312.84902248967, -15575.053164369247, 0.01, -0.11, 0.984, 192.0, 0.0, 40.0, 126.0, 72.0, 15.0, 96.0, 0.0, 0.0, 0.0, 1.645921452328798E9, 0.0, 2022-02-27 11:24:12.328
108.0, -1467.503782213185, -4723.348286551033, -1948.2451019579296, -10400.177288076555, -940.6284619126872, 114.15035893325317, -5592.160593528819, -1570.0982892630445, -1744.3748407810738, -6354.8021143438955, -4433.826140621441, -2932.727686491929, -4118.420674612603, -3036.7527051869283, -9913.736273495708, -14460.505778849814, 0.01, -0.11, 0.984, 192.0, 0.0, 0.0, 0.0, 0.0, 0.0, 0.0, 0.0, 0.0, 0.0, 1.645921452343427E9, 0.0, 2022-02-27 11:24:12.343
110.0, -1513.056637413101, -4771.6951098078625, -2030.7900942313786, -10510.12551905221, -1019.5748233288317, 18.440189175628326, -5787.827764490577, -1818.8732050506121, -3989.160536427562, -6917.999019384268, -4299.715673889598, -3036.1715598310902, -3836.364011331083, -2914.466311271943, -10183.700643026907, -15331.84383295105, 0.01, -0.11, 0.984, 192.0, 0.0, 0.0, 0.0, 0.0, 0.0, 0.0, 0.0, 0.0, 0.0, 1.645921452351379E9, 0.0, 2022-02-27 11:24:12.351
112.0, -1825.8022458317573, -5018.301906383265, -2209.2911254514606, -10693.722748008102, -1279.5032595995974, -149.15319075026403, -5776.584837029557, -1767.4194893144954, -2446.0855062109836, -6841.220777180288, -4616.372837587934, -3074.2812841273885, -4274.122926488272, -3232.0845999818566, -10113.270296248234, -14964.716430272632, 0.01, -0.11, 0.984, 192.0, 0.0, 0.0, 0.0, 0.0, 0.0, 0.0, 0.0, 0.0, 0.0, 1.645921452358591E9, 0.0, 2022-02-27 11:24:12.358
114.0, -1264.326425114444, -4579.179534814302, -1808.8596235346347, -10259.31659451921, -762.1274306926049, 254.02757573456478, -5585.119794025397, -1563.0351380151676, -2631.2473572787476, -6429.725161758085, -4275.9334177891515, -2945.244663386901, -3898.457157427926, -2892.7851191502955, -9974.085983525036, -14688.404165316126, 0.01, -0.11, 0.984, 192.0, 0.0, 0.0, 0.0, 0.0, 0.0, 0.0, 0.0, 0.0, 0.0, 1.645921452366023E9, 0.0, 2022-02-27 11:24:12.366
116.0, -1937.292747174829, -5119.309439576798, -2303.861356241865, -10803.603923750392, -1372.8441444449597, -249.19959893221844, -5929.806045270687, -1989.7299396669794, -4028.6560688800896, -7256.560892648804, -4542.008583785127, -3160.000224113491, -4091.8891539441533, -3160.983700869525, -10316.84998474717, -15584.954987162948, 0.014, -0.114, 0.988, 192.0, 0.0, 56.0, 126.0, 56.0, 15.0, 112.0, 0.0, 0.0, 0.0, 1.645921452374041E9, 0.0, 2022-02-27 11:24:12.374
118.0, -1541.599815082528, -4798.159575242946, -1951.7319740929574, -10407.57571549126, -950.6867469175753, 121.14645494776428, -5591.646503406347, -1567.281969461676, -1751.2591780733082, -6359.317166723868, -4449.897044884807, -2952.2631111458672, -4121.527567091891, -3033.623460963185, -9915.032674674116, -14461.109275950108, 0.014, -0.114, 0.988, 192.0, 0.0, 0.0, 0.0, 0.0, 0.0, 0.0, 0.0, 0.0, 0.0, 1.645921452382054E9, 0.0, 2022-02-27 11:24:12.382
120.0, -1608.3644757705304, -4880.972788449859, -2024.6880679950796, -10502.101242792754, -1005.5826312998095, 48.99502384603308, -5789.168869157895, -1821.9353940409892, -4006.1478622135955, -6937.310926593653, -4325.576642224389, -3071.017929436914, -3842.6672032674796, -2928.6596690010633, -10186.606369806095, -15329.251030594234, 0.014, -0.114, 0.988, 192.0, 0.0, 0.0, 0.0, 0.0, 0.0, 0.0, 0.0, 0.0, 0.0, 1.645921452388623E9, 0.0, 2022-02-27 11:24:12.388
122.0, -1994.580268213781, -5177.267512949409, -2226.5243204265025, -10705.233896402586, -1277.6257130653516, -129.05897248494298, -5773.790868972644, -1766.5701230251937, -2546.511894048678, -6897.547173207662, -4656.896550285405, -3110.04407525588, -4276.9839497785515, -3225.40142838972, -10120.311095751655, -14986.01764273854, 0.014, -0.114, 0.988, 192.0, 0.0, 0.0, 0.0, 0.0, 0.0, 0.0, 0.0, 0.0, 0.0, 1.645921452395685E9, 0.0, 2022-02-27 11:24:12.395
124.0, -1459.703023398283, -4766.554208583142, -1817.397989916562, -10267.787905667772, -748.6493287860548, 275.1276225003746, -5541.869168504378, -1567.3713764394972, -2646.826523164096, -6455.1167434593135, -4332.550386494445, -2980.7839370708393, -3914.0586750577304, -2883.7103109014406, -9964.318271198068, -14665.292461549338, 0.014, -0.114, 0.988, 192.0, 0.0, 0.0, 0.0, 0.0, 0.0, 0.0, 0.0, 0.0, 0.0, 1.645921452403656E9, 0.0, 2022-02-27 11:24:12.403
126.0, -2138.9054821616987, -5305.924154034156, -2312.60088832389, -10809.32597033095, -1347.3408040214545, -225.75261899860132, -5904.436815313914, -1974.3072359928176, -4140.81712255682, -7305.8911926616665, -4591.4953460091765, -3220.595803331829, -4081.1826683500612, -3137.246148257989, -10312.916077723035, -15591.705213988449, 0.012, -0.108, 0.986, 192.0, 0.0, 48.0, 126.0, 80.0, 15.0, 104.0, 0.0, 0.0, 0.0, 1.645921452410798E9, 0.0, 2022-02-27 11:24:12.410
128.0, -1749.046355372233, -4998.118281140123, -1979.4481372175383, -10429.167500635089, -949.7703253949077, 124.0521817269542, -5594.2393057631625, -1586.213897015321, -1822.494187652372, -6418.348123830334, -4518.203975940225, -3010.6458676631296, -4142.180578968594, -3034.7633999304057, -9928.264907391656, -14476.800200557733, 0.012, -0.108, 0.986, 192.0, 0.0, 0.0, 0.0, 0.0, 0.0, 0.0, 0.0, 0.0, 0.0, 1.64592145241899E9, 0.0, 2022-02-27 11:24:12.418
130.0, -1746.1853320819537, -5006.053150421757, -2033.6511175216579, -10504.93991433858, -995.1667183836364, 53.46537273709449, -5750.656813461401, -1802.4670246204169, -4033.8863770826315, -6961.540217583206, -4377.0080062160505, -3104.299676930866, -3848.6127672925913, -2927.251509100379, -10174.044689422213, -15309.425033262378, 0.012, -0.108, 0.986, 192.0, 0.0, 0.0, 0.0, 0.0, 0.0, 0.0, 0.0, 0.0, 0.0, 1.645921452426221E9, 0.0, 2022-02-27 11:24:12.426
132.0, -2070.419737150638, -5241.461723025051, -2235.085038552885, -10711.268867405519, -1268.4838495831311, -134.69161208768037, -5758.837551932043, -1763.686747990459, -2597.071540006583, -6896.943676107368, -4689.194821023324, -3145.940976851103, -4282.616589381289, -3224.6414690782394, -10121.518089952242, -14995.96416902115, 0.012, -0.108, 0.986, 192.0, 0.0, 0.0, 0.0, 0.0, 0.0, 0.0, 0.0, 0.0, 0.0, 1.645921452434281E9, 0.0, 2022-02-27 11:24:12.434
134.0, -1490.1460993464113, -4798.070168265124, -1827.6350888770926, -10260.724754419894, -749.3422328641693, 272.6018753769249, -5557.873017534378, -1532.3238411335756, -2644.6584039519316, -6468.348976176855, -4349.180084369193, -2987.5565156407974, -3916.785587881278, -2884.9843603353934, -9960.630233362941, -14651.032048586852, 0.012, -0.108, 0.986, 192.0, 0.0, 0.0, 0.0, 0.0, 0.0, 0.0, 0.0, 0.0, 0.0, 1.645921452440995E9, 0.0, 2022-02-27 11:24:12.440
136.0, -2121.6275836977466, -5292.356645149785, -2316.9371267482197, -10795.08790911292, -1356.5273709925857, -220.70112475170194, -5923.391094612014, -1973.033186558865, -4155.435163430591, -7305.667675217113, -4597.5973722454755, -3206.648314791717, -4089.2739998428824, -3143.437581472109, -10318.90634523706, -15585.379670307599, 0.01, -0.106, 0.988, 192.0, 0.0, 40.0, 126.0, 88.0, 15.0, 112.0, 0.0, 0.0, 0.0, 1.645921452448942E9, 0.0, 2022-02-27 11:24:12.448
138.0, -1702.1523955049988, -4936.74039086585, -1982.8232506302895, -10417.499890029418, -961.147363322659, 132.70230683115804, -5586.840878348456, -1533.9778702232684, -1802.399969387051, -6397.449242764622, -4509.710313047208, -2984.136698739135, -4144.1475324806615, -3032.438818507054, -9920.687666021307, -14452.593261312637, 0.01, -0.106, 0.988, 192.0, 0.0, 0.0, 0.0, 0.0, 0.0, 0.0, 0.0, 0.0, 0.0, 1.645921452455894E9, 0.0, 2022-02-27 11:24:12.455
140.0, -1677.9007527709905, -4938.059143788712, -2023.8163499613227, -10483.616350128217, -975.2736658184131, 72.88903866875633, -5730.674353918356, -1807.4514636339504, -4006.483138380425, -6925.620964243528, -4361.428840330701, -3084.160755176634, -3850.847941738122, -2897.635447697097, -10175.072869667158, -15285.821591117572, 0.01, -0.106, 0.988, 192.0, 0.0, 0.0, 0.0, 0.0, 0.0, 0.0, 0.0, 0.0, 0.0, 1.645921452470527E9, 0.0, 2022-02-27 11:24:12.470
142.0, -2027.25851860744, -5202.45792895054, -2244.2269020351055, -10714.442815118173, -1283.4818701126421, -146.29216745998474, -5747.192293070829, -1764.334948579663, -2643.898444640451, -6938.89790044998, -4683.718643631773, -3129.2665754874442, -4281.253132969515, -3227.2119196905996, -10131.486967979308, -15018.15945126527, 0.01, -0.106, 0.988, 192.0, 0.0, 0.0, 0.0, 0.0, 0.0, 0.0, 0.0, 0.0, 0.0, 1.645921452478567E9, 0.0, 2022-02-27 11:24:12.478
144.0, -1422.353258413465, -4722.633030728463, -1820.6166411181262, -10258.064896829712, -736.1994071244487, 277.72042485719027, -5549.3346511524505, -1540.795152282137, -2569.355376882002, -6428.138187901758, -4336.350183051847, -2978.057024247292, -3920.1159978051187, -2884.4032149795553, -9956.361050171978, -14633.530632678347, 0.01, -0.106, 0.988, 192.0, 0.0, 0.0, 0.0, 0.0, 0.0, 0.0, 0.0, 0.0, 0.0, 1.645921452486559E9, 0.0, 2022-02-27 11:24:12.486
146.0, -2043.7541060154565, -5229.324725785819, -2305.8730132428427, -10789.142345087808, -1327.514806689597, -210.24050834661824, -5900.54761177869, -1963.3995846986277, -4165.5828554133, -7292.726015177491, -4569.881209120895, -3198.0875966653343, -4064.8211914087765, -3128.7971888538827, -10318.347551625677, -15593.403946567054, 0.01, -0.106, 0.988, 192.0, 0.0, 40.0, 126.0, 88.0, 15.0, 112.0, 0.0, 0.0, 0.0, 1.645921452493806E9, 0.0, 2022-02-27 11:24:12.493
148.0, -1661.0028339627784, -4905.626762584062, -1990.6240094451916, -10435.761265249404, -977.2853228193907, 105.29906812895157, -5585.410366703316, -1562.4986961482402, -1785.4349953454728, -6396.465766008588, -4506.826938012474, -2988.8976203081156, -4154.317576207826, -3046.1851413470677, -9924.398055600888, -14479.34829942564, 0.01, -0.106, 0.988, 192.0, 0.0, 0.0, 0.0, 0.0, 0.0, 0.0, 0.0, 0.0, 0.0, 1.645921452501159E9, 0.0, 2022-02-27 11:24:12.501
150.0, -1623.2954410666755, -4881.911561716982, -2020.3071260818394, -10484.376309439696, -968.4787355039997, 68.21752407759716, -5726.829853872044, -1801.5282513532939, -3936.9245096355094, -6907.292533790176, -4344.910901178229, -3092.4756041140085, -3849.5068370708036, -2899.5800494647087, -10163.874645695048, -15265.705021107797, 0.01, -0.106, 0.988, 192.0, 0.0, 0.0, 0.0, 0.0, 0.0, 0.0, 0.0, 0.0, 0.0, 1.645921452509183E9, 0.0, 2022-02-27 11:24:12.509
152.0, -1985.9971983429432, -5161.5765883417835, -2252.117067827829, -10725.015190245533, -1292.489623128131, -162.13955427879742, -5767.621787502979, -1785.9267337234896, -2650.1792848323926, -6939.411990572452, -4683.316312231578, -3131.4123429551537, -4290.171479007182, -3212.8844514947477, -10139.623002961041, -15031.92812584974, 0.01, -0.106, 0.988, 192.0, 0.0, 0.0, 0.0, 0.0, 0.0, 0.0, 0.0, 0.0, 0.0, 1.645921452517063E9, 0.0, 2022-02-27 11:24:12.517
154.0, -1378.745004981161, -4677.102527273003, -1823.745885341869, -10265.910359133526, -755.8465905006636, 274.3006079555283, -5541.62329931537, -1547.6571378299163, -2531.826797941542, -6408.60276324782, -4329.868177159808, -2964.9365502520263, -3934.488169489881, -2901.6587616990523, -9958.30565193959, -14628.32267622026, 0.01, -0.106, 0.988, 192.0, 0.0, 0.0, 0.0, 0.0, 0.0, 0.0, 0.0, 0.0, 0.0, 1.645921452523097E9, 0.0, 2022-02-27 11:24:12.523
156.0, -2007.1419485976637, -5181.156716484633, -2312.1985569236945, -10797.636007980826, -1353.5098854911191, -216.119017138364, -5897.060739643663, -1977.6599976611135, -4162.475962934013, -7298.11278559122, -4561.923988094805, -3192.901991951703, -4080.288598571849, -3119.2306422270112, -10318.99575221488, -15594.789754723282, 0.016, -0.10400000000000001, 0.99, 192.0, 0.0, 64.0, 126.0, 96.0, 15.0, 120.0, 0.0, 0.0, 0.0, 1.645921452530924E9, 0.0, 2022-02-27 11:24:12.530
158.0, -1616.6793247079045, -4858.553988761186, -1994.5132129804151, -10433.883718715158, -990.5399072813877, 89.92106794370031, -5599.559020943525, -1585.4762894482958, -1767.3077305922188, -6407.351065558322, -4501.261353643102, -2975.888905035127, -4167.5721606698235, -3043.9946703904475, -9928.577831814031, -14476.554331368725, 0.016, -0.10400000000000001, 0.99, 192.0, 0.0, 0.0, 0.0, 0.0, 0.0, 0.0, 0.0, 0.0, 0.0, 1.645921452539224E9, 0.0, 2022-02-27 11:24:12.539
160.0, -1558.9671205243017, -4822.970011588337, -2009.868861421211, -10463.857408029724, -970.5127442494327, 70.45269852312786, -5741.000859856708, -1802.6011350871486, -3916.0256285697974, -6885.633693412983, -4331.3433922938575, -3047.7721152033946, -3858.3804796195604, -2907.693732701985, -10171.563645787674, -15267.873140319962, 0.016, -0.10400000000000001, 0.99, 192.0, 0.0, 0.0, 0.0, 0.0, 0.0, 0.0, 0.0, 0.0, 0.0, 1.645921452545832E9, 0.0, 2022-02-27 11:24:12.545
162.0, -1934.744648306924, -5102.433872513041, -2253.480524239603, -10722.914126266734, -1298.7257598311617, -167.86160085935603, -5782.843325477043, -1803.3163909097186, -2675.3026456001576, -6939.4343423169075, -4660.517532887165, -3116.660191614651, -4291.08790052985, -3228.083637724357, -10153.190511845412, -15060.136027352337, 0.016, -0.10400000000000001, 0.99, 192.0, 0.0, 0.0, 0.0, 0.0, 0.0, 0.0, 0.0, 0.0, 0.0, 1.645921452553401E9, 0.0, 2022-02-27 11:24:12.553
164.0, -1323.7597136211054, -4624.777093503129, -1826.5845568876932, -10253.996879338847, -735.126523390594, 273.80886957751153, -5546.42892437326, -1545.3549081510198, -2475.3215879585255, -6389.536725227443, -4317.865290387308, -2945.5575878092754, -3939.0479253587637, -2873.9202468300164, -9957.746858328206, -14614.777519080344, 0.016, -0.10400000000000001, 0.99, 192.0, 0.0, 0.0, 0.0, 0.0, 0.0, 0.0, 0.0, 0.0, 0.0, 1.645921452561458E9, 0.0, 2022-02-27 11:24:12.561
166.0, -1940.2655291873848, -5121.611669255694, -2297.021722438541, -10787.555371231481, -1342.1775510522784, -214.97907817114333, -5907.320190348648, -1988.5676489553034, -4149.824875572309, -7260.025413039376, -4532.486740647166, -3166.5716369833517, -4062.071926840774, -3108.7253223330167, -10317.632295803107, -15598.276626858311, 0.012, -0.10200000000000001, 0.99, 192.0, 0.0, 48.0, 126.0, 104.0, 15.0, 120.0, 0.0, 0.0, 0.0, 1.645921452569521E9, 0.0, 2022-02-27 11:24:12.569
168.0, -1578.5472486671506, -4821.964183087848, -1996.4131112591162, -10441.818587996791, -989.1988026140693, 90.70337899963606, -5612.210108305229, -1591.9806470847902, -1739.8597884011017, -6389.939056627639, -4487.157402891803, -2968.870457276161, -4163.884122834697, -3046.654527980629, -9928.354314369479, -14483.550427383236, 0.012, -0.10200000000000001, 0.99, 192.0, 0.0, 0.0, 0.0, 0.0, 0.0, 0.0, 0.0, 0.0, 0.0, 1.645921452576178E9, 0.0, 2022-02-27 11:24:12.576
170.0, -1493.5882679925285, -4765.280159149189, -1994.8484891472447, -10457.218939926499, -957.5263807208993, 82.63439925127021, -5752.109676850996, -1808.3455334121627, -3855.608863307102, -6847.9263005168805, -4310.355104250325, -3037.467961009498, -3846.33288935815, -2889.9687993489265, -10166.936834685426, -15251.310497678578, 0.012, -0.10200000000000001, 0.99, 192.0, 0.0, 0.0, 0.0, 0.0, 0.0, 0.0, 0.0, 0.0, 0.0, 1.645921452591148E9, 0.0, 2022-02-27 11:24:12.591
172.0, -1892.522203030849, -5067.3639854626645, -2251.5806259609017, -10721.148338454765, -1299.0386842535358, -170.83438287191188, -5783.3127121106045, -1825.6457836205702, -2672.709843243342, -6920.32360080762, -4641.786771033618, -3108.814729310838, -4277.341577689836, -3207.7659020144824, -10157.035011891725, -15074.016460659082, 0.012, -0.10200000000000001, 0.99, 192.0, 0.0, 0.0, 0.0, 0.0, 0.0, 0.0, 0.0, 0.0, 0.0, 1.645921452599108E9, 0.0, 2022-02-27 11:24:12.599
174.0, -1281.0008264781031, -4583.225200560713, -1816.6603823495368, -10248.02896356928, -748.9175497195184, 268.26563695259534, -5544.014935972087, -1563.21395197081, -2425.946584456752, -6349.951785797094, -4296.631133154766, -2925.1951486104904, -3932.4094572555373, -2881.922171345016, -9952.069515236559, -14610.396577167105, 0.013000000000000001, -0.10300000000000001, 0.99, 192.0, 0.0, 56.0, 126.0, 96.0, 15.0, 120.0, 0.0, 0.0, 0.0, 1.64592145260576E9, 0.0, 2022-02-27 11:24:12.605
176.0, -1889.8846971851228, -5068.995662807902, -2289.623295023834, -10776.982996104121, -1334.64501317084, -213.16858687026345, -5912.237574128816, -2006.002009630443, -4154.451686674558, -7244.6697645985805, -4508.4362636132555, -3146.3209565068432, -4049.3984877346147, -3104.2102699530446, -10318.302848136766, -15604.490411816885, 0.013000000000000001, -0.10300000000000001, 0.99, 192.0, 0.0, 0.0, 0.0, 0.0, 0.0, 0.0, 0.0, 0.0, 0.0, 1.645921452613739E9, 0.0, 2022-02-27 11:24:12.613
178.0, -1551.054602987123, -4784.525011125209, -2001.8222334173006, -10449.73110553397, -1012.8692999922396, 73.09020436885409, -5631.6337742368905, -1610.5772984716057, -1723.3865527375403, -6384.64169319173, -4471.5111817730885, -2960.756774038884, -4167.795678114376, -3044.3522983017324, -9942.167692442858, -14501.25300899184, 0.013000000000000001, -0.10300000000000001, 0.99, 192.0, 0.0, 0.0, 0.0, 0.0, 0.0, 0.0, 0.0, 0.0, 0.0, 1.645921452621786E9, 0.0, 2022-02-27 11:24:12.621
180.0, -1458.3395669865092, -4724.108245862513, -1983.3373407527615, -10443.003230452923, -963.3825377681898, 80.57803876138196, -5745.538263981136, -1814.849891048657, -3807.4408540059158, -6824.144044416434, -4290.685569129654, -3027.9014143826266, -3848.6351190370465, -2893.5897819506863, -10170.714279498372, -15241.229860929236, 0.013000000000000001, -0.10300000000000001, 0.99, 192.0, 0.0, 0.0, 0.0, 0.0, 0.0, 0.0, 0.0, 0.0, 0.0, 1.645921452628908E9, 0.0, 2022-02-27 11:24:12.628
182.0, -1878.5076592573714, -5045.392220663098, -2252.698213183667, -10726.713922824136, -1323.6256031543737, -188.73813018061284, -5802.2669914087055, -1855.1947897904863, -2723.515358390255, -6941.647165017983, -4635.416523863855, -3102.332723418799, -4275.9334177891515, -3219.5005678535185, -10178.962073202381, -15115.680112323775, 0.013000000000000001, -0.10300000000000001, 0.99, 192.0, 0.0, 0.0, 0.0, 0.0, 0.0, 0.0, 0.0, 0.0, 0.0, 1.645921452636408E9, 0.0, 2022-02-27 11:24:12.636
184.0, -1257.5538465444859, -4558.817095615518, -1811.4747776359056, -10243.960946078414, -767.0671662172277, 255.59219784643625, -5554.743773310634, -1578.5472486671506, -2374.984607098652, -6343.872111305251, -4293.032502297461, -2921.305945075267, -3937.751524180356, -2880.1563835330467, -9959.423239162355, -14605.099213731197, 0.015500000000000002, -0.1015, 0.989, 192.0, 0.0, 72.0, 126.0, 112.0, 15.0, 112.0, 0.0, 0.0, 0.0, 1.64592145264343E9, 0.0, 2022-02-27 11:24:12.643
186.0, -1857.1617433025533, -5041.726534572427, -2279.542658274491, -10767.438801221706, -1333.4380189702533, -220.07527590695335, -5914.517452063257, -1998.8270996602894, -4155.144590752672, -7228.710619057491, -4489.191411637236, -3139.14604653669, -4040.033106807841, -3097.4823948719973, -10331.020990731835, -15614.883972988604, 0.015500000000000002, -0.1015, 0.989, 192.0, 0.0, 0.0, 0.0, 0.0, 0.0, 0.0, 0.0, 0.0, 0.0, 1.645921452651254E9, 0.0, 2022-02-27 11:24:12.651
188.0, -1539.2081784258103, -4768.185885928379, -2003.163338084619, -10454.849655014235, -1013.9868872150049, 73.53723925796024, -5623.92242239981, -1611.0690368496225, -1718.8267968686578, -6369.286044750935, -4474.729832974653, -2955.2582449028787, -4167.125125780717, -3050.4543245380314, -9952.583605359032, -14507.243276505862, 0.015500000000000002, -0.1015, 0.989, 192.0, 0.0, 0.0, 0.0, 0.0, 0.0, 0.0, 0.0, 0.0, 0.0, 1.645921452658062E9, 0.0, 2022-02-27 11:24:12.658
190.0, -1427.7847323161045, -4697.733187405252, -1972.6979103920355, -10433.391980337141, -942.6848224025754, 96.35837034682875, -5739.212720300284, -1821.6671731075255, -3771.432193688416, -6796.740805714227, -4290.37264470728, -3024.369838758688, -3843.0248311787645, -2864.644272881064, -10170.356651587088, -15223.259058387168, 0.015500000000000002, -0.1015, 0.989, 192.0, 0.0, 0.0, 0.0, 0.0, 0.0, 0.0, 0.0, 0.0, 0.0, 1.645921452666187E9, 0.0, 2022-02-27 11:24:12.666
192.0, -1873.2102958214637, -5042.173569461533, -2260.6777859542117, -10735.095826994877, -1331.6722311582841, -202.2385838316183, -5806.312657155116, -1856.1112113131537, -2755.3889459835227, -6954.90174947998, -4635.371820374945, -3103.942049019581, -4277.98977827904, -3221.936907999147, -10191.613160564084, -15130.432263664277, 0.015500000000000002, -0.1015, 0.989, 192.0, 0.0, 0.0, 0.0, 0.0, 0.0, 0.0, 0.0, 0.0, 0.0, 1.645921452674122E9, 0.0, 2022-02-27 11:24:12.674
194.0, -1262.7394512581172, -4556.268996747613, -1824.2599754643413, -10257.014364840314, -779.673550090021, 247.43381112024917, -5573.474535164182, -1545.5784255955728, -2349.436563186236, -6351.985794542527, -4307.1588047932155, -2928.883186445616, -3954.962367410942, -2890.371130749122, -9962.731297341741, -14590.727042046434, 0.01575, -0.10075, 0.9895, 192.0, 0.0, 64.0, 126.0, 112.0, 15.0, 120.0, 0.0, 0.0, 0.0, 1.645921452681174E9, 0.0, 2022-02-27 11:24:12.681
196.0, -1847.2375687643969, -5029.298964655276, -2279.9449896746864, -10764.018984320044, -1331.7616381361054, -225.99848818760972, -5937.316231407671, -2006.5384514973703, -4174.098870050772, -7226.564851589782, -4498.377978608368, -3145.2257210285334, -4039.4743131964583, -3090.665112813129, -10335.357229156165, -15610.301865375266, 0.01575, -0.10075, 0.9895, 192.0, 0.0, 0.0, 0.0, 0.0, 0.0, 0.0, 0.0, 0.0, 0.0, 1.645921452688607E9, 0.0, 2022-02-27 11:24:12.688
198.0, -1545.5337221066623, -4778.758261055739, -2010.4276550325937, -10458.716506805004, -1026.8614920212617, 55.18645706015314, -5619.407370019838, -1618.2662985642314, -1726.2252242833645, -6381.3559867568, -4486.576257535966, -2960.600311827697, -4175.529381695912, -3055.505818784931, -9953.052991992592, -14515.73693939888, 0.01575, -0.10075, 0.9895, 192.0, 0.0, 0.0, 0.0, 0.0, 0.0, 0.0, 0.0, 0.0, 0.0, 1.645921452696804E9, 0.0, 2022-02-27 11:24:12.696
200.0, -1408.9869152291913, -4682.288131986634, -1957.1857997400523, -10421.411445309097, -931.4642466860113, 105.45553034013872, -5734.809426642589, -1785.4573470899281, -3742.0396497296874, -6787.353073042998, -4289.94796156263, -3016.345562499233, -3839.1803311324516, -2880.8045841222506, -10156.81149444717, -15206.852877956973, 0.01575, -0.10075, 0.9895, 192.0, 0.0, 0.0, 0.0, 0.0, 0.0, 0.0, 0.0, 0.0, 0.0, 1.645921452703692E9, 0.0, 2022-02-27 11:24:12.703
202.0, -1867.8682288966454, -5034.126941457623, -2258.286149297494, -10741.331963697907, -1338.5118649616081, -197.99175238510995, -5811.565317102113, -1880.2063918359747, -2828.792074774751, -6965.071793207145, -4636.4000006198885, -3105.7078368315506, -4267.998548507518, -3228.1506929577226, -10195.837640266138, -15157.94726108876, 0.01575, -0.10075, 0.9895, 192.0, 0.0, 0.0, 0.0, 0.0, 0.0, 0.0, 0.0, 0.0, 0.0, 1.64592145271877E9, 0.0, 2022-02-27 11:24:12.718
204.0, -1249.1272388848352, -4539.32637445049, -1809.1725479570089, -10254.89094911706, -777.5948378556774, 250.987738488643, -5562.00809025861, -1573.0040160422345, -2283.2977513429823, -6318.033494714916, -4305.1024443033275, -2921.4847590309096, -3946.6698702180233, -2891.399310994066, -9945.274584922146, -14580.311129130261, 0.014875, -0.101375, 0.98975, 192.0, 0.0, 56.0, 126.0, 104.0, 15.0, 120.0, 0.0, 0.0, 0.0, 1.645921452726282E9, 0.0, 2022-02-27 11:24:12.726
206.0, -1845.5388361857936, -5031.578842589717, -2278.4250710517254, -10768.601091933382, -1339.1824172952674, -228.4795318221488, -5920.261850388271, -2017.1331783691858, -4181.20672478756, -7224.217918421975, -4492.722987261175, -3150.903064120181, -4037.5297114288464, -3095.873069271215, -10331.825653532225, -15614.079310188212, 0.014875, -0.101375, 0.98975, 192.0, 0.0, 0.0, 0.0, 0.0, 0.0, 0.0, 0.0, 0.0, 0.0, 1.645921452734254E9, 0.0, 2022-02-27 11:24:12.734
208.0, -1551.7922105541481, -4783.027444246703, -2014.585079501281, -10467.456038887029, -1039.5796346163315, 50.67140468018111, -5623.363628788427, -1605.9951908582677, -1730.852035385613, -6404.288876567945, -4498.757958264107, -2966.4788206194426, -4190.8179749033425, -3066.7040427570396, -9958.573872873054, -14521.816613890722, 0.014875, -0.101375, 0.98975, 192.0, 0.0, 0.0, 0.0, 0.0, 0.0, 0.0, 0.0, 0.0, 0.0, 1.645921452740934E9, 0.0, 2022-02-27 11:24:12.740
210.0, -1401.1191011809233, -4672.3192539595675, -1951.5978636262255, -10415.421177795075, -932.1795025085811, 88.04352140945451, -5725.51110094918, -1787.5360593242717, -3726.2593181442403, -6776.221904304255, -4292.898391830729, -3012.791635130839, -3846.422296335971, -2908.185471080002, -10157.794971203206, -15195.72170921823, 0.014875, -0.101375, 0.98975, 192.0, 0.0, 0.0, 0.0, 0.0, 0.0, 0.0, 0.0, 0.0, 0.0, 1.645921452749052E9, 0.0, 2022-02-27 11:24:12.749
212.0, -1863.1520108165755, -5028.606060577162, -2254.3298905289043, -10744.237690477097, -1335.7626003936055, -208.8547001903892, -5816.1250729709955, -1866.1694963180419, -2813.3917228450446, -6965.608235074072, -4636.355297130978, -3107.920659532626, -4275.128754988761, -3246.970861789091, -10196.575247833163, -15160.383601234389, 0.014875, -0.101375, 0.98975, 192.0, 0.0, 0.0, 0.0, 0.0, 0.0, 0.0, 0.0, 0.0, 0.0, 1.645921452756903E9, 0.0, 2022-02-27 11:24:12.756
214.0, -1246.2215121056454, -4539.952223295239, -1808.5466991122603, -10260.612995697618, -771.3363494081914, 238.49311333812636, -5567.1266397388745, -1560.8670188030028, -2288.9080392012643, -6334.417323400656, -4302.017903568495, -2923.608174754164, -3947.787457440789, -2905.3244477897224, -9948.940271012816, -14579.439411096504, 0.0154375, -0.10268750000000001, 0.990875, 192.0, 0.0, 64.0, 126.0, 96.0, 15.5, 0.0, 0.0, 0.0, 0.0, 1.645921452763953E9, 0.0, 2022-02-27 11:24:12.763
216.0, -1829.7361528558915, -5017.161967416045, -2261.4377452656922, -10761.090905796398, -1316.6518588843178, -229.03832543353147, -5897.440719299402, -2004.2809253073842, -4203.536117498412, -7218.898203241612, -4482.1953156227255, -3138.9895843255026, -4016.6084786186793, -3091.8050517803495, -10328.629354075118, -15619.399025368575, 0.0154375, -0.10268750000000001, 0.990875, 192.0, 0.0, 0.0, 0.0, 0.0, 0.0, 0.0, 0.0, 0.0, 0.0, 1.64592145277056E9, 0.0, 2022-02-27 11:24:12.770
218.0, -1557.8048298126257, -4785.508487881242, -2013.6016027452474, -10472.619291856205, -1040.7419253280075, 41.99892783152197, -5618.334486285983, -1618.2886503086866, -1746.073573359677, -6422.483196554565, -4501.015484454094, -2972.178515455546, -4185.16298355615, -3080.4727173415085, -9954.237634448724, -14530.287925039283, 0.0154375, -0.10268750000000001, 0.990875, 192.0, 0.0, 0.0, 0.0, 0.0, 0.0, 0.0, 0.0, 0.0, 0.0, 1.645921452778557E9, 0.0, 2022-02-27 11:24:12.778
220.0, -1381.3378073379765, -4662.104506743492, -1937.5162646193821, -10399.283218298342, -917.1367784901594, 104.69557102865828, -5718.805577612588, -1775.3543585961295, -3689.915381659911, -6767.504723966686, -4284.918819060185, -3018.759550900406, -3844.432991079449, -2883.307979501245, -10151.2459100778, -15172.073563584516, 0.0154375, -0.10268750000000001, 0.990875, 192.0, 0.0, 0.0, 0.0, 0.0, 0.0, 0.0, 0.0, 0.0, 0.0, 1.645921452786594E9, 0.0, 2022-02-27 11:24:12.786
222.0, -1866.5047724848716, -5037.256185681365, -2259.962530131642, -10748.79744634598, -1347.4749144881862, -226.5796335434477, -5829.469064410814, -1891.426967552539, -2909.0795408582144, -6995.648979622005, -4632.53314882912, -3117.084874759302, -4268.0656037408835, -3233.7833325604597, -10214.233125952856, -15200.72849997622, 0.0154375, -0.10268750000000001, 0.990875, 192.0, 0.0, 0.0, 0.0, 0.0, 0.0, 0.0, 0.0, 0.0, 0.0, 1.645921452793243E9, 0.0, 2022-02-27 11:24:12.793
224.0, -1248.8813696958268, -4537.918214549806, -1809.396065401562, -10256.053239828736, -782.6239803581215, 220.38820032932765, -5550.9216250087775, -1558.9671205243017, -2222.925689569198, -6327.711800064064, -4305.683589659166, -2921.8200351977393, -3967.3675855836377, -2902.6422384550856, -9940.781884286629, -14555.970079418432, 0.01571875, -0.10234375000000001, 0.9904375, 192.0, 0.0, 64.0, 126.0, 104.0, 15.0, 120.0, 0.0, 0.0, 0.0, 1.645921452801072E9, 0.0, 2022-02-27 11:24:12.801
226.0, -1804.2551641768414, -4989.222286846911, -2254.084021339896, -10750.853806835867, -1319.7363996191502, -227.2278341326516, -5905.599106025589, -2014.6521347346468, -4194.662474949655, -7198.267543109363, -4463.643367724821, -3139.2578052589665, -4014.932097784531, -3088.0946622007687, -10322.683790050005, -15618.99669396838, 0.01571875, -0.10234375000000001, 0.9904375, 192.0, 0.0, 0.0, 0.0, 0.0, 0.0, 0.0, 0.0, 0.0, 0.0, 1.645921452809245E9, 0.0, 2022-02-27 11:24:12.809
228.0, -1543.4326581278633, -4772.902104008449, -2013.5345475118813, -10469.69121333256, -1047.0004137754934, 39.74140164153596, -5627.051666623553, -1620.3003073096643, -1720.3914189805294, -6413.095463883336, -4485.861001713396, -2963.4613351179764, -4194.7518819274765, -3067.598112535252, -9954.572910615554, -14529.013875605331, 0.01571875, -0.10234375000000001, 0.9904375, 192.0, 0.0, 0.0, 0.0, 0.0, 0.0, 0.0, 0.0, 0.0, 0.0, 1.645921452816336E9, 0.0, 2022-02-27 11:24:12.816
230.0, -1360.416574527809, -4634.656564552375, -1931.9506802500107, -10386.229799536444, -916.667391856598, 103.510928572527, -5718.93968807932, -1776.9189807080008, -3645.0330787936546, -6745.95764231177, -4268.982025263551, -3002.2639634923894, -3841.0802294111527, -2888.448880725966, -10143.48985475181, -15162.57407219101, 0.01571875, -0.10234375000000001, 0.9904375, 192.0, 0.0, 0.0, 0.0, 0.0, 0.0, 0.0, 0.0, 0.0, 0.0, 1.645921452823843E9, 0.0, 2022-02-27 11:24:12.823
232.0, -1863.6437491945924, -5024.8062640197595, -2267.338605801893, -10742.069571264932, -1352.034670357069, -226.49022656562647, -5828.10560799904, -1867.6000079631817, -2892.1369185610915, -6993.458508665384, -4633.2260529072355, -3114.335610191299, -4273.094746243328, -3246.5014751555295, -10210.835660795648, -15192.14543010538, 0.01571875, -0.10234375000000001, 0.9904375, 192.0, 0.0, 0.0, 0.0, 0.0, 0.0, 0.0, 0.0, 0.0, 0.0, 1.645921452838755E9, 0.0, 2022-02-27 11:24:12.838
234.0, -1244.8580556938716, -4539.505188406132, -1817.1744724720088, -10253.326327005188, -780.8358408016969, 226.31141260998402, -5561.1363722248525, -1552.9321495213687, -2239.10835255484, -6322.548547094888, -4307.807005382419, -2925.0833898882142, -3969.6921670069896, -2909.1912995804905, -9949.767285557662, -14560.485131798403, 0.014859375000000001, -0.10317187500000001, 0.9902187499999999, 192.0, 0.0, 56.0, 126.0, 96.0, 15.0, 120.0, 0.0, 0.0, 0.0, 1.645921452845905E9, 0.0, 2022-02-27 11:24:12.845
236.0, -1792.811071015724, -4983.634350733084, -2252.787620161488, -10742.717771854135, -1303.9337162892482, -227.33959285492813, -5910.583545039123, -2016.6414399911691, -4224.2114811195715, -7216.28304914034, -4465.78913519253, -3143.9963750834913, -4009.925307026542, -3087.8040895228496, -10328.696409308483, -15617.879106745615, 0.014859375000000001, -0.10317187500000001, 0.9902187499999999, 192.0, 0.0, 0.0, 0.0, 0.0, 0.0, 0.0, 0.0, 0.0, 0.0, 1.645921452853534E9, 0.0, 2022-02-27 11:24:12.853
238.0, -1550.3840506534639, -4779.965255256326, -2025.8280069623004, -10480.375347182196, -1056.1199255132587, 15.914442052178629, -5636.394695805871, -1630.4256475479183, -1735.1659220654872, -6417.923440685683, -4493.102966916915, -2972.8937712781158, -4191.801451659376, -3098.3317611612993, -9969.392117189422, -14551.052695638264, 0.014859375000000001, -0.10317187500000001, 0.9902187499999999, 192.0, 0.0, 0.0, 0.0, 0.0, 0.0, 0.0, 0.0, 0.0, 0.0, 1.645921452861435E9, 0.0, 2022-02-27 11:24:12.861
240.0, -1354.8509901584375, -4628.331020871523, -1933.2023779395079, -10387.77206990386, -904.9997812509276, 109.65765829773645, -5712.077702531541, -1771.5545620387272, -3618.9485930143114, -6756.708831394772, -4275.732252089054, -3011.1599577856014, -3842.0860579116415, -2886.3701684916223, -10140.226500061333, -15143.485682426177, 0.014859375000000001, -0.10317187500000001, 0.9902187499999999, 192.0, 0.0, 0.0, 0.0, 0.0, 0.0, 0.0, 0.0, 0.0, 0.0, 1.645921452869464E9, 0.0, 2022-02-27 11:24:12.869
242.0, -1871.9809498764218, -5033.031705979312, -2279.49795478558, -10756.240577249597, -1359.5225047495967, -238.04607844902023, -5834.4982069132575, -1883.84972618219, -2940.282576117823, -7018.000724077311, -4640.512721599665, -3126.2267382415225, -4268.020900251973, -3247.1273240002783, -10221.206870222912, -15217.15703215087, 0.014859375000000001, -0.10317187500000001, 0.9902187499999999, 192.0, 0.0, 0.0, 0.0, 0.0, 0.0, 0.0, 0.0, 0.0, 0.0, 1.645921452876169E9, 0.0, 2022-02-27 11:24:12.876
244.0, -1251.071840652447, -4540.578072139987, -1823.8352923196903, -10260.03185034178, -793.1069485076605, 215.09083689341986, -5564.466782148693, -1565.829106072081, -2216.0637040214187, -6322.414436628156, -4316.23361304207, -2928.3914480675994, -3970.4744780629253, -2916.5226717618316, -9954.058820493081, -14554.628974751113, 0.012, -0.106, 0.99, 192.0, 0.0, 48.0, 126.0, 88.0, 15.0, 120.0, 0.0, 0.0, 0.0, 1.645921452884149E9, 0.0, 2022-02-27 11:24:12.884
246.0, -1802.4893763648722, -4985.154269356045, -2255.6262917073122, -10740.259079964051, -1310.7286466036614, -228.23366263314043, -5914.808024741176, -2015.0768178792976, -4240.930585972141, -7229.157653946598, -4467.957254404695, -3146.4103634846647, -4000.805795288777, -3089.368711634721, -10333.27851692182, -15619.846060257682, 0.012, -0.106, 0.99, 192.0, 0.0, 0.0, 0.0, 0.0, 0.0, 0.0, 0.0, 0.0, 0.0, 1.645921452891052E9, 0.0, 2022-02-27 11:24:12.891
