%OpenBCI Raw EEG Data
%Number of channels = 16
%Sample Rate = 125 Hz
%Board = OpenBCI_GUI$BoardCytonSerialDaisy
Sample Index, EXG Channel 0, EXG Channel 1, EXG Channel 2, EXG Channel 3, EXG Channel 4, EXG Channel 5, EXG Channel 6, EXG Channel 7, EXG Channel 8, EXG Channel 9, EXG Channel 10, EXG Channel 11, EXG Channel 12, EXG Channel 13, EXG Channel 14, EXG Channel 15, Accel Channel 0, Accel Channel 1, Accel Channel 2, Other, Other, Other, Other, Other, Other, Other, Analog Channel 0, Analog Channel 1, Analog Channel 2, Timestamp, Other, Timestamp (Formatted)
0.0, -795.1856607420041, -4133.418695142114, -1820.0801992511988, -9990.000425577215, -348.84367571397735, 47.05042207842137, -5378.544971769449, -1600.4296064888963, 0.0, 0.0, 0.0, 0.0, 0.0, 0.0, 0.0, 0.0, 0.0, 0.0, 0.0, 192.0, 0.0, 0.0, 0.0, 0.0, 0.0, 0.0, 0.0, 0.0, 0.0, 1.645922337385206E9, 0.0, 2022-02-27 11:38:57.385
24.0, -458.14370610042886, -3857.866389497088, -1508.4521780553077, -9659.663994272232, -17.769636841969113, 343.725126233712, -5061.641938882106, -1203.4849767070982, -1011.8634714917507, -4914.5674603661855, -3619.1050552254983, -2724.4094281684675, -3166.3257677943434, -2077.281722698417, -9158.604938817614, -14357.866568311045, 0.0, 0.0, 0.0, 192.0, 0.0, 0.0, 0.0, 0.0, 0.0, 0.0, 0.0, 0.0, 0.0, 1.645922337385209E9, 0.0, 2022-02-27 11:38:57.385
0.0, -421.1292172824404, -1774.102660906632, -562.1687247954279, -4518.874528273885, 113.72567578860233, 328.6824022152904, -2312.4220743682476, -422.33621148302694, -1615.181757829399, -2964.5789223407414, -1907.6990375160026, -1490.9507621468024, -1634.0689818941335, -1181.915543307727, -4809.648371892974, -7760.860951049442, 0.01, -0.108, 0.98, 192.0, 0.0, 40.0, 126.0, 80.0, 15.0, 80.0, 0.0, 0.0, 0.0, 1.645922337479328E9, 0.0, 2022-02-27 11:38:57.479
2.0, -696.5921159496446, -3449.0529834095223, -1055.851704579795, -8962.513084711205, 339.5900535094802, 689.193688534938, -4715.5251759916755, -993.1997648715693, -2614.0141623037057, -4301.034426812462, -3040.0607633663135, -2457.395488905369, -2512.2243180542373, -1477.7855846626264, -8402.512479127941, -14780.582759449811, 0.01, -0.108, 0.98, 192.0, 0.0, 0.0, 0.0, 0.0, 0.0, 0.0, 0.0, 0.0, 0.0, 1.64592233748555E9, 0.0, 2022-02-27 11:38:57.485
4.0, -1286.4099486362875, -3918.5960791821576, -1490.2578580686877, -9441.645078855167, -194.99661862809882, 331.27520457210596, -4902.318704404677, -1209.4752442211204, -2556.011385442184, -4771.650406318951, -3417.6264307053607, -2641.4621044948226, -2909.012485624848, -1833.7371151133914, -8592.211734320133, -15126.654818851332, 0.01, -0.108, 0.98, 192.0, 0.0, 0.0, 0.0, 0.0, 0.0, 0.0, 0.0, 0.0, 0.0, 1.645922337493054E9, 0.0, 2022-02-27 11:38:57.493
6.0, -690.7806623912647, -3430.4786837671622, -1016.6020413162759, -8920.804729557602, 365.8310015000107, 736.7358489913761, -4597.4185582898335, -857.5470277723108, -1261.1524774017903, -3958.203370356962, -3120.7952643388826, -2414.1448633843497, -2685.9197242164287, -1529.7086870323049, -8245.267956884856, -14283.412907530417, 0.01, -0.108, 0.98, 192.0, 0.0, 0.0, 0.0, 0.0, 0.0, 0.0, 0.0, 0.0, 0.0, 1.645922337501031E9, 0.0, 2022-02-27 11:38:57.501
8.0, -1122.1246268897805, -3795.4379672334157, -1394.5700400555183, -9331.47333043496, -65.44590776513908, 390.8873070344099, -4937.008611799313, -1241.3711835588435, -3518.701019132259, -4799.545383399175, -3204.3460851128207, -2584.688673578343, -2621.814921118608, -1645.244854121787, -8615.032865409, -15319.259800822712, 0.008, -0.106, 0.984, 192.0, 0.0, 32.0, 126.0, 88.0, 15.0, 96.0, 0.0, 0.0, 0.0, 1.645922337507735E9, 0.0, 2022-02-27 11:38:57.507
10.0, -1022.435846619111, -3694.8327654400787, -1260.4595733236758, -9189.53975314376, 69.53627700046027, 539.8393320845762, -4712.619449212486, -930.3019559743352, -1125.0974089023364, -4188.694559180089, -3334.2767756315206, -2505.205870295271, -2911.180604837013, -1741.044430857233, -8334.674934706085, -14427.358141822595, 0.008, -0.106, 0.984, 192.0, 0.0, 0.0, 0.0, 0.0, 0.0, 0.0, 0.0, 0.0, 0.0, 1.645922337515616E9, 0.0, 2022-02-27 11:38:57.515
12.0, -692.3452845031362, -3447.845989208936, -1047.8944835537056, -8961.864884122, 355.34803335047167, 695.2063077934156, -4689.172469278868, -970.7362616939857, -2592.757653326709, -4291.892563330241, -3043.815856434805, -2457.7307650721987, -2513.073684343539, -1485.1840120773331, -8389.704929555051, -14757.87338708322, 0.008, -0.106, 0.984, 192.0, 0.0, 0.0, 0.0, 0.0, 0.0, 0.0, 0.0, 0.0, 0.0, 1.645922337523694E9, 0.0, 2022-02-27 11:38:57.523
14.0, -1282.163117189779, -3915.0645035582193, -1486.927448144847, -9443.500273644957, -195.9130401507664, 325.06141961353063, -4900.35175089261, -1200.5792499279082, -2586.3874061569463, -4784.94969426986, -3418.4757969946622, -2644.3454795295575, -2906.1067588456585, -1837.782780859802, -8589.171897074211, -15129.784063075074, 0.008, -0.106, 0.984, 192.0, 0.0, 0.0, 0.0, 0.0, 0.0, 0.0, 0.0, 0.0, 0.0, 1.645922337530315E9, 0.0, 2022-02-27 11:38:57.530
16.0, -693.5969821926335, -3432.646802979327, -1015.2385849045021, -8924.090435992532, 366.65801604485705, 745.967119451418, -4586.868534906928, -823.4606174779675, -1253.195256375701, -3964.5289140378136, -3122.3151829618437, -2418.570508786501, -2686.7914422501854, -1538.4258673698746, -8243.63627953962, -14272.125276580487, 0.009000000000000001, -0.10500000000000001, 0.983, 192.0, 0.0, 40.0, 126.0, 96.0, 15.0, 88.0, 0.0, 0.0, 0.0, 1.645922337537336E9, 0.0, 2022-02-27 11:38:57.537
18.0, -1103.595030736331, -3776.818964102145, -1378.6779497477949, -9324.857214076188, -42.35655574280688, 394.0165512581529, -4914.388646410543, -1251.1835993747234, -3518.8798330879017, -4800.819432833127, -3198.6687420211724, -2588.220249202281, -2606.6380866334543, -1638.2264063628206, -8607.343865316376, -15308.016873361692, 0.009000000000000001, -0.10500000000000001, 0.983, 192.0, 0.0, 0.0, 0.0, 0.0, 0.0, 0.0, 0.0, 0.0, 0.0, 1.645922337553195E9, 0.0, 2022-02-27 11:38:57.553
20.0, -1035.8692450367505, -3697.962009663822, -1270.1155269283686, -9202.995503305854, 60.081489095865386, 533.2008639813499, -4692.435823969344, -942.9306915915837, -1145.973938223593, -4208.654666978678, -3341.429333857219, -2513.1630913213603, -2910.6441629700857, -1735.8141226546911, -8336.798350429339, -14440.81389198469, 0.009000000000000001, -0.10500000000000001, 0.983, 192.0, 0.0, 0.0, 0.0, 0.0, 0.0, 0.0, 0.0, 0.0, 0.0, 1.64592233755996E9, 0.0, 2022-02-27 11:38:57.559
22.0, -694.9827903488625, -3438.458256537707, -1049.9061405546834, -8956.902796852923, 354.4316118278041, 699.0731595841837, -4688.16664077838, -973.2843605618907, -2578.139612452938, -4284.069452770884, -3050.051993137836, -2459.4742011397125, -2513.87834714393, -1476.3997765063973, -8388.788508032383, -14747.189253233582, 0.009000000000000001, -0.10500000000000001, 0.983, 192.0, 0.0, 0.0, 0.0, 0.0, 0.0, 0.0, 0.0, 0.0, 0.0, 1.645922337567894E9, 0.0, 2022-02-27 11:38:57.567
24.0, -1288.555716103997, -3916.6291256700906, -1487.061558611579, -9445.981317279497, -194.52723199453737, 327.5201115036144, -4895.859050257093, -1211.1516250552686, -2599.887859807952, -4782.736871568784, -3420.7109714401927, -2642.6690986954095, -2901.412892510044, -1831.3901819455841, -8595.497440755064, -15129.672304352798, 0.009000000000000001, -0.10500000000000001, 0.983, 192.0, 0.0, 0.0, 0.0, 0.0, 0.0, 0.0, 0.0, 0.0, 0.0, 1.64592233757595E9, 0.0, 2022-02-27 11:38:57.575
26.0, -704.124653831083, -3438.1676838597878, -1019.0607332063596, -8932.71820935228, 367.97676896772015, 742.9049304610409, -4583.024034860616, -819.4596552204675, -1249.0825353959247, -3953.643614488079, -3124.103322518268, -2418.9951919311516, -2677.738985745786, -1528.1887684093438, -8240.484683571422, -14271.72294518029, 0.009500000000000001, -0.10650000000000001, 0.9824999999999999, 192.0, 0.0, 40.0, 126.0, 80.0, 15.0, 88.0, 0.0, 0.0, 0.0, 1.645922337583027E9, 0.0, 2022-02-27 11:38:57.583
28.0, -1111.2616790845013, -3781.043443804198, -1386.769281240616, -9328.478196677946, -43.25062552101917, 399.5374321386137, -4915.059198744202, -1235.425619533732, -3525.2724320021193, -4801.601743889063, -3202.647352534217, -2592.5341358821556, -2600.7372260972534, -1636.3488598285749, -8604.974580404112, -15304.753518671218, 0.009500000000000001, -0.10650000000000001, 0.9824999999999999, 192.0, 0.0, 0.0, 0.0, 0.0, 0.0, 0.0, 0.0, 0.0, 0.0, 1.645922337590695E9, 0.0, 2022-02-27 11:38:57.590
30.0, -1046.8439515643063, -3708.042646413165, -1280.8220125224607, -9207.577610919192, 48.23506453455264, 527.0094307672299, -4703.924620619371, -935.2640432434134, -1160.4802203750874, -4202.954972142574, -3349.230092672121, -2518.505158246179, -2915.025104883326, -1743.5478262362274, -8338.65354521913, -14445.105426920109, 0.009500000000000001, -0.10650000000000001, 0.9824999999999999, 192.0, 0.0, 0.0, 0.0, 0.0, 0.0, 0.0, 0.0, 0.0, 0.0, 1.645922337598477E9, 0.0, 2022-02-27 11:38:57.598
32.0, -700.6377816960552, -3442.72743972867, -1051.850742322295, -8955.695802652335, 356.82324848452197, 702.3588660191139, -4686.1773355218575, -963.9413313795724, -2571.7246617942646, -4290.149127262727, -3056.3775368186875, -2464.525695386612, -2516.1135215894606, -1476.2433142952102, -8385.078118452802, -14738.829700807299, 0.009500000000000001, -0.10650000000000001, 0.9824999999999999, 192.0, 0.0, 0.0, 0.0, 0.0, 0.0, 0.0, 0.0, 0.0, 0.0, 1.645922337605624E9, 0.0, 2022-02-27 11:38:57.605
34.0, -1294.6577423402957, -3912.002314567842, -1496.9857331497353, -9447.903567302654, -186.12297607934192, 336.1478848633629, -4889.533506576241, -1189.9621713116373, -2642.9820231177837, -4788.95065652736, -3419.9733638731677, -2651.363927288524, -2888.985322592893, -1840.6438041500812, -8592.725824442605, -15141.205804491736, 0.009500000000000001, -0.10650000000000001, 0.9824999999999999, 192.0, 0.0, 0.0, 0.0, 0.0, 0.0, 0.0, 0.0, 0.0, 0.0, 1.645922337613718E9, 0.0, 2022-02-27 11:38:57.613
36.0, -719.18972959396, -3449.097686898433, -1031.8459310347953, -8930.572441884571, 367.70854803425647, 752.4714770879123, -4581.168840070825, -795.8785648201185, -1241.4158870477543, -3960.2150273579396, -3132.328764477821, -2427.95824145773, -2682.298741614669, -1533.4190766118857, -8237.91423295906, -14256.72492465078, 0.009750000000000002, -0.10725000000000001, 0.98525, 192.0, 0.0, 40.0, 126.0, 80.0, 15.0, 112.0, 0.0, 0.0, 0.0, 1.645922337620142E9, 0.0, 2022-02-27 11:38:57.620
38.0, -1116.9837256650599, -3785.8714206065442, -1387.1716126408116, -9320.297458207306, -34.153465527709194, 408.72399910974497, -4917.87551854557, -1230.9552706426705, -3526.7476471361697, -4795.611476375041, -3203.317904867876, -2590.2766096921696, -2593.6964265938313, -1630.4479992923737, -8598.336112300887, -15290.604864431009, 0.009750000000000002, -0.10725000000000001, 0.98525, 192.0, 0.0, 0.0, 0.0, 0.0, 0.0, 0.0, 0.0, 0.0, 0.0, 1.645922337628247E9, 0.0, 2022-02-27 11:38:57.628
40.0, -1053.9741580455493, -3716.8715854730112, -1278.6985967992064, -9204.291904484262, 60.19324781814192, 543.8179425976208, -4681.751690119707, -922.1659209926034, -1158.9826534965819, -4209.101701867784, -3353.7898485410037, -2517.655791956877, -2904.76565417834, -1737.624613955571, -8331.255117804423, -14436.09767390462, 0.009750000000000002, -0.10725000000000001, 0.98525, 192.0, 0.0, 0.0, 0.0, 0.0, 0.0, 0.0, 0.0, 0.0, 0.0, 1.645922337635369E9, 0.0, 2022-02-27 11:38:57.635
42.0, -702.738845674854, -3447.488361297651, -1045.7040125970857, -8953.281814251162, 361.22654214221745, 707.3656567771026, -4675.046166783115, -963.3601860237344, -2559.0288709436504, -4297.033464554962, -3057.9645106750145, -2465.5538756315564, -2507.8657278854525, -1477.9420468738135, -8375.08688868128, -14730.425444892104, 0.009750000000000002, -0.10725000000000001, 0.98525, 192.0, 0.0, 0.0, 0.0, 0.0, 0.0, 0.0, 0.0, 0.0, 0.0, 1.645922337642809E9, 0.0, 2022-02-27 11:38:57.642
44.0, -1305.8336145679493, -3928.497901975859, -1495.4211110378637, -9449.267023714427, -200.13751985281945, 326.6260417254021, -4896.5519543352075, -1173.9583222816375, -2650.00047087675, -4802.607572389552, -3421.3368202849415, -2647.9217586424065, -2887.420700481022, -1832.7759901018132, -8590.22242906361, -15141.451673680744, 0.009750000000000002, -0.10725000000000001, 0.98525, 192.0, 0.0, 0.0, 0.0, 0.0, 0.0, 0.0, 0.0, 0.0, 0.0, 1.645922337650855E9, 0.0, 2022-02-27 11:38:57.650
46.0, -721.5813662506779, -3452.673966011282, -1032.047096734893, -8935.020439031177, 357.40439384035994, 746.5929682961665, -4566.304930008046, -800.4606724334566, -1238.0854771239135, -3969.7145187514448, -3133.2898894893992, -2425.745418756654, -2687.9760847063167, -1532.770876022682, -8234.293250357301, -14255.383819983463, 0.009875000000000002, -0.107625, 0.987625, 192.0, 0.0, 40.0, 126.0, 80.0, 15.0, 120.0, 0.0, 0.0, 0.0, 1.645922337658887E9, 0.0, 2022-02-27 11:38:57.658
48.0, -1106.3889987932444, -3777.981254813821, -1368.2173333427113, -9311.22264995845, -19.17779674265346, 415.9659643132644, -4901.916373004481, -1221.5898897158968, -3525.093618046477, -4796.61730487553, -3192.9913989295246, -2592.444728904334, -2590.544830625633, -1621.4178945324297, -8589.998911619057, -15290.73897489774, 0.009875000000000002, -0.107625, 0.987625, 192.0, 0.0, 0.0, 0.0, 0.0, 0.0, 0.0, 0.0, 0.0, 0.0, 1.645922337672471E9, 0.0, 2022-02-27 11:38:57.672
50.0, -1103.9973621365264, -3759.6528243604694, -1293.7189690731727, -9223.78262564929, 41.64129992023706, 527.7023348453445, -4702.985847352248, -935.1299327766816, -1203.5967354293748, -4261.717708315577, -3361.4788486336292, -2540.1639986233713, -2910.9794391369155, -1748.688727460948, -8338.45237951903, -14468.53005510927, 0.009875000000000002, -0.107625, 0.987625, 192.0, 0.0, 0.0, 0.0, 0.0, 0.0, 0.0, 0.0, 0.0, 0.0, 1.645922337680542E9, 0.0, 2022-02-27 11:38:57.680
52.0, -781.640503602088, -3510.475577172706, -1053.951806301094, -8951.717192139291, 367.5744375675246, 718.6979912159433, -4666.016062023171, -935.7781333658855, -2536.654774743888, -4292.719577875087, -3070.9285224590926, -2476.3274164590143, -2512.5148907321563, -1473.67286368285, -8367.666109522117, -14706.754947513933, 0.009875000000000002, -0.107625, 0.987625, 192.0, 0.0, 0.0, 0.0, 0.0, 0.0, 0.0, 0.0, 0.0, 0.0, 1.645922337688531E9, 0.0, 2022-02-27 11:38:57.688
54.0, -1446.9178255698473, -4066.0505373538185, -1510.5755937785618, -9456.218416240026, -186.7041214351799, 345.66972800132373, -4871.58505577863, -1164.3694239103108, -2709.5902215945985, -4846.126418844035, -3466.1967714067428, -2688.1772504064147, -2890.035854582293, -1833.781818602302, -8585.170934816711, -15136.154310244836, 0.009875000000000002, -0.107625, 0.987625, 192.0, 0.0, 0.0, 0.0, 0.0, 0.0, 0.0, 0.0, 0.0, 0.0, 1.645922337695009E9, 0.0, 2022-02-27 11:38:57.695
56.0, -949.9938428394607, -3663.562674947104, -1054.1976754901023, -8946.352773470018, 370.39075736889333, 766.6201313281216, -4559.465296204722, -782.9145530360405, -1297.0717307414689, -4022.196414732506, -3187.8281459603486, -2480.820117094531, -2681.1364509029927, -1530.9380329773467, -8223.117378129647, -14245.973735567777, 0.010937500000000001, -0.1068125, 0.9898125, 192.0, 0.0, 48.0, 126.0, 88.0, 15.5, 0.0, 0.0, 0.0, 0.0, 1.645922337703315E9, 0.0, 2022-02-27 11:38:57.703
58.0, -1370.8101356995269, -4038.4684846959694, -1398.1016156794567, -9328.65701063359, -16.808511830390913, 435.590795945024, -4893.668579300473, -1208.3576569983552, -3629.3868576749396, -4868.947549932904, -3273.7929551354596, -2662.9421309163727, -2598.7702725851864, -1619.1827200868988, -8589.171897074211, -15278.937253825337, 0.010937500000000001, -0.1068125, 0.9898125, 192.0, 0.0, 0.0, 0.0, 0.0, 0.0, 0.0, 0.0, 0.0, 0.0, 1.645922337711117E9, 0.0, 2022-02-27 11:38:57.711
60.0, -1339.2047690397226, -3996.849536520188, -1304.8277860674605, -9230.041114096775, 57.6004454613263, 550.6575764009448, -4687.4066814668995, -922.4341419260671, -1275.8152217644717, -4309.371627494291, -3434.993736147134, -2597.675037106876, -2913.214613582446, -1738.0492971002218, -8332.395056771644, -14452.570909568181, 0.010937500000000001, -0.1068125, 0.9898125, 192.0, 0.0, 0.0, 0.0, 0.0, 0.0, 0.0, 0.0, 0.0, 0.0, 1.645922337718371E9, 0.0, 2022-02-27 11:38:57.718
62.0, -973.0608431173376, -3718.078579673598, -1060.7467366155072, -8964.43533473436, 377.43155687231507, 727.9739651648957, -4673.660358626886, -918.3214209462907, -2607.107473267016, -4357.182008884193, -3136.4191337131424, -2543.583815525033, -2518.8627861574637, -1474.9692648612577, -8367.599054288752, -14705.52560156889, 0.010937500000000001, -0.1068125, 0.9898125, 192.0, 0.0, 0.0, 0.0, 0.0, 0.0, 0.0, 0.0, 0.0, 0.0, 1.645922337724874E9, 0.0, 2022-02-27 11:38:57.724
64.0, -1569.919475307402, -4188.649855691177, -1521.7961694951262, -9466.477866945013, -190.39215927030557, 338.11483837542994, -4875.228390124845, -1174.0924327483694, -2793.096338879626, -4898.094224702624, -3500.730216590192, -2731.472579416344, -2891.153441805058, -1835.7040686254584, -8592.524658742506, -15155.086237798481, 0.010937500000000001, -0.1068125, 0.9898125, 192.0, 0.0, 0.0, 0.0, 0.0, 0.0, 0.0, 0.0, 0.0, 0.0, 1.645922337732868E9, 0.0, 2022-02-27 11:38:57.732
66.0, -980.9957123989717, -3711.328352848095, -1062.7807453609403, -8955.785209630158, 349.78244898110023, 753.9243404775073, -4546.143656509359, -783.7192158364315, -1317.9482600627257, -4037.954394573497, -3217.0865794523456, -2500.936687104307, -2706.0139424817494, -1544.5278936061734, -8224.436131052511, -14246.107846034509, 0.01246875, -0.10540625, 0.98990625, 192.0, 0.0, 56.0, 126.0, 96.0, 15.0, 120.0, 0.0, 0.0, 0.0, 1.645922337741053E9, 0.0, 2022-02-27 11:38:57.741
68.0, -1306.1241872458681, -3989.518164338847, -1381.2036968712446, -9316.430606416538, -5.9902675140222925, 423.8561301059878, -4882.448003583909, -1209.4081889877546, -3611.1031307104986, -4860.476238784342, -3260.35955671782, -2657.354194802546, -2602.234792975759, -1634.6054237610608, -8584.254513294043, -15275.897416579417, 0.01246875, -0.10540625, 0.98990625, 192.0, 0.0, 0.0, 0.0, 0.0, 0.0, 0.0, 0.0, 0.0, 0.0, 1.645922337748144E9, 0.0, 2022-02-27 11:38:57.748
70.0, -1261.9794919466367, -3922.418227484015, -1306.3924081793318, -9236.567823477724, 42.937701098644865, 529.9375092908751, -4693.039321069637, -924.5575576493213, -1282.8336695234382, -4319.027581098983, -3412.6643434362823, -2587.594400357533, -2917.796721195784, -1755.5954164976379, -8338.228862074478, -14472.329851666673, 0.01246875, -0.10540625, 0.98990625, 192.0, 0.0, 0.0, 0.0, 0.0, 0.0, 0.0, 0.0, 0.0, 0.0, 1.645922337755776E9, 0.0, 2022-02-27 11:38:57.755
72.0, -848.2039985899925, -3599.4131683603728, -1046.1957509751023, -8950.130218282964, 378.95147549527593, 728.3539448206359, -4655.823666551551, -908.9783917639724, -2530.463341529768, -4300.721502390087, -3091.000388979958, -2502.7471784051872, -2511.710227931765, -1488.7379394457269, -8357.496065794952, -14685.744307725945, 0.01246875, -0.10540625, 0.98990625, 192.0, 0.0, 0.0, 0.0, 0.0, 0.0, 0.0, 0.0, 0.0, 0.0, 1.645922337763465E9, 0.0, 2022-02-27 11:38:57.763
74.0, -1452.997500061691, -4082.2108485950052, -1512.9672304352798, -9464.756782621955, -200.07046461945353, 331.54342550556964, -4897.513079346786, -1179.0321682729923, -2761.1109925640812, -4864.6783667419395, -3457.3007771135303, -2697.632038311009, -2878.927037588005, -1848.0645833092433, -8588.993083118568, -15152.851063352951, 0.01246875, -0.10540625, 0.98990625, 192.0, 0.0, 0.0, 0.0, 0.0, 0.0, 0.0, 0.0, 0.0, 0.0, 1.64592233777053E9, 0.0, 2022-02-27 11:38:57.770
76.0, -853.1884376035259, -3587.0973571654986, -1045.8604748082728, -8950.644308405437, 350.6318152704019, 739.351003092647, -4588.164936085336, -803.992248057395, -1259.1184686563574, -4003.756225556878, -3168.5832939843294, -2459.3400906729808, -2692.9605237198502, -1550.8534372870251, -8227.58772702071, -14249.281793747163, 0.013234375, -0.10770312500000001, 0.991953125, 192.0, 0.0, 56.0, 126.0, 72.0, 15.5, 8.0, 0.0, 0.0, 0.0, 1.645922337778112E9, 0.0, 2022-02-27 11:38:57.778
78.0, -1204.8707848633271, -3885.3366834326607, -1376.4651270467195, -9313.569583126258, -22.53055841094952, 413.6190311454572, -4895.791995023727, -1206.9494970976707, -3551.021641614633, -4807.614363147541, -3211.096311938323, -2615.6011361600326, -2586.0521299901166, -1635.1865691168987, -8587.540219728973, -15279.02666080316, 0.013234375, -0.10770312500000001, 0.991953125, 192.0, 0.0, 0.0, 0.0, 0.0, 0.0, 0.0, 0.0, 0.0, 0.0, 1.645922337785103E9, 0.0, 2022-02-27 11:38:57.785
80.0, -1163.654168087741, -3829.211453105385, -1299.999809265114, -9229.30350652975, 37.72974464055832, 516.8170352956099, -4696.235620526746, -952.0502033293491, -1237.3702213013437, -4282.616589381289, -3382.422433188252, -2557.8665802319742, -2922.3564770646667, -1768.8052974707243, -8348.264795334911, -14468.731220809368, 0.013234375, -0.10770312500000001, 0.991953125, 192.0, 0.0, 0.0, 0.0, 0.0, 0.0, 0.0, 0.0, 0.0, 0.0, 1.645922337800226E9, 0.0, 2022-02-27 11:38:57.800
82.0, -774.7785180543087, -3525.8535773579574, -1049.6155678767643, -8950.174921771875, 372.31300739204977, 708.1479678330384, -4667.1560009903915, -944.8976451036508, -2496.645152168888, -4280.806098080408, -3068.0004439354475, -2485.044596796584, -2517.789902423609, -1496.7398639607268, -8371.108278168234, -14698.618912532202, 0.013234375, -0.10770312500000001, 0.991953125, 192.0, 0.0, 0.0, 0.0, 0.0, 0.0, 0.0, 0.0, 0.0, 0.0, 1.645922337807733E9, 0.0, 2022-02-27 11:38:57.807
84.0, -1384.1988306282558, -4017.100216996696, -1519.1810153938552, -9467.282529745404, -203.8255576879451, 310.28691652857265, -4904.665637572484, -1213.0515233339695, -2783.3733300415674, -4855.536503259719, -3434.8149221914914, -2684.846840482574, -2878.5247061878094, -1855.820638635235, -8604.907525170747, -15183.42824976781, 0.013234375, -0.10770312500000001, 0.991953125, 192.0, 0.0, 0.0, 0.0, 0.0, 0.0, 0.0, 0.0, 0.0, 0.0, 1.645922337815804E9, 0.0, 2022-02-27 11:38:57.815
86.0, -806.6297539031212, -3539.8457693869796, -1057.4163266916664, -8960.143799798941, 335.03029764059755, 725.0011831523399, -4595.652770477864, -817.5821086862218, -1200.646305161274, -3992.5132980958583, -3167.823334672849, -2454.6015208484555, -2709.411407638956, -1574.3227689650976, -8241.199939393991, -14251.91929959289, 0.014, -0.108, 0.992, 192.0, 0.0, 56.0, 126.0, 80.0, 15.5, 0.0, 0.0, 0.0, 0.0, 1.645922337823703E9, 0.0, 2022-02-27 11:38:57.823
88.0, -1132.8981677172385, -3813.9675633868655, -1374.2746560900994, -9309.27804819084, -26.151541012709263, 411.0709322775522, -4942.484789190864, -1234.2856805665112, -3523.059609301044, -4784.055624491647, -3194.3101518523877, -2606.32516221108, -2588.7343393247534, -1639.0981243965775, -8598.447871023163, -15275.003346801204, 0.014, -0.108, 0.992, 192.0, 0.0, 0.0, 0.0, 0.0, 0.0, 0.0, 0.0, 0.0, 0.0, 1.645922337830208E9, 0.0, 2022-02-27 11:38:57.830
90.0, -1110.45701628411, -3783.0551008051757, -1303.7325505891504, -9235.15966357704, 29.705468381103085, 508.01044798021894, -4720.844891172039, -946.4399154710669, -1222.7298286831176, -4263.79642054992, -3366.2844736915204, -2545.4166585703683, -2922.57999450922, -1774.080309162177, -8360.960586185525, -14483.125744238585, 0.014, -0.108, 0.992, 192.0, 0.0, 0.0, 0.0, 0.0, 0.0, 0.0, 0.0, 0.0, 0.0, 1.645922337838512E9, 0.0, 2022-02-27 11:38:57.838
92.0, -708.3938370220467, -3463.9168934723016, -1034.371678158245, -8937.076799521064, 379.5102691066586, 716.1722440924935, -4677.013120295182, -934.1688077651033, -2445.3255468995035, -4255.995661735018, -3052.689498983562, -2467.364366932436, -2512.336076776514, -1493.029474381146, -8366.459115321531, -14684.492610036446, 0.014, -0.108, 0.992, 192.0, 0.0, 0.0, 0.0, 0.0, 0.0, 0.0, 0.0, 0.0, 0.0, 1.645922337846237E9, 0.0, 2022-02-27 11:38:57.846
94.0, -1327.8500828564268, -3956.2140651004393, -1507.5804600215508, -9459.548826163867, -206.37365655585012, 315.8301491534888, -4953.8394753741595, -1195.7065696366512, -2746.2694342457576, -4818.209090019356, -3411.8820323803466, -2654.5602267456325, -2867.4382409379773, -1847.0811065532098, -8607.32151357192, -15179.382584021401, 0.014, -0.108, 0.992, 192.0, 0.0, 0.0, 0.0, 0.0, 0.0, 0.0, 0.0, 0.0, 0.0, 1.64592233785321E9, 0.0, 2022-02-27 11:38:57.853
96.0, -758.4393928574792, -3490.671931585304, -1049.0344225209265, -8951.896006094934, 338.2936523310724, 731.0138024108174, -4570.819982388018, -790.8270705732192, -1181.0438252739698, -3949.4414865304816, -3138.497845947486, -2424.9407559562633, -2691.4629568413447, -1561.2246467142877, -8239.367096348655, -14243.895023333434, 0.016, -0.11, 0.986, 192.0, 0.0, 64.0, 126.0, 72.0, 15.0, 104.0, 0.0, 0.0, 0.0, 1.645922337859904E9, 0.0, 2022-02-27 11:38:57.859
98.0, -1095.8389754103393, -3784.7314816393236, -1360.483629761175, -9297.923362007543, -6.23613670303067, 418.4693596922588, -4888.974712964859, -1220.807578659961, -3508.799196338558, -4763.46966784831, -3178.4404132891195, -2591.841231804041, -2570.8305920160524, -1632.213787104343, -8579.918274869713, -15264.766247840673, 0.016, -0.11, 0.986, 192.0, 0.0, 0.0, 0.0, 0.0, 0.0, 0.0, 0.0, 0.0, 0.0, 1.645922337868031E9, 0.0, 2022-02-27 11:38:57.868
100.0, -1080.8856583697388, -3752.008527756754, -1298.7481115756168, -9236.97015487792, 25.27982297895229, 495.56052631861286, -4727.192786597346, -976.3018460633572, -1224.5403199839975, -4262.678833327154, -3364.205761457177, -2544.4108300698795, -2915.6509537280745, -1782.5069168218276, -8352.153998870135, -14491.708814109423, 0.016, -0.11, 0.986, 192.0, 0.0, 0.0, 0.0, 0.0, 0.0, 0.0, 0.0, 0.0, 0.0, 1.645922337875857E9, 0.0, 2022-02-27 11:38:57.875
102.0, -677.1908017624381, -3436.9159861702906, -1028.6496315776863, -8935.378066942461, 373.56470508154695, 707.4997672438344, -4694.760405392695, -940.181427023581, -2407.1264156253833, -4230.626431778244, -3039.6137284772076, -2455.987329004685, -2509.4079982528688, -1498.8409279395257, -8363.776905986895, -14682.056269890818, 0.016, -0.11, 0.986, 192.0, 0.0, 0.0, 0.0, 0.0, 0.0, 0.0, 0.0, 0.0, 0.0, 1.645922337882442E9, 0.0, 2022-02-27 11:38:57.882
104.0, -1301.229155210156, -3937.1480270800625, -1509.4580065557966, -9459.146494763672, -201.79154894251215, 302.888489113866, -4931.68889661895, -1205.653095919263, -2776.1984200714137, -4827.57447094613, -3404.5953636879167, -2656.482476768789, -2867.4829444268876, -1850.9926618328884, -8609.08730138389, -15191.3854707939, 0.016, -0.11, 0.986, 192.0, 0.0, 0.0, 0.0, 0.0, 0.0, 0.0, 0.0, 0.0, 0.0, 1.645922337890604E9, 0.0, 2022-02-27 11:38:57.890
106.0, -725.3811628080801, -3461.0335184375667, -1049.4814574100326, -8946.844511848034, 344.35097507846064, 728.2421860983594, -4609.868479951439, -809.5354806823112, -1150.2207696701014, -3943.451219016459, -3133.71457263405, -2417.7211424971993, -2691.038273696694, -1565.2256089717878, -8233.086256156714, -14246.800750112625, 0.012, -0.106, 0.99, 192.0, 0.0, 48.0, 126.0, 88.0, 15.0, 120.0, 0.0, 0.0, 0.0, 1.645922337898613E9, 0.0, 2022-02-27 11:38:57.898
108.0, -1040.049021249893, -3731.7801990247012, -1347.519617977097, -9276.35392860817, 20.407142687695348, 424.6384411619236, -4877.620026781563, -1240.00772714707, -3479.250190168642, -4740.916757692905, -3156.8039246563826, -2569.6012460710103, -2556.257254631192, -1614.1535775844548, -8578.64422543576, -15263.223977473257, 0.012, -0.106, 0.99, 192.0, 0.0, 0.0, 0.0, 0.0, 0.0, 0.0, 0.0, 0.0, 0.0, 1.645922337905706E9, 0.0, 2022-02-27 11:38:57.905
110.0, -1077.1529170457027, -3743.9618997528437, -1317.6353356403513, -9249.151855606062, 23.67049737817018, 491.6713227833895, -4699.923658361871, -959.6944999330641, -1251.6529860082849, -4273.675891599166, -3358.5731218544393, -2534.5760625095445, -2910.1747763365242, -1777.8354022306685, -8356.64669950565, -14516.96628534392, 0.012, -0.106, 0.99, 192.0, 0.0, 0.0, 0.0, 0.0, 0.0, 0.0, 0.0, 0.0, 0.0, 1.645922337920323E9, 0.0, 2022-02-27 11:38:57.920
112.0, -662.6621678664885, -3424.0413813640334, -1028.336707155312, -8931.690029107336, 397.97281002674225, 719.6144127386109, -4640.222148921746, -914.8345488112627, -2359.4277929577584, -4212.4768152805345, -3042.2512343229337, -2451.9640150027294, -2504.1553383058713, -1484.3569975324867, -8344.800274944339, -14648.796874141322, 0.012, -0.106, 0.99, 192.0, 0.0, 0.0, 0.0, 0.0, 0.0, 0.0, 0.0, 0.0, 0.0, 1.645922337928298E9, 0.0, 2022-02-27 11:38:57.928
114.0, -1297.4070069082984, -3938.712649191934, -1511.1343873899445, -9466.477866945013, -194.0354936165206, 304.9672013482096, -4903.883326516549, -1195.9524388256598, -2781.7640044407854, -4826.076904067624, -3410.3397620129304, -2661.5563227601438, -2855.1000779986475, -1845.583539674704, -8602.94057165868, -15188.010357381148, 0.012, -0.106, 0.99, 192.0, 0.0, 0.0, 0.0, 0.0, 0.0, 0.0, 0.0, 0.0, 0.0, 1.645922337935318E9, 0.0, 2022-02-27 11:38:57.935
116.0, -727.3481163201471, -3467.716690029704, -1054.2200272345576, -8955.159360785408, 345.44621055677067, 721.6931249729545, -4582.3981860158665, -805.9815533139174, -1147.426801613188, -3950.581425497702, -3147.4161919851535, -2430.305174625537, -2689.384244607001, -1563.1245449929888, -8227.811244465262, -14239.58113665356, 0.016, -0.10400000000000001, 0.992, 192.0, 0.0, 64.0, 126.0, 96.0, 15.5, 0.0, 0.0, 0.0, 0.0, 1.645922337943689E9, 0.0, 2022-02-27 11:38:57.943
118.0, -1029.7672188004517, -3727.622774556014, -1346.0220510985914, -9272.6882425175, 24.72102936756961, 436.17194130086204, -4895.143794434523, -1203.909659851749, -3484.256980926631, -4735.418228556899, -3167.465706761564, -2571.2776269051587, -2560.191161655326, -1616.500510752262, -8576.0737748234, -15255.892605291916, 0.016, -0.10400000000000001, 0.992, 192.0, 0.0, 0.0, 0.0, 0.0, 0.0, 0.0, 0.0, 0.0, 0.0, 1.64592233795096E9, 0.0, 2022-02-27 11:38:57.950
120.0, -1066.8934663407167, -3735.3564781375503, -1321.4127804532982, -9244.972079392921, 18.3507821978071, 494.9793809627749, -4738.927452436382, -974.8936861626728, -1253.7316982426285, -4269.138487474738, -3361.52355212254, -2526.8647106724634, -2909.794796680784, -1771.3533963386294, -8362.905187953138, -14516.452195221449, 0.016, -0.10400000000000001, 0.992, 192.0, 0.0, 0.0, 0.0, 0.0, 0.0, 0.0, 0.0, 0.0, 0.0, 1.645922337958937E9, 0.0, 2022-02-27 11:38:57.958
122.0, -659.5105718982902, -3420.3980470178185, -1036.182169459125, -8929.544261639627, 400.6103158724685, 723.7271337183873, -4652.023869994148, -922.054162270327, -2343.468647416669, -4203.3796552872245, -3046.3863070471657, -2448.946529501263, -2504.535317961612, -1478.6796544408387, -8345.60493774473, -14647.299307262816, 0.016, -0.10400000000000001, 0.992, 192.0, 0.0, 0.0, 0.0, 0.0, 0.0, 0.0, 0.0, 0.0, 0.0, 1.645922337965391E9, 0.0, 2022-02-27 11:38:57.965
124.0, -1306.2582977126, -3944.7252684504115, -1522.220852639777, -9465.762611122444, -192.60498197138097, 310.30926827302795, -4896.909582246492, -1210.9951628440813, -2818.9796589588714, -4833.989421604803, -3416.1512155713103, -2663.7914972056747, -2853.0660692532147, -1835.815827347735, -8605.354560059854, -15203.254247099669, 0.016, -0.10400000000000001, 0.992, 192.0, 0.0, 0.0, 0.0, 0.0, 0.0, 0.0, 0.0, 0.0, 0.0, 1.645922337972496E9, 0.0, 2022-02-27 11:38:57.972
126.0, -749.1187154196163, -3489.889620529368, -1066.044100051415, -8965.15059055693, 345.5356175345919, 724.1518168630382, -4578.106651080448, -796.1691374980376, -1139.6930980316517, -3957.9798529124087, -3164.3141107933657, -2436.8765874953974, -2697.8332040111072, -1565.1585537384217, -8227.721837487441, -14238.977639553266, 0.018000000000000002, -0.108, 0.992, 192.0, 0.0, 72.0, 126.0, 80.0, 15.5, 0.0, 0.0, 0.0, 0.0, 1.645922337980579E9, 0.0, 2022-02-27 11:38:57.980
128.0, -1051.0684312663593, -3752.299100434673, -1348.2795772885772, -9279.594931554191, 38.780276629957754, 446.8784268949541, -4871.875628456549, -1191.1915172566794, -3482.2229721811977, -4749.499827563743, -3175.333520809832, -2586.230943945759, -2554.0891354190276, -1611.8289961611029, -8569.100030553345, -15247.465997632265, 0.018000000000000002, -0.108, 0.992, 192.0, 0.0, 0.0, 0.0, 0.0, 0.0, 0.0, 0.0, 0.0, 0.0, 1.64592233798847E9, 0.0, 2022-02-27 11:38:57.988
130.0, -1099.3258475453672, -3767.8559145755667, -1335.6284899268735, -9258.69605048848, 21.167101999175788, 502.3554566330262, -4711.233641056257, -951.2455405289579, -1289.4274341377538, -4297.256981999514, -3384.8811250783356, -2550.714022006276, -2919.629564241119, -1774.0356056732662, -8362.636967019675, -14524.409416247538, 0.018000000000000002, -0.108, 0.992, 192.0, 0.0, 0.0, 0.0, 0.0, 0.0, 0.0, 0.0, 0.0, 0.0, 1.64592233799507E9, 0.0, 2022-02-27 11:38:57.995
132.0, -674.7991651057202, -3435.284308825053, -1041.3901259172114, -8930.795959329123, 406.15354849738463, 730.4773605438901, -4650.1910269488135, -908.0843219857601, -2345.659118373289, -4214.264954836959, -3061.8313624657826, -2459.6083116064447, -2518.616916968455, -1483.7311486877381, -8347.03544938987, -14637.129263535651, 0.018000000000000002, -0.108, 0.992, 192.0, 0.0, 0.0, 0.0, 0.0, 0.0, 0.0, 0.0, 0.0, 0.0, 1.645922338003252E9, 0.0, 2022-02-27 11:38:58.003
134.0, -1316.741265862139, -3955.2752918333167, -1529.9545562213132, -9468.467172201536, -188.40285401378324, 313.9749543636983, -4895.277904901255, -1199.5734214274194, -2841.867845281106, -4841.074924597136, -3420.1074743398995, -2664.752622217253, -2857.4246594219994, -1834.8994058250673, -8607.545031016472, -15205.355311078467, 0.018000000000000002, -0.108, 0.992, 192.0, 0.0, 0.0, 0.0, 0.0, 0.0, 0.0, 0.0, 0.0, 0.0, 1.645922338011445E9, 0.0, 2022-02-27 11:38:58.011
136.0, -763.2450179153702, -3499.3667601784186, -1078.9410566021272, -8967.877503380478, 351.52588504861416, 723.19069185146, -4565.924950352305, -797.1526142540711, -1152.6571098157299, -3956.549341267269, -3169.9243986516476, -2435.848407250453, -2706.103349459571, -1569.5618473961172, -8223.117378129647, -14240.497558176228, 0.018000000000000002, -0.11, 0.986, 192.0, 0.0, 72.0, 126.0, 72.0, 15.0, 104.0, 0.0, 0.0, 0.0, 1.645922338017821E9, 0.0, 2022-02-27 11:38:58.017
138.0, -1060.3667569597671, -3755.9647865253437, -1363.8140396850158, -9279.416117598548, 39.2496632635192, 444.0174036046748, -4877.5306198037415, -1205.2954680079781, -3497.8244898110024, -4750.997394442248, -3180.4073668011865, -2583.9287142668622, -2558.9618157102846, -1604.7881966576813, -8565.814324118415, -15246.549576109599, 0.018000000000000002, -0.11, 0.986, 192.0, 0.0, 0.0, 0.0, 0.0, 0.0, 0.0, 0.0, 0.0, 0.0, 1.645922338025759E9, 0.0, 2022-02-27 11:38:58.025
140.0, -1109.495891272532, -3775.6119699015585, -1340.7470394071388, -9258.763105721844, 26.62092764627071, 499.6508955539341, -4714.273478302179, -964.4330697575891, -1295.395349907321, -4305.840051870353, -3389.7761571140477, -2558.425373843357, -2925.4857212884094, -1770.4593265604171, -8362.569911786308, -14523.515346469325, 0.018000000000000002, -0.11, 0.986, 192.0, 0.0, 0.0, 0.0, 0.0, 0.0, 0.0, 0.0, 0.0, 0.0, 1.645922338032737E9, 0.0, 2022-02-27 11:38:58.032
142.0, -683.6951593989324, -3445.4543525522176, -1043.1335619847252, -8930.639497117936, 404.85714731897684, 725.3811628080801, -4652.739125816718, -914.8345488112627, -2364.769859882577, -4231.855777723286, -3066.4581735680313, -2471.7676605901315, -2521.0309053696283, -1480.6019044639952, -8348.46596103501, -14642.493682204926, 0.018000000000000002, -0.11, 0.986, 192.0, 0.0, 0.0, 0.0, 0.0, 0.0, 0.0, 0.0, 0.0, 0.0, 1.645922338047401E9, 0.0, 2022-02-27 11:38:58.047
144.0, -1316.4283414397648, -3951.900178420565, -1531.318012633087, -9463.72860237701, -188.44755750269385, 310.4210269953045, -4915.483881888853, -1217.7230379251287, -2860.777421090296, -4847.512227000264, -3408.931602112246, -2662.9421309163727, -2849.981528518382, -1825.914004554034, -8611.344827573876, -15216.732349006219, 0.018000000000000002, -0.11, 0.986, 192.0, 0.0, 0.0, 0.0, 0.0, 0.0, 0.0, 0.0, 0.0, 0.0, 1.64592233805535E9, 0.0, 2022-02-27 11:38:58.055
146.0, -776.1419744660824, -3498.472690400206, -1085.5124694719875, -8970.179733059374, 339.41123955383773, 714.6076219806221, -4568.5401044535765, -807.3226579812358, -1145.0351649564702, -3956.6834517340008, -3166.9516166390918, -2438.9329479852854, -2707.8914890159954, -1558.6318443574721, -8227.095988642692, -14238.48590117525, 0.016, -0.10400000000000001, 0.988, 192.0, 0.0, 64.0, 126.0, 96.0, 15.0, 112.0, 0.0, 0.0, 0.0, 1.645922338063427E9, 0.0, 2022-02-27 11:38:58.063
148.0, -1065.1947337621134, -3753.528446379715, -1358.382565782376, -9269.78251573831, 39.33907024134043, 440.26231053618324, -4870.713337744873, -1196.0194940590256, -3500.730216590192, -4745.387106583966, -3177.8592679332814, -2578.8548682755077, -2567.4107751143906, -1606.241060047276, -8564.540274684463, -15241.095750462504, 0.016, -0.10400000000000001, 0.988, 192.0, 0.0, 0.0, 0.0, 0.0, 0.0, 0.0, 0.0, 0.0, 0.0, 1.645922338070582E9, 0.0, 2022-02-27 11:38:58.070
150.0, -1113.9438884191381, -3772.7062431223685, -1342.132847563368, -9264.462800557947, 13.500453651005467, 485.8598692250096, -4724.532929007164, -977.1512123526588, -1334.6673649152954, -4317.32884852038, -3390.357302469886, -2555.564350553078, -2932.43711381401, -1778.7965272422466, -8369.767173500917, -14544.168358346029, 0.016, -0.10400000000000001, 0.988, 192.0, 0.0, 0.0, 0.0, 0.0, 0.0, 0.0, 0.0, 0.0, 0.0, 1.645922338078039E9, 0.0, 2022-02-27 11:38:58.078
152.0, -677.7719471182761, -3437.3630210593965, -1032.6505938351863, -8924.358656925995, 410.2215659882505, 725.1799971079823, -4651.196855449302, -918.4778831574778, -2304.174280664239, -4202.396178531191, -3046.2521965804335, -2460.502381384657, -2512.201966309782, -1472.8234973935482, -8334.294955050344, -14625.08167327424, 0.016, -0.10400000000000001, 0.988, 192.0, 0.0, 0.0, 0.0, 0.0, 0.0, 0.0, 0.0, 0.0, 0.0, 1.645922338086122E9, 0.0, 2022-02-27 11:38:58.086
154.0, -1331.4040102248205, -3961.779649469811, -1529.9992597102237, -9466.611977411745, -194.52723199453737, 301.212108279718, -4913.583983610151, -1224.361506028355, -2900.1388430760912, -4866.578265020641, -3414.4301312482517, -2674.6320932664985, -2855.837685565673, -1825.2211004759195, -8611.188365362688, -15222.946133964793, 0.016, -0.10500000000000001, 0.986, 192.0, 0.0, 64.0, 126.0, 88.0, 15.0, 96.0, 0.0, 0.0, 0.0, 1.645922338093954E9, 0.0, 2022-02-27 11:38:58.093
156.0, -770.0175964853283, -3496.2598676991306, -1070.268579753468, -8962.982471344767, 348.1284198914075, 717.1780725929824, -4597.95500015676, -848.3157573122689, -1125.879719958272, -3966.652329761068, -3162.324805536843, -2438.977651474196, -2707.422102382434, -1554.2061989553213, -8225.464311297454, -14241.123407020976, 0.016, -0.10500000000000001, 0.986, 192.0, 0.0, 0.0, 0.0, 0.0, 0.0, 0.0, 0.0, 0.0, 0.0, 1.645922338100004E9, 0.0, 2022-02-27 11:38:58.100
158.0, -1065.0829750398368, -3750.8685887895335, -1350.6488622008399, -9264.26163485785, 41.283672008952145, 446.3419850280267, -4846.796971177694, -1179.4792031620984, -3486.939190261268, -4726.4998825192315, -3169.5444189959076, -2576.6643973188875, -2552.9938999407173, -1583.308170236131, -8558.482951937074, -15236.401884126888, 0.016, -0.10500000000000001, 0.986, 192.0, 0.0, 0.0, 0.0, 0.0, 0.0, 0.0, 0.0, 0.0, 0.0, 1.645922338107783E9, 0.0, 2022-02-27 11:38:58.107
160.0, -1118.2130716101017, -3770.5157721657483, -1342.9598621082143, -9264.082820902207, 8.82893905984629, 483.69175001284486, -4726.097551119036, -959.3368720217792, -1329.0570770570132, -4313.752569407531, -3392.190145515221, -2556.659586031388, -2932.347706836189, -1766.7712887252915, -8366.74968799945, -14538.982753632397, 0.016, -0.10500000000000001, 0.986, 192.0, 0.0, 0.0, 0.0, 0.0, 0.0, 0.0, 0.0, 0.0, 0.0, 1.645922338115635E9, 0.0, 2022-02-27 11:38:58.115
162.0, -667.9148278134857, -3417.5593754719944, -1030.3260124118344, -8925.76681682668, 402.10788275097406, 724.9564796634293, -4635.796503519596, -912.0629324988047, -2295.077120670929, -4195.6906551945995, -3053.8070862063273, -2457.015509249629, -2517.231108812226, -1472.0188345931572, -8335.948984140037, -14618.13028074864, 0.016, -0.10500000000000001, 0.986, 192.0, 0.0, 0.0, 0.0, 0.0, 0.0, 0.0, 0.0, 0.0, 0.0, 1.645922338122712E9, 0.0, 2022-02-27 11:38:58.122
164.0, -1306.5712221349743, -3930.420151999015, -1523.025515440168, -9464.332099477304, -207.312429822973, 294.8865645988661, -4935.9357280654585, -1251.8988551972932, -2924.256375343368, -4850.552064246186, -3399.5215176965617, -2658.6282442364986, -2836.995164989849, -1821.6448213630704, -8616.284563098498, -15237.899451005394, 0.015, -0.10550000000000001, 0.985, 192.0, 0.0, 56.0, 126.0, 88.0, 15.0, 96.0, 0.0, 0.0, 0.0, 1.645922338130317E9, 0.0, 2022-02-27 11:38:58.130
166.0, -768.1847534399931, -3487.8556117839353, -1081.0644723253813, -8975.812372662112, 310.66689618431286, 698.1343863170608, -4601.888907180894, -824.9581843564731, -1109.205318594613, -3960.0585651467522, -3169.097384106801, -2436.0942764394613, -2726.1752159804364, -1564.3091874491201, -8236.908404458572, -14246.979564068266, 0.015, -0.10550000000000001, 0.985, 192.0, 0.0, 0.0, 0.0, 0.0, 0.0, 0.0, 0.0, 0.0, 0.0, 1.645922338138447E9, 0.0, 2022-02-27 11:38:58.138
168.0, -1022.1229221967367, -3709.11553014702, -1334.6226614263846, -9250.247091084373, 32.54413992692708, 445.13499082744016, -4883.565590806674, -1210.0563895769585, -3455.646748023838, -4707.746768921229, -3154.5463984663966, -2569.4447838598235, -2555.676109275354, -1579.664835889916, -8566.037841562968, -15223.169651409347, 0.015, -0.10550000000000001, 0.985, 192.0, 0.0, 0.0, 0.0, 0.0, 0.0, 0.0, 0.0, 0.0, 0.0, 1.645922338146347E9, 0.0, 2022-02-27 11:38:58.146
170.0, -1093.492042242532, -3746.532350365204, -1334.488550959653, -9253.488094030392, 0.06705523336592119, 478.08146215456276, -4714.496995746732, -1000.53113705291, -1320.8986903308262, -4288.808022595408, -3373.3699766838527, -2542.1533038798934, -2925.86570094415, -1760.4904485333502, -8371.644720035163, -14549.488073526392, 0.015, -0.10550000000000001, 0.985, 192.0, 0.0, 0.0, 0.0, 0.0, 0.0, 0.0, 0.0, 0.0, 0.0, 1.645922338152952E9, 0.0, 2022-02-27 11:38:58.152
172.0, -640.3327751556367, -3392.7042356376933, -1018.6584018061641, -8907.706607306793, 399.045693760597, 724.8000174522422, -4633.606032562975, -921.3612581922124, -2264.634044722801, -4170.813163615842, -3032.2600045514114, -2436.138979928372, -2517.3652192789577, -1456.1937995187998, -8333.959678883515, -14616.520955147858, 0.015, -0.10550000000000001, 0.985, 192.0, 0.0, 0.0, 0.0, 0.0, 0.0, 0.0, 0.0, 0.0, 0.0, 1.645922338168018E9, 0.0, 2022-02-27 11:38:58.168
174.0, -1286.8569835253936, -3913.2763640017947, -1513.9954106802238, -9453.357392949747, -207.51359552307076, 294.77480587658954, -4925.788036082749, -1253.552884286986, -2916.187395595002, -4826.5239389567305, -3379.449651175696, -2642.289119039669, -2836.637537078564, -1809.6642863350257, -8615.2340311091, -15237.117139949458, 0.0135, -0.10575000000000001, 0.9875, 192.0, 0.0, 48.0, 126.0, 88.0, 15.0, 120.0, 0.0, 0.0, 0.0, 1.64592233817591E9, 0.0, 2022-02-27 11:38:58.175
176.0, -757.9029509905519, -3475.6962628002484, -1075.7447571450184, -8968.212779547308, 303.78255889207827, 699.0284560952731, -4601.821851947529, -832.088390837716, -1095.660161454697, -3938.265614302828, -3152.847665887793, -2419.9563169427297, -2722.8448060565956, -1562.7892688261593, -8231.991020678404, -14242.375104710472, 0.0135, -0.10575000000000001, 0.9875, 192.0, 0.0, 0.0, 0.0, 0.0, 0.0, 0.0, 0.0, 0.0, 0.0, 1.645922338182449E9, 0.0, 2022-02-27 11:38:58.182
178.0, -1018.3007738948792, -3706.343913834562, -1328.2077107677117, -9247.453123027459, 33.41585796068406, 441.8939878814206, -4872.814401723672, -1208.2235465316232, -3458.2395503806533, -4700.191879295335, -3147.2150262850555, -2564.9967867132173, -2560.0346994441393, -1584.5822196700835, -8561.478085694085, -15219.123985662936, 0.0135, -0.10575000000000001, 0.9875, 192.0, 0.0, 0.0, 0.0, 0.0, 0.0, 0.0, 0.0, 0.0, 0.0, 1.645922338190684E9, 0.0, 2022-02-27 11:38:58.190
180.0, -1097.0683213553812, -3749.393373655483, -1334.801475382027, -9259.456009799958, -16.83086357484622, 470.86184869549857, -4764.94488298236, -1017.0714279498372, -1349.352461022432, -4310.4445112281455, -3376.9909592856125, -2546.9589289377845, -2933.308831847767, -1772.9627219394115, -8381.23361840649, -14570.454009825471, 0.0135, -0.10575000000000001, 0.9875, 192.0, 0.0, 0.0, 0.0, 0.0, 0.0, 0.0, 0.0, 0.0, 0.0, 1.645922338199405E9, 0.0, 2022-02-27 11:38:58.199
182.0, -642.5008943678015, -3394.0453403050115, -1017.0043727164714, -8902.297485148607, 395.3576559254713, 731.0808576441834, -4657.25417819669, -915.7062668450197, -2243.5563497014464, -4152.820009329321, -3033.914033641104, -2430.2828228810818, -2523.2437280707036, -1458.4736774532412, -8339.659373719618, -14607.110870732175, 0.0135, -0.10575000000000001, 0.9875, 192.0, 0.0, 0.0, 0.0, 0.0, 0.0, 0.0, 0.0, 0.0, 0.0, 1.645922338205964E9, 0.0, 2022-02-27 11:38:58.205
184.0, -1291.841422538927, -3920.4959774608587, -1517.4599310707965, -9458.453590685558, -201.38921754231663, 298.0381605670644, -4910.16416670849, -1248.5684452734524, -2956.2640734033675, -4831.351915759077, -3380.7013488651933, -2649.9334156433843, -2826.311031140212, -1805.5739170997044, -8617.715074743637, -15253.120988979459, 0.012750000000000001, -0.10387500000000001, 0.98975, 192.0, 0.0, 48.0, 126.0, 104.0, 15.5, 0.0, 0.0, 0.0, 0.0, 1.645922338214036E9, 0.0, 2022-02-27 11:38:58.214
186.0, -766.061337716739, -3484.9051815158346, -1083.0090740929932, -8974.404212761428, 311.1809863067849, 696.3685985050915, -4583.515773238632, -822.4547889774786, -1086.5630014613869, -3948.1450853520737, -3167.845686417304, -2431.467465337213, -2729.282108459724, -1574.5909898985612, -8229.800549721784, -14239.827005842568, 0.012750000000000001, -0.10387500000000001, 0.98975, 192.0, 0.0, 0.0, 0.0, 0.0, 0.0, 0.0, 0.0, 0.0, 0.0, 1.645922338220183E9, 0.0, 2022-02-27 11:38:58.220
188.0, -1005.2920586218904, -3695.279800329185, -1320.2504897416222, -9238.378314778605, 52.8618756368012, 449.3818222739485, -4859.760982961772, -1208.2235465316232, -3440.6934309832372, -4686.333797733045, -3140.4424477150974, -2560.4146790998793, -2540.611033512477, -1584.828088859092, -8554.951376313136, -15212.53022104862, 0.012750000000000001, -0.10387500000000001, 0.98975, 192.0, 0.0, 0.0, 0.0, 0.0, 0.0, 0.0, 0.0, 0.0, 0.0, 1.645922338227479E9, 0.0, 2022-02-27 11:38:58.227
190.0, -1108.1547866052135, -3764.3243389516283, -1341.2387777851557, -9264.865131958144, -16.294421707918847, 469.16311611689525, -4741.564958282109, -990.3610933257453, -1357.0191093706023, -4324.034371856973, -3378.421470930752, -2548.7023650052984, -2931.5653957802533, -1785.0997191786432, -8384.452269608053, -14570.386954592104, 0.012750000000000001, -0.10387500000000001, 0.98975, 192.0, 0.0, 0.0, 0.0, 0.0, 0.0, 0.0, 0.0, 0.0, 0.0, 1.645922338235732E9, 0.0, 2022-02-27 11:38:58.235
192.0, -646.904188025497, -3399.990904330123, -1013.338686625801, -8902.230429915242, 405.84062407501034, 726.7893227087644, -4627.995744704694, -909.3807231641679, -2232.246367007061, -4158.027965787407, -3037.1326848426684, -2436.787180517576, -2524.4060187823798, -1476.7574044176822, -8337.044219618347, -14595.532667104324, 0.012750000000000001, -0.10387500000000001, 0.98975, 192.0, 0.0, 0.0, 0.0, 0.0, 0.0, 0.0, 0.0, 0.0, 0.0, 1.645922338243586E9, 0.0, 2022-02-27 11:38:58.243
194.0, -1294.9259632737594, -3918.2384512708727, -1513.0342856686457, -9456.978375551507, -203.98201989913224, 294.0371983095644, -4910.298277175221, -1240.7006312251845, -2962.9025415065935, -4836.157540816968, -3383.2717994775535, -2648.2123313203256, -2829.3955718750444, -1811.6088881026374, -8620.531394545007, -15247.68951507682, 0.012375, -0.10193750000000001, 0.9898750000000001, 192.0, 0.0, 48.0, 126.0, 112.0, 15.0, 120.0, 0.0, 0.0, 0.0, 1.645922338250031E9, 0.0, 2022-02-27 11:38:58.250
196.0, -760.3616428806357, -3478.0208442236003, -1073.9566175885936, -8972.77253541619, 311.56096596252513, 694.5357554597564, -4585.415671517333, -831.797818159797, -1081.2879897699345, -3937.1480270800625, -3158.05562234588, -2421.0292006765844, -2721.324887433635, -1569.1595159959218, -8226.514843286854, -14233.032075528155, 0.012375, -0.10193750000000001, 0.9898750000000001, 192.0, 0.0, 0.0, 0.0, 0.0, 0.0, 0.0, 0.0, 0.0, 0.0, 1.64592233825815E9, 0.0, 2022-02-27 11:38:58.258
198.0, -998.6759422631195, -3692.77640495019, -1308.001733780114, -9233.349172276161, 61.668462952192186, 454.8132961765881, -4862.756116718783, -1202.9261830957155, -3436.2677855810866, -4680.20941975229, -3130.5629766658517, -2556.45842033129, -2540.8345509570304, -1583.2634667472205, -8554.750210613038, -15210.607971025465, 0.012375, -0.10193750000000001, 0.9898750000000001, 192.0, 0.0, 0.0, 0.0, 0.0, 0.0, 0.0, 0.0, 0.0, 0.0, 1.645922338266195E9, 0.0, 2022-02-27 11:38:58.266
200.0, -1126.9302519476714, -3776.4166327019493, -1348.1231150773901, -9274.364623351648, -21.435322932639473, 459.46245902329196, -4735.708801234818, -1003.6603812766531, -1382.6565602608396, -4333.802084183942, -3378.577933141939, -2557.4195453428683, -2931.699506246985, -1792.006408215333, -8387.827383020805, -14585.183809421518, 0.012375, -0.10193750000000001, 0.9898750000000001, 192.0, 0.0, 0.0, 0.0, 0.0, 0.0, 0.0, 0.0, 0.0, 0.0, 1.645922338273431E9, 0.0, 2022-02-27 11:38:58.273
202.0, -662.9303887999522, -3415.39125625983, -1020.2006721735803, -8910.947610252812, 405.6618101193679, 724.2635755853147, -4630.007401705671, -906.7655690628969, -2215.370799943304, -4162.386555956192, -3045.782809946872, -2454.020375492618, -2531.1115421189716, -1480.9371806308247, -8330.338696281755, -14583.686242543012, 0.012375, -0.10193750000000001, 0.9898750000000001, 192.0, 0.0, 0.0, 0.0, 0.0, 0.0, 0.0, 0.0, 0.0, 0.0, 1.645922338279782E9, 0.0, 2022-02-27 11:38:58.279
204.0, -1309.3204867029772, -3935.8963293905654, -1523.7184195182824, -9459.861750586242, -200.13751985281945, 287.0411022950533, -4919.149567979523, -1245.774477216539, -3009.796501373828, -4853.256625325278, -3385.641084389816, -2667.635997251987, -2825.0369817062597, -1815.7663125713245, -8622.587755034894, -15255.78084656964, 0.013187500000000001, -0.10096875000000001, 0.9899375, 192.0, 0.0, 56.0, 126.0, 112.0, 15.0, 120.0, 0.0, 0.0, 0.0, 1.645922338296297E9, 0.0, 2022-02-27 11:38:58.296
206.0, -785.3955966705796, -3504.150033491854, -1092.1062340863032, -8978.494581996749, 313.8408438969665, 692.5017467143234, -4582.264075549135, -824.1535215560821, -1084.1043095713032, -3953.285986576794, -3173.2101050865776, -2438.8435410074644, -2733.707753861875, -1573.6522166314385, -8229.889956699606, -14231.690970860836, 0.013187500000000001, -0.10096875000000001, 0.9899375, 192.0, 0.0, 0.0, 0.0, 0.0, 0.0, 0.0, 0.0, 0.0, 0.0, 1.645922338302479E9, 0.0, 2022-02-27 11:38:58.302
208.0, -1009.7624075129519, -3703.0582073996316, -1319.0881990299463, -9230.622259452613, 72.1514311017312, 452.1757903308619, -4860.2750730842445, -1195.259534747545, -3434.5914047469387, -4685.640893654931, -3133.2004825115782, -2574.6080368289995, -2540.9910131682177, -1570.7241381077931, -8549.743419855049, -15192.570113250033, 0.013187500000000001, -0.10096875000000001, 0.9899375, 192.0, 0.0, 0.0, 0.0, 0.0, 0.0, 0.0, 0.0, 0.0, 0.0, 1.645922338310319E9, 0.0, 2022-02-27 11:38:58.310
210.0, -1135.4239148406882, -3786.430214217927, -1359.4778012606862, -9273.716422762445, -14.372171684762442, 457.0037671332082, -4732.7807227111725, -1000.4864335639994, -1400.0462174470686, -4329.532900992978, -3381.6848256212265, -2559.587664555033, -2933.353535336678, -1784.0715389336992, -8384.89930449716, -14581.026384952831, 0.013187500000000001, -0.10096875000000001, 0.9899375, 192.0, 0.0, 0.0, 0.0, 0.0, 0.0, 0.0, 0.0, 0.0, 0.0, 1.645922338318442E9, 0.0, 2022-02-27 11:38:58.318
212.0, -660.6505108655108, -3414.8548143929024, -1020.9382797406054, -8899.235296158231, 415.0271910461415, 726.1858256084712, -4623.413637091356, -902.921069016584, -2209.8499190628436, -4150.808352328343, -3043.145304101146, -2454.2438929371706, -2533.2126060977707, -1467.9061136133807, -8322.113254322203, -14575.058469183263, 0.013187500000000001, -0.10096875000000001, 0.9899375, 192.0, 0.0, 0.0, 0.0, 0.0, 0.0, 0.0, 0.0, 0.0, 0.0, 1.645922338325647E9, 0.0, 2022-02-27 11:38:58.325
214.0, -1307.286477957544, -3930.464855487926, -1522.6455357844277, -9453.089172016284, -197.74588319610157, 292.1373000308633, -4915.953268522414, -1241.0806108809247, -3003.1580332706017, -4845.031183365725, -3378.510877908573, -2663.120944872015, -2825.4169613619997, -1797.370826884607, -8618.1844613772, -15249.388247655423, 0.01459375, -0.10148437500000002, 0.9879687500000001, 192.0, 0.0, 64.0, 126.0, 104.0, 15.0, 104.0, 0.0, 0.0, 0.0, 1.645922338333019E9, 0.0, 2022-02-27 11:38:58.333
216.0, -780.4335094015014, -3498.092710744466, -1082.6514461817083, -8971.207913304319, 312.34327701846087, 684.0527873102174, -4585.57213372852, -827.215710546459, -1066.3570244737894, -3930.9342421214874, -3158.5697124683516, -2431.24394789266, -2726.7787130807296, -1563.0351380151676, -8224.503186285876, -14225.253668457708, 0.01459375, -0.10148437500000002, 0.9879687500000001, 192.0, 0.0, 0.0, 0.0, 0.0, 0.0, 0.0, 0.0, 0.0, 0.0, 1.645922338341144E9, 0.0, 2022-02-27 11:38:58.341
218.0, -995.7031602505638, -3689.8706781710007, -1302.9278877887593, -9216.473605212404, 77.94053291565572, 454.880351409954, -4867.405279565487, -1199.8863458497938, -3422.4320557632514, -4667.893608557416, -3117.688371859595, -2558.6712430323655, -2538.3758590669468, -1561.895199047947, -8549.005812288024, -15191.452526027266, 0.01459375, -0.10148437500000002, 0.9879687500000001, 192.0, 0.0, 0.0, 0.0, 0.0, 0.0, 0.0, 0.0, 0.0, 0.0, 1.64592233834822E9, 0.0, 2022-02-27 11:38:58.348
220.0, -1134.8651212293055, -3786.229048517829, -1355.901522147837, -9274.521085562836, -17.702581608603193, 449.9629676297865, -4746.5717490400975, -1014.3445151262898, -1413.6584298203504, -4337.780694696987, -3374.420508673252, -2563.1862954123376, -2934.471122559443, -1780.942294709956, -8392.834173778794, -14597.946655505499, 0.01459375, -0.10148437500000002, 0.9879687500000001, 192.0, 0.0, 0.0, 0.0, 0.0, 0.0, 0.0, 0.0, 0.0, 0.0, 1.645922338355266E9, 0.0, 2022-02-27 11:38:58.355
222.0, -647.5523886147009, -3402.159023542288, -1009.4494830905776, -8893.826174000045, 421.7997696160996, 724.7776657077868, -4633.293108140601, -903.278696927869, -2173.7518517675226, -4136.1679597101165, -3032.1705975735904, -2446.0855062109836, -2529.88219617393, -1468.6213694359506, -8319.431044987565, -14566.944785945987, 0.01459375, -0.10148437500000002, 0.9879687500000001, 192.0, 0.0, 0.0, 0.0, 0.0, 0.0, 0.0, 0.0, 0.0, 0.0, 1.6459223383627E9, 0.0, 2022-02-27 11:38:58.362
224.0, -1290.96970450517, -3917.1208640481073, -1509.9050414449027, -9450.16109349264, -186.86058364636705, 290.08093954097507, -4921.764722080794, -1247.7190789841509, -3018.3572195002102, -4840.180854818923, -3360.6965375776936, -2650.358098788035, -2815.470435079388, -1795.8062047727353, -8617.335095087898, -15258.105427992992, 0.012, -0.10400000000000001, 0.988, 192.0, 0.0, 48.0, 126.0, 96.0, 15.0, 112.0, 0.0, 0.0, 0.0, 1.645922338371188E9, 0.0, 2022-02-27 11:38:58.371
226.0, -771.0904802191831, -3487.676797828293, -1078.1587455461915, -8975.812372662112, 316.41129450932675, 686.5561826892117, -4599.139642612892, -817.7832743863195, -1042.7088788400745, -3922.5970414396575, -3150.165456553156, -2423.443189077758, -2726.219919469347, -1566.4549549168296, -8223.810282207762, -14224.873688801968, 0.012, -0.10400000000000001, 0.988, 192.0, 0.0, 0.0, 0.0, 0.0, 0.0, 0.0, 0.0, 0.0, 0.0, 1.645922338378795E9, 0.0, 2022-02-27 11:38:58.378
228.0, -977.1959158415694, -3671.0728610840874, -1296.4458818967203, -9204.8730498401, 91.03865516646566, 469.9230754283757, -4853.547198003197, -1175.9699792826152, -3401.287305508531, -4641.496198355699, -3102.8244617968157, -2543.5391120361223, -2527.5129112616673, -1556.3519664230307, -8545.720105853094, -15175.068697341527, 0.012, -0.10400000000000001, 0.988, 192.0, 0.0, 0.0, 0.0, 0.0, 0.0, 0.0, 0.0, 0.0, 0.0, 1.645922338385284E9, 0.0, 2022-02-27 11:38:58.385
230.0, -1119.9341559331604, -3767.051251775176, -1353.0181471131025, -9265.26746335834, -8.627773359748526, 461.4741160242696, -4741.36379258201, -993.4456340605777, -1404.2706971491216, -4318.938174121163, -3369.5031248930845, -2544.611995769977, -2929.3525730791775, -1768.0229864147886, -8391.358958644743, -14584.222684409939, 0.012, -0.10400000000000001, 0.988, 192.0, 0.0, 0.0, 0.0, 0.0, 0.0, 0.0, 0.0, 0.0, 0.0, 1.645922338393404E9, 0.0, 2022-02-27 11:38:58.393
232.0, -631.83911226262, -3385.5069739230844, -1002.8780702207173, -8885.623083784949, 434.2273395332503, 733.4501425564459, -4622.452512079777, -907.3243626742795, -2155.669290503179, -4114.7996920108435, -3023.9675073584926, -2426.2148053902156, -2524.696591460299, -1454.8079913625709, -8319.542803709843, -14554.628974751113, 0.012, -0.10400000000000001, 0.988, 192.0, 0.0, 0.0, 0.0, 0.0, 0.0, 0.0, 0.0, 0.0, 0.0, 1.645922338401413E9, 0.0, 2022-02-27 11:38:58.401
234.0, -1289.1368614598348, -3916.718532647912, -1511.7155327457826, -9450.183445237095, -182.79256615550116, 297.54642218904763, -4926.995030283336, -1219.9135088817488, -3019.005420089414, -4834.101180327079, -3353.5886828409057, -2642.959671373328, -2806.641496019542, -1797.5496408402494, -8617.983295677102, -15254.01505875767, 0.014, -0.108, 0.992, 192.0, 0.0, 56.0, 126.0, 80.0, 15.5, 0.0, 0.0, 0.0, 0.0, 1.645922338415079E9, 0.0, 2022-02-27 11:38:58.415
236.0, -777.7960035557752, -3497.9362485332786, -1085.2218967940685, -8985.468326266806, 313.03618109657543, 687.5620111897006, -4597.4185582898335, -808.8872800931073, -1036.0927624813037, -3921.7700268948115, -3152.557093209874, -2424.069037922506, -2723.716524090353, -1563.1916002263547, -8226.559546775765, -14214.837755541535, 0.014, -0.108, 0.992, 192.0, 0.0, 0.0, 0.0, 0.0, 0.0, 0.0, 0.0, 0.0, 0.0, 1.645922338423014E9, 0.0, 2022-02-27 11:38:58.423
238.0, -959.9403691220724, -3663.2944540136405, -1277.49160259862, -9201.274418982795, 112.40692286573922, 479.6013807775236, -4830.882529125515, -1185.2459532315677, -3400.974381086157, -4644.468980368255, -3108.9935432664806, -2552.9044929628963, -2531.536225263623, -1560.8223153140923, -8540.579204628373, -15171.581825206498, 0.014, -0.108, 0.992, 192.0, 0.0, 0.0, 0.0, 0.0, 0.0, 0.0, 0.0, 0.0, 0.0, 1.645922338431083E9, 0.0, 2022-02-27 11:38:58.431
240.0, -1134.3063276179228, -3786.430214217927, -1353.643995957851, -9291.709577048967, -14.662744362681433, 444.46443849378096, -4750.662118275419, -1023.9557652420718, -1465.4027182343864, -4366.5026863220555, -3370.5760086269393, -2559.453554088301, -2919.6519159855743, -1779.0200446867998, -8396.589266847286, -14632.323638477761, 0.014, -0.108, 0.992, 192.0, 0.0, 0.0, 0.0, 0.0, 0.0, 0.0, 0.0, 0.0, 0.0, 1.645922338437651E9, 0.0, 2022-02-27 11:38:58.437
242.0, -622.5854900581229, -3380.6566453762825, -987.3883113131895, -8882.829115728035, 443.0339268486413, 745.2295118843928, -4678.220114495768, -882.826850751263, -2077.214667465051, -4095.4207295680917, -3014.535071198353, -2419.3304680979813, -2514.0571610995726, -1445.4873139247077, -8304.030693057859, -14526.73399767089, 0.014, -0.108, 0.992, 192.0, 0.0, 0.0, 0.0, 0.0, 0.0, 0.0, 0.0, 0.0, 0.0, 1.645922338445675E9, 0.0, 2022-02-27 11:38:58.445
244.0, -1287.1475562033124, -3923.4017042400487, -1504.2276983532547, -9450.205796981549, -186.10062433488662, 298.26167801161745, -4908.510137618797, -1215.5996222018746, -3018.8489578782273, -4828.356782002065, -3339.484732089607, -2636.5894242035656, -2794.3927400580337, -1774.0132539288109, -8621.984257934602, -15254.171520968857, 0.016, -0.10200000000000001, 0.992, 192.0, 0.0, 64.0, 126.0, 104.0, 15.5, 0.0, 0.0, 0.0, 0.0, 1.645922338453734E9, 0.0, 2022-02-27 11:38:58.453
246.0, -789.3742071836242, -3508.0392370270774, -1079.5669054468758, -8984.216628577307, 309.30343977253915, 681.8176128646867, -4556.179589769792, -808.4849486929118, -1033.6117188467645, -3929.816654898722, -3155.90985487817, -2426.2148053902156, -2737.5075504192773, -1561.2022949698323, -8216.009523392859, -14214.055444485599, 0.016, -0.10200000000000001, 0.992, 192.0, 0.0, 0.0, 0.0, 0.0, 0.0, 0.0, 0.0, 0.0, 0.0, 1.645922338460792E9, 0.0, 2022-02-27 11:38:58.460
248.0, -984.437881045089, -3684.8638874130115, -1278.0950996989131, -9199.687445126468, 104.31559137291806, 487.6927122703448, -4867.62879701004, -1168.459793145632, -3388.8150321024696, -4640.378611132934, -3107.361865921243, -2545.2825481036366, -2530.2174723407593, -1552.216893698799, -8532.778445813472, -15161.05415356805, 0.016, -0.10200000000000001, 0.992, 192.0, 0.0, 0.0, 0.0, 0.0, 0.0, 0.0, 0.0, 0.0, 0.0, 1.645922338467329E9, 0.0, 2022-02-27 11:38:58.467
250.0, -1169.555028623942, -3815.263964565273, -1341.9316818632701, -9276.242169885894, -14.260412962485907, 465.09509862602937, -4742.436676315865, -1002.7886632428961, -1433.5961858744845, -4341.736953465575, -3373.2135144726653, -2548.098867905005, -2928.81613121225, -1758.5458467657384, -8398.444461637077, -14601.813507296267, 0.016, -0.10200000000000001, 0.992, 192.0, 0.0, 0.0, 0.0, 0.0, 0.0, 0.0, 0.0, 0.0, 0.0, 1.64592233847521E9, 0.0, 2022-02-27 11:38:58.475
252.0, -728.3092413317253, -3476.6573878118265, -999.6817707636084, -8892.418014099361, 426.6724499073565, 749.6998607754542, -4596.345674555979, -838.637451963121, -2134.1669123371735, -4133.239881186471, -3041.178350589079, -2442.330413142492, -2540.946309679307, -1459.032471064624, -8311.3620652392, -14529.796186661266, 0.016, -0.10200000000000001, 0.992, 192.0, 0.0, 0.0, 0.0, 0.0, 0.0, 0.0, 0.0, 0.0, 0.0, 1.64592233848339E9, 0.0, 2022-02-27 11:38:58.483
254.0, -1427.8741392939257, -4049.4878947124357, -1503.668904741872, -9457.201892996061, -173.27072301754035, 314.5113962306257, -4915.461530144397, -1241.7735149590392, -3093.2802669144, -4876.390680836521, -3384.47879367814, -2671.234628109292, -2816.6550775355195, -1781.6128470436154, -8619.302048599964, -15254.97618376925, 0.014, -0.098, 0.992, 192.0, 0.0, 56.0, 126.0, 120.0, 15.5, 0.0, 0.0, 0.0, 0.0, 1.645922338490478E9, 0.0, 2022-02-27 11:38:58.490
0.0, -993.2221166160247, -3694.2963235731513, -1092.754434675507, -8998.20882060633, 324.34616379096076, 698.4696624838904, -4551.686889134275, -780.5005646348674, -1079.2316292800463, -3976.777669999322, -3205.7765967579603, -2466.403241920858, -2738.3345649641237, -1562.051661259134, -8214.24373558089, -14214.390720652429, 0.014, -0.098, 0.992, 192.0, 0.0, 0.0, 0.0, 0.0, 0.0, 0.0, 0.0, 0.0, 0.0, 1.645922338497999E9, 0.0, 2022-02-27 11:38:58.497
2.0, -1207.0836075644027, -3891.9080963025212, -1289.3380271599326, -9209.25399175334, 124.81214103843463, 499.76265427621064, -4820.2430987647895, -1135.4239148406882, -3463.9839487056674, -4691.184126279846, -3179.490945278519, -2599.3961214299347, -2536.163036365871, -1547.4336203853632, -8522.228422430566, -15146.57022316101, 0.014, -0.098, 0.992, 192.0, 0.0, 0.0, 0.0, 0.0, 0.0, 0.0, 0.0, 0.0, 0.0, 1.645922338507293E9, 0.0, 2022-02-27 11:38:58.507
4.0, -1378.0073974141358, -4006.8854697806205, -1366.9879873976693, -9292.290722404805, -12.114645494776427, 466.9055899269092, -4750.975042697793, -987.0083316574493, -1541.1080767045114, -4414.804806089975, -3455.803210235025, -2614.260031492714, -2943.4565238304763, -1770.884009705068, -8395.538734857886, -14608.31786493276, 0.014, -0.098, 0.992, 192.0, 0.0, 0.0, 0.0, 0.0, 0.0, 0.0, 0.0, 0.0, 0.0, 1.645922338513902E9, 0.0, 2022-02-27 11:38:58.513
6.0, -873.9979116914168, -3613.651229578403, -1008.8459859902842, -8893.625008299949, 443.9503483713089, 760.4510498584569, -4596.524488511621, -842.6607659650763, -2180.770299526489, -4162.677128634111, -3101.5504123628634, -2477.556762404056, -2540.0969433900054, -1450.5164564271518, -8307.02582681487, -14521.458985979438, 0.014, -0.098, 0.992, 192.0, 0.0, 0.0, 0.0, 0.0, 0.0, 0.0, 0.0, 0.0, 0.0, 1.645922338520513E9, 0.0, 2022-02-27 11:38:58.520
8.0, -1530.3568876215086, -4139.610128356234, -1522.1314456619557, -9461.359317464749, -174.3883102403057, 315.67368694230163, -4876.748308747806, -1212.6715436782295, -3163.0177096149578, -4908.599544596618, -3427.9529366437123, -2699.5989918230766, -2815.381028101567, -1782.5739720551935, -8614.071740397423, -15253.478616890743, 0.014, -0.10400000000000001, 0.994, 192.0, 0.0, 56.0, 126.0, 96.0, 15.5, 8.0, 0.0, 0.0, 0.0, 1.645922338527589E9, 0.0, 2022-02-27 11:38:58.527
10.0, -1011.3046778803681, -3706.6791900013914, -1102.2092225801018, -8996.219515349809, 311.8738903848994, 704.7952061647424, -4561.700470650252, -796.4820619204119, -1109.5629465058978, -3988.6017428161795, -3241.8523123088257, -2477.690872870788, -2753.064364560171, -1561.6716816033938, -8214.266087325346, -14203.505421102695, 0.014, -0.10400000000000001, 0.994, 192.0, 0.0, 0.0, 0.0, 0.0, 0.0, 0.0, 0.0, 0.0, 0.0, 1.645922338542653E9, 0.0, 2022-02-27 11:38:58.542
12.0, -1159.1167639633136, -3844.3882875905383, -1283.7947945350165, -9195.798241591245, 129.1036759738536, 506.91521250190885, -4819.013752819747, -1143.4034876112328, -3443.867378695891, -4667.73714634623, -3172.1595730971785, -2587.75086256872, -2529.591623496011, -1534.0449254566342, -8521.06613171889, -15138.23302247918, 0.014, -0.10400000000000001, 0.994, 192.0, 0.0, 0.0, 0.0, 0.0, 0.0, 0.0, 0.0, 0.0, 0.0, 1.645922338550283E9, 0.0, 2022-02-27 11:38:58.550
14.0, -1317.8812048293598, -3953.3977452990707, -1366.675062975295, -9290.7931555263, -5.252659946997159, 479.2437528662387, -4721.493091761243, -976.9276949081058, -1531.6532887999165, -4403.941858284696, -3438.502960026617, -2601.251316219725, -2933.2417766144013, -1769.140573637554, -8389.928446999604, -14609.569562622257, 0.014, -0.10400000000000001, 0.994, 192.0, 0.0, 0.0, 0.0, 0.0, 0.0, 0.0, 0.0, 0.0, 0.0, 1.64592233855822E9, 0.0, 2022-02-27 11:38:58.558
16.0, -807.9038033370738, -3552.116877092943, -1009.0247999459267, -8893.893229233412, 450.58881647453507, 768.8776575181076, -4585.683892450797, -849.0757166237494, -2140.47010427357, -4140.705363834544, -3085.5689150773187, -2473.9581315467517, -2539.5157980341673, -1435.5407876420961, -8295.335864464745, -14506.639779405568, 0.014, -0.10400000000000001, 0.994, 192.0, 0.0, 0.0, 0.0, 0.0, 0.0, 0.0, 0.0, 0.0, 0.0, 1.645922338566195E9, 0.0, 2022-02-27 11:38:58.566
18.0, -1442.603938889973, -4064.7541361754106, -1522.153797406411, -9452.910358060642, -173.71775790664648, 321.8651201564217, -4901.849317771115, -1218.9523838701707, -3155.172247311145, -4892.34982637761, -3406.5623171999837, -2680.9576369473502, -2808.764911742796, -1780.7634807543136, -8618.720903244126, -15262.173445483859, 0.018000000000000002, -0.108, 0.992, 192.0, 0.0, 72.0, 126.0, 80.0, 15.5, 0.0, 0.0, 0.0, 0.0, 1.645922338572798E9, 0.0, 2022-02-27 11:38:58.572
20.0, -942.7965811248519, -3649.43637245135, -1107.3724755492779, -8997.761785717224, 311.1362828178743, 700.190746806949, -4570.23883703218, -796.057378775761, -1077.398786234711, -3973.6260740311236, -3220.7075620541054, -2458.982462761696, -2756.9535680953945, -1565.6055886275278, -8225.084331641714, -14207.864011271478, 0.018000000000000002, -0.108, 0.992, 192.0, 0.0, 0.0, 0.0, 0.0, 0.0, 0.0, 0.0, 0.0, 0.0, 1.645922338581003E9, 0.0, 2022-02-27 11:38:58.581
22.0, -1080.5056787139988, -3779.076490292131, -1276.4187188647652, -9189.048014765742, 139.49723714557138, 511.2738026706937, -4817.560889430152, -1135.17804565168, -3408.1045875674, -4655.823666551551, -3148.891407119204, -2570.4506123603123, -2527.647021728399, -1537.0847627025562, -8522.407236386209, -15130.812243320019, 0.018000000000000002, -0.108, 0.992, 192.0, 0.0, 0.0, 0.0, 0.0, 0.0, 0.0, 0.0, 0.0, 0.0, 1.645922338588868E9, 0.0, 2022-02-27 11:38:58.588
24.0, -1266.1816199042346, -3905.095625531152, -1372.7547374671385, -9296.001111984386, -8.694828593114448, 468.8948951834316, -4725.0917226185475, -981.822726943818, -1541.9127395049024, -4409.39568393179, -3426.5224249985727, -2593.6964265938313, -2938.0026981833817, -1780.3164458652075, -8395.42697613561, -14621.41598718357, 0.018000000000000002, -0.108, 0.992, 192.0, 0.0, 0.0, 0.0, 0.0, 0.0, 0.0, 0.0, 0.0, 0.0, 1.64592233859589E9, 0.0, 2022-02-27 11:38:58.595
26.0, -740.2897763597699, -3490.1354897183764, -1003.213346387547, -8890.339301865019, 458.8589619229987, 775.8290500437081, -4581.14648832637, -839.9115013970735, -2107.166005035163, -4127.741352050466, -3071.2190951370117, -2456.322605171514, -2539.5605015230776, -1446.5825494030178, -8290.731405106952, -14500.895381080554, 0.018000000000000002, -0.108, 0.992, 192.0, 0.0, 0.0, 0.0, 0.0, 0.0, 0.0, 0.0, 0.0, 0.0, 1.645922338602827E9, 0.0, 2022-02-27 11:38:58.602
28.0, -1382.5671532830183, -4014.4403594065143, -1516.2976403591206, -9455.793733095376, -166.7216618921354, 324.5473294910586, -4904.576230594663, -1219.8911571372935, -3143.437581472109, -4880.369291349565, -3379.516706409062, -2674.095651399571, -2791.375254556567, -1765.9889776693558, -8609.377874061809, -15260.139436738426, 0.014, -0.112, 0.992, 192.0, 0.0, 56.0, 126.0, 64.0, 15.5, 0.0, 0.0, 0.0, 0.0, 1.645922338610564E9, 0.0, 2022-02-27 11:38:58.610
30.0, -888.1242141871709, -3601.3801218724398, -1104.7796731924623, -9002.388596819472, 306.77769264908943, 703.2752875417814, -4574.5303719675985, -796.6385241315991, -1050.0626027658705, -3963.5677890262355, -3197.5064513094967, -2458.1330964723943, -2752.1479430375034, -1552.3286524210755, -8219.362285061155, -14205.38296763694, 0.014, -0.112, 0.992, 192.0, 0.0, 0.0, 0.0, 0.0, 0.0, 0.0, 0.0, 0.0, 0.0, 1.645922338618496E9, 0.0, 2022-02-27 11:38:58.618
32.0, -1011.2376226470021, -3721.431341341894, -1261.3089396129776, -9176.24046519285, 145.9345395486998, 519.3427824190596, -4817.896165596982, -1127.2208246255905, -3381.058976776478, -4629.0015732051825, -3123.7456946069833, -2558.6935947768206, -2522.2155478257596, -1531.697992288827, -8517.959239239603, -15124.084368238971, 0.014, -0.112, 0.992, 192.0, 0.0, 0.0, 0.0, 0.0, 0.0, 0.0, 0.0, 0.0, 0.0, 1.645922338625766E9, 0.0, 2022-02-27 11:38:58.625
34.0, -1224.4956164950868, -3877.647683340035, -1377.8732869474038, -9308.763958068366, -29.52665442546063, 451.99697637521945, -4747.2199496293015, -999.2570876189576, -1582.637617902472, -4421.979716060128, -3407.612849189383, -2591.03656900365, -2934.5158260483536, -1772.4486318169395, -8411.743749587984, -14657.357592267705, 0.014, -0.112, 0.992, 192.0, 0.0, 0.0, 0.0, 0.0, 0.0, 0.0, 0.0, 0.0, 0.0, 1.645922338633045E9, 0.0, 2022-02-27 11:38:58.633
36.0, -693.5746304481781, -3454.037422423056, -997.111320151248, -8884.125516906442, 451.6393484639345, 770.8893145190852, -4597.932648412305, -842.5043037538891, -2036.1992163895627, -4099.555802292323, -3052.1083536277242, -2442.956261987241, -2539.8063707120864, -1438.222996976733, -8286.26105621589, -14486.72437509589, 0.014, -0.111, 0.992, 192.0, 0.0, 56.0, 126.0, 72.0, 15.5, 0.0, 0.0, 0.0, 0.0, 1.645922338641112E9, 0.0, 2022-02-27 11:38:58.641
38.0, -1335.807303882516, -3974.9224752095315, -1508.2733640996653, -9446.920090546619, -158.78679261050138, 324.9049574023435, -4899.144756692023, -1216.6725059357293, -3134.586290667807, -4853.010756136269, -3353.7004415631823, -2650.425154021401, -2789.0730248776704, -1753.7625734523028, -8609.333170572898, -15265.436800174333, 0.014, -0.111, 0.992, 192.0, 0.0, 0.0, 0.0, 0.0, 0.0, 0.0, 0.0, 0.0, 0.0, 1.645922338648137E9, 0.0, 2022-02-27 11:38:58.648
40.0, -847.667556723065, -3568.8136302010575, -1100.6446004682305, -8998.812317706623, 314.9584311197318, 706.80686316572, -4578.330168525001, -795.4315299310124, -1023.9557652420718, -3950.670832475523, -3180.3850150567314, -2438.1282851848946, -2744.0342598002267, -1554.407364655419, -8208.029950622315, -14207.707549060291, 0.014, -0.111, 0.992, 192.0, 0.0, 0.0, 0.0, 0.0, 0.0, 0.0, 0.0, 0.0, 0.0, 1.645922338662746E9, 0.0, 2022-02-27 11:38:58.662
42.0, -979.1181658647258, -3691.9940938942545, -1261.7336227576284, -9175.905189026022, 148.66145237224728, 524.684849343878, -4811.9058980829595, -1135.4015630962328, -3344.5138745920513, -4610.650791007375, -3100.8575082847487, -2546.0201556706616, -2509.5197569751454, -1516.7893787371372, -8506.537497822941, -15113.176716944781, 0.014, -0.111, 0.992, 192.0, 0.0, 0.0, 0.0, 0.0, 0.0, 0.0, 0.0, 0.0, 0.0, 1.645922338670793E9, 0.0, 2022-02-27 11:38:58.670
44.0, -1192.3985114572658, -3844.6341567795466, -1377.3144933360213, -9299.622094586146, -32.61119516029301, 450.94644438582, -4747.17524614039, -1010.6788290356194, -1544.4608383728075, -4397.571611114933, -3392.81599435997, -2575.479754862756, -2937.53331154982, -1775.108489407121, -8406.692255341084, -14640.61613567068, 0.014, -0.111, 0.992, 192.0, 0.0, 0.0, 0.0, 0.0, 0.0, 0.0, 0.0, 0.0, 0.0, 1.645922338677886E9, 0.0, 2022-02-27 11:38:58.677
46.0, -669.9264848144633, -3437.675945481771, -1003.6156777877425, -8884.796069240103, 436.0154790896749, 751.4880003318788, -4595.518660011132, -844.3371467992243, -2045.2069694050515, -4095.4430813125473, -3040.7760191888833, -2434.6190613054114, -2544.4108300698795, -1447.9236540703362, -8301.773166867873, -14497.877895579088, 0.016, -0.1095, 0.99, 192.0, 0.0, 72.0, 126.0, 80.0, 15.0, 112.0, 0.0, 0.0, 0.0, 1.645922338685334E9, 0.0, 2022-02-27 11:38:58.685
48.0, -1311.6897716152396, -3959.678585491012, -1508.6309920109502, -9452.239805726982, -171.41552822774986, 298.4404919672599, -4914.992143510836, -1226.90960489626, -3150.0760495753348, -4866.91354118747, -3344.5362263365064, -2655.7895726906745, -2789.5647632556875, -1762.3009398342301, -8623.481824813107, -15285.083983550549, 0.016, -0.1095, 0.99, 192.0, 0.0, 0.0, 0.0, 0.0, 0.0, 0.0, 0.0, 0.0, 0.0, 1.645922338693383E9, 0.0, 2022-02-27 11:38:58.693
50.0, -832.2895565378138, -3555.7155079502477, -1104.757321448007, -9006.16604163242, 292.2267070086845, 671.7146243708878, -4591.3165320535345, -819.8843383651183, -1015.7973785158848, -3948.9050446635542, -3176.62992198824, -2441.4586951087354, -2758.4287832294444, -1571.5511526526395, -8223.497357785387, -14226.81829056958, 0.016, -0.1095, 0.99, 192.0, 0.0, 0.0, 0.0, 0.0, 0.0, 0.0, 0.0, 0.0, 0.0, 1.645922338701302E9, 0.0, 2022-02-27 11:38:58.701
52.0, -949.0774213167932, -3671.586951206559, -1254.2457883651005, -9175.726375070379, 141.64300461328085, 496.9239827303866, -4842.416029264454, -1151.4724673595986, -3331.4604558301517, -4588.09788085197, -3092.4756041140085, -2538.3758590669468, -2519.466283257757, -1528.4569893428074, -8514.628829315761, -15129.828766563985, 0.016, -0.1095, 0.99, 192.0, 0.0, 0.0, 0.0, 0.0, 0.0, 0.0, 0.0, 0.0, 0.0, 1.645922338707873E9, 0.0, 2022-02-27 11:38:58.707
54.0, -1168.884476290283, -3827.490368782326, -1375.325188079499, -9308.853365046187, -38.04266906293262, 432.05922032108555, -4764.453144604343, -1017.1608349276585, -1552.5968733545392, -4402.332532683913, -3382.355377954886, -2577.9607984972954, -2941.3778115961327, -1792.5204983378053, -8417.018761279436, -14673.719069208988, 0.016, -0.1095, 0.99, 192.0, 0.0, 0.0, 0.0, 0.0, 0.0, 0.0, 0.0, 0.0, 0.0, 1.645922338715018E9, 0.0, 2022-02-27 11:38:58.715
56.0, -644.5796066021451, -3406.964648600179, -997.6254102737201, -8882.896170961401, 436.3507552565045, 751.5327038207894, -4612.058950908059, -876.4342518370453, -2012.8416434337669, -4077.8522584262205, -3031.634155706663, -2429.008773447129, -2549.082344661039, -1455.635005907417, -8299.873268589172, -14501.163602014018, 0.015, -0.10875, 0.988, 192.0, 0.0, 56.0, 126.0, 80.0, 15.0, 104.0, 0.0, 0.0, 0.0, 1.645922338723025E9, 0.0, 2022-02-27 11:38:58.723
58.0, -1288.555716103997, -3926.843872886166, -1512.5201955461737, -9449.177616736606, -182.65845568876932, 304.2295937811844, -4933.566443153196, -1234.620956733341, -3161.318977036354, -4851.334375302122, -3334.6567552872607, -2649.709898198831, -2790.9729231563715, -1764.3573003241183, -8629.695609771683, -15290.716623153285, 0.015, -0.10875, 0.988, 192.0, 0.0, 0.0, 0.0, 0.0, 0.0, 0.0, 0.0, 0.0, 0.0, 1.645922338731027E9, 0.0, 2022-02-27 11:38:58.731
60.0, -820.5325389543223, -3538.3258507640185, -1113.429798296666, -9004.891992198467, 274.50177365562604, 673.7933366052314, -4599.497270524177, -828.3780012581351, -1011.0588086913597, -3930.3530967656493, -3174.014767886969, -2434.6861165387772, -2769.917579879472, -1577.8990480779469, -8232.43805556751, -14223.554935879105, 0.015, -0.10875, 0.988, 192.0, 0.0, 0.0, 0.0, 0.0, 0.0, 0.0, 0.0, 0.0, 0.0, 1.645922338739069E9, 0.0, 2022-02-27 11:38:58.739
62.0, -932.4253716975894, -3644.854264838012, -1252.6588145087737, -9164.014060975798, 137.55263537795966, 508.68100031387814, -4847.646337466996, -1172.1254792363025, -3320.1057696468556, -4582.5099447381435, -3088.0276069674023, -2527.1105798614717, -2531.2456525857037, -1529.7533905212154, -8519.680323562661, -15117.4682518802, 0.015, -0.10875, 0.988, 192.0, 0.0, 0.0, 0.0, 0.0, 0.0, 0.0, 0.0, 0.0, 0.0, 1.645922338745652E9, 0.0, 2022-02-27 11:38:58.745
64.0, -1161.5084006200316, -3807.977295872843, -1375.7945747130602, -9301.678455076035, -48.4362302346504, 444.1962175603173, -4785.173211714413, -1015.886785493706, -1563.437469415363, -4399.91854428274, -3378.488526164118, -2562.806315756597, -2941.6236807851415, -1785.3232366231964, -8426.09356952829, -14672.66853721959, 0.015, -0.10875, 0.988, 192.0, 0.0, 0.0, 0.0, 0.0, 0.0, 0.0, 0.0, 0.0, 0.0, 1.645922338753665E9, 0.0, 2022-02-27 11:38:58.753
66.0, -636.3988681315027, -3394.2465060051095, -991.4339770596001, -8881.398604082895, 432.72977265474475, 755.1760381670044, -4594.848107677473, -864.2972545978135, -1996.7930909148565, -4068.5315809883573, -3031.4776934954757, -2420.5821657874785, -2558.3806703544465, -1459.7924303761042, -8300.789690111838, -14490.72533735339, 0.014499999999999999, -0.106375, 0.986, 192.0, 0.0, 56.0, 126.0, 96.0, 15.0, 96.0, 0.0, 0.0, 0.0, 1.645922338760762E9, 0.0, 2022-02-27 11:38:58.760
68.0, -1271.1884106622233, -3912.4717012014034, -1496.4939947717185, -9442.405038166648, -170.29794100498452, 311.89624212935473, -4928.269079717288, -1257.8667709668603, -3183.715424980572, -4848.875683412038, -3323.7267522486154, -2640.4562759943337, -2779.4394230174335, -1754.2543118303195, -8622.632458523805, -15298.562085457097, 0.014499999999999999, -0.106375, 0.986, 192.0, 0.0, 0.0, 0.0, 0.0, 0.0, 0.0, 0.0, 0.0, 0.0, 1.645922338768269E9, 0.0, 2022-02-27 11:38:58.768
70.0, -828.3109460247691, -3539.957528109256, -1118.3248303323783, -9020.605268550547, 264.599950861925, 679.3142174856922, -4587.337921540489, -802.3605707121576, -996.2172503730358, -3958.6280535016126, -3183.2907418359214, -2440.050535208051, -2776.086661349137, -1579.0613387896228, -8232.214538122957, -14228.785244081646, 0.014499999999999999, -0.106375, 0.986, 192.0, 0.0, 0.0, 0.0, 0.0, 0.0, 0.0, 0.0, 0.0, 0.0, 1.645922338775164E9, 0.0, 2022-02-27 11:38:58.775
72.0, -911.8841185431622, -3626.8387588070345, -1238.8230846909387, -9151.497084080826, 152.7965250964791, 530.2504337132494, -4827.283898268211, -1129.0313159264704, -3290.355597776842, -4565.455563718744, -3083.534906331886, -2531.4691700302565, -2524.987164138218, -1518.152835148911, -8510.583163569352, -15091.428469589768, 0.014499999999999999, -0.106375, 0.986, 192.0, 0.0, 0.0, 0.0, 0.0, 0.0, 0.0, 0.0, 0.0, 0.0, 1.645922338790023E9, 0.0, 2022-02-27 11:38:58.790
74.0, -1174.0477292594587, -3826.8421681931222, -1390.0996911644568, -9314.776577326844, -61.57905597437096, 429.4664179642699, -4766.487153349776, -1025.788608287407, -1628.4363422913962, -4417.107035768871, -3383.316502966464, -2572.3058071501027, -2943.3671168526553, -1787.558411068727, -8433.357886476266, -14695.780240986376, 0.014499999999999999, -0.106375, 0.986, 192.0, 0.0, 0.0, 0.0, 0.0, 0.0, 0.0, 0.0, 0.0, 0.0, 1.645922338798063E9, 0.0, 2022-02-27 11:38:58.798
76.0, -627.4805220938351, -3390.0890815364223, -988.4835467914995, -8881.510362805171, 438.7647436576776, 769.5929133406775, -4592.344712298478, -866.4206703210676, -1925.71454354698, -4043.9893655764304, -3029.7119056835063, -2424.1584449003276, -2557.1513244094044, -1447.7895436036044, -8286.216352726979, -14458.091790448641, 0.01625, -0.10618749999999999, 0.987, 192.0, 0.0, 72.0, 126.0, 88.0, 15.0, 112.0, 0.0, 0.0, 0.0, 1.645922338805939E9, 0.0, 2022-02-27 11:38:58.805
78.0, -1285.8511550249048, -3927.6708874310125, -1510.5308902896513, -9442.114465488728, -174.76828989604593, 311.02452409559777, -4904.308009661199, -1232.72105845464, -3196.9029542092035, -4828.133264557513, -3323.6596970152495, -2632.767275901708, -2775.796088671218, -1740.7315064348588, -8626.074627169923, -15288.056765563104, 0.01625, -0.10618749999999999, 0.987, 192.0, 0.0, 0.0, 0.0, 0.0, 0.0, 0.0, 0.0, 0.0, 0.0, 1.645922338813952E9, 0.0, 2022-02-27 11:38:58.813
80.0, -850.2827108243359, -3567.8748569339346, -1127.690211259152, -9030.55179483316, 267.68449159675737, 668.9877115473404, -4598.022055390126, -829.6967541809981, -1016.3561721272674, -3956.9963761563754, -3203.295553123421, -2454.310948170537, -2792.738710968341, -1584.1351847809774, -8235.209671879968, -14222.347941678518, 0.01625, -0.10618749999999999, 0.987, 192.0, 0.0, 0.0, 0.0, 0.0, 0.0, 0.0, 0.0, 0.0, 0.0, 1.645922338820548E9, 0.0, 2022-02-27 11:38:58.820
82.0, -925.406923938623, -3643.5131601706935, -1248.38963131781, -9155.09571493813, 156.0375280424986, 526.8753203004981, -4827.7532849017725, -1119.6659349996967, -3290.266190799021, -4572.965749855727, -3091.939162247081, -2545.1484376369044, -2524.1825013378266, -1524.7465997632266, -8508.951486224114, -15083.94063519724, 0.01625, -0.10618749999999999, 0.987, 192.0, 0.0, 0.0, 0.0, 0.0, 0.0, 0.0, 0.0, 0.0, 0.0, 1.645922338828725E9, 0.0, 2022-02-27 11:38:58.828
84.0, -1181.4014531852547, -3837.4368950649377, -1397.0510836900573, -9313.904859293087, -53.621834948281645, 436.86484537897655, -4753.769010754706, -1017.853739005773, -1624.0777521226112, -4419.230451492125, -3396.3028664949975, -2570.6964815493207, -2959.6838903050293, -1803.7634257988248, -8433.42494170963, -14683.33031932477, 0.01625, -0.10618749999999999, 0.987, 192.0, 0.0, 0.0, 0.0, 0.0, 0.0, 0.0, 0.0, 0.0, 0.0, 1.645922338836659E9, 0.0, 2022-02-27 11:38:58.836
86.0, -640.5562926001897, -3406.4282067332515, -1001.0452271753821, -8881.689176760814, 438.49652272421395, 762.0380237147837, -4572.630473688898, -839.1738938300483, -1949.6532618586139, -4069.3809472776593, -3042.8770831676825, -2428.00294494664, -2568.997748970717, -1463.2345990222216, -8291.40195744061, -14457.220072414884, 0.016125, -0.10609374999999999, 0.9875, 192.0, 0.0, 64.0, 126.0, 88.0, 15.0, 112.0, 0.0, 0.0, 0.0, 1.645922338842757E9, 0.0, 2022-02-27 11:38:58.842
88.0, -1284.3759398908544, -3929.749599665356, -1513.2130996242881, -9447.478884158003, -174.3659584958504, 307.0459135825531, -4916.601469111618, -1246.7579539725727, -3212.817396261382, -4854.441267781409, -3332.868615730836, -2645.4407150078673, -2787.061367876693, -1763.3067683347188, -8629.60620279386, -15293.465887721288, 0.016125, -0.10609374999999999, 0.9875, 192.0, 0.0, 0.0, 0.0, 0.0, 0.0, 0.0, 0.0, 0.0, 0.0, 1.64592233885022E9, 0.0, 2022-02-27 11:38:58.850
90.0, -838.5256932408445, -3555.2014178277755, -1128.5619292929089, -9027.109626187043, 264.5775991174697, 666.2384469793376, -4582.308779038046, -829.9649751144618, -1006.3425906112899, -3959.2091988574507, -3198.691093765628, -2447.3819073893915, -2788.6259899885645, -1587.1750220268991, -8238.182453892525, -14227.53354639215, 0.016125, -0.10609374999999999, 0.9875, 192.0, 0.0, 0.0, 0.0, 0.0, 0.0, 0.0, 0.0, 0.0, 0.0, 1.645922338858194E9, 0.0, 2022-02-27 11:38:58.858
92.0, -907.9055080301176, -3631.800846076113, -1235.939709656204, -9150.401848602516, 166.54284793649293, 527.7693900787103, -4801.512336911242, -1144.65518530073, -3276.966902848113, -4558.124191537403, -3089.391063379176, -2530.26217582967, -2527.69172521731, -1525.6853730303494, -8508.01271295699, -15089.305053866514, 0.016125, -0.10609374999999999, 0.9875, 192.0, 0.0, 0.0, 0.0, 0.0, 0.0, 0.0, 0.0, 0.0, 0.0, 1.645922338866312E9, 0.0, 2022-02-27 11:38:58.866
94.0, -1185.7600433540397, -3837.5039502983036, -1400.8285285030042, -9329.484025178435, -66.02705312097706, 422.9173568388649, -4763.782592270683, -1038.3502886712895, -1659.3264531286304, -4444.443219237712, -3399.253296763098, -2585.627446845466, -2957.9181024930604, -1800.008332730333, -8439.81754062385, -14711.940552227565, 0.016125, -0.10609374999999999, 0.9875, 192.0, 0.0, 0.0, 0.0, 0.0, 0.0, 0.0, 0.0, 0.0, 0.0, 1.645922338872903E9, 0.0, 2022-02-27 11:38:58.872
96.0, -642.7914670457205, -3404.5953636879167, -1001.2463928754798, -8886.785374496625, 435.8143133895771, 755.8465905006636, -4596.3680263004335, -860.8774376961516, -1917.8020260098012, -4059.7249936729663, -3045.313423313311, -2432.0933141819614, -2575.457403118301, -1461.2229420212439, -8289.010320783893, -14458.315307893195, 0.0160625, -0.105046875, 0.98575, 192.0, 0.0, 64.0, 126.0, 96.0, 15.0, 96.0, 0.0, 0.0, 0.0, 1.64592233888088E9, 0.0, 2022-02-27 11:38:58.880
98.0, -1290.2768004270556, -3931.8283118996997, -1521.1926723948327, -9451.613956882235, -184.53600222301512, 301.4803292131817, -4923.597565126129, -1253.709346498173, -3224.3285446558652, -4872.143849390012, -3336.1096186768555, -2651.5427412441663, -2790.0788533781592, -1757.1823903539648, -8635.171787163234, -15298.338568012545, 0.0160625, -0.105046875, 0.98575, 192.0, 0.0, 0.0, 0.0, 0.0, 0.0, 0.0, 0.0, 0.0, 0.0, 1.645922338888898E9, 0.0, 2022-02-27 11:38:58.888
100.0, -845.1641613440706, -3558.80004868508, -1136.5638538079088, -9028.115454687531, 258.43086939226026, 662.4833539108461, -4610.1590526293585, -840.7832194308305, -1006.2755353779239, -3970.809754229755, -3206.9835909585468, -2450.846427779964, -2798.192536615436, -1592.1594610404327, -8244.552701062286, -14228.29350570363, 0.0160625, -0.105046875, 0.98575, 192.0, 0.0, 0.0, 0.0, 0.0, 0.0, 0.0, 0.0, 0.0, 0.0, 1.645922338895519E9, 0.0, 2022-02-27 11:38:58.895
102.0, -914.9910110224499, -3633.477226910261, -1246.065049894458, -9153.195816659429, 159.1444205217863, 520.0803899860847, -4811.816491105138, -1148.879665002783, -3277.7045104151384, -4576.273808035113, -3099.5834588507964, -2536.140684621416, -2533.2796613311366, -1522.4890735732406, -8514.53942233794, -15088.567446299488, 0.0160625, -0.105046875, 0.98575, 192.0, 0.0, 0.0, 0.0, 0.0, 0.0, 0.0, 0.0, 0.0, 0.0, 1.645922338910488E9, 0.0, 2022-02-27 11:38:58.910
104.0, -1183.9048485642493, -3833.681801996446, -1406.8411477614818, -9332.680324635545, -67.7481374440357, 417.1282550249404, -4781.6192843460185, -1061.529047671443, -1670.9493602453902, -4454.412097264779, -3407.2328695336428, -2587.236772446248, -2962.5002101063983, -1797.9072687515343, -8446.724229660538, -14724.904564011642, 0.0160625, -0.105046875, 0.98575, 192.0, 0.0, 0.0, 0.0, 0.0, 0.0, 0.0, 0.0, 0.0, 0.0, 1.645922338918481E9, 0.0, 2022-02-27 11:38:58.918
106.0, -637.0917722096173, -3398.448633962707, -1003.5486225543765, -8883.522019806149, 428.0806098080409, 755.4442591004681, -4607.499195039177, -865.3477865872129, -1895.2938193433072, -4055.9922523489304, -3044.464057024009, -2422.9738024441963, -2577.714929308287, -1454.2268460067328, -8295.134698764647, -14458.963508482399, 0.014, -0.1, 0.988, 192.0, 0.0, 56.0, 126.0, 112.0, 15.0, 112.0, 0.0, 0.0, 0.0, 1.645922338925083E9, 0.0, 2022-02-27 11:38:58.925
108.0, -1271.2554658955892, -3916.8973466035545, -1512.8107682240927, -9444.43904691208, -184.04426384499834, 299.31221000101687, -4948.251539260333, -1265.8686954818602, -3254.190475248155, -4859.939796917414, -3326.5877755388947, -2645.7536394302415, -2779.260609061791, -1746.431201270962, -8644.134836689811, -15313.403643775422, 0.014, -0.1, 0.988, 192.0, 0.0, 0.0, 0.0, 0.0, 0.0, 0.0, 0.0, 0.0, 0.0, 1.645922338933102E9, 0.0, 2022-02-27 11:38:58.933
110.0, -847.734611956431, -3562.733955709214, -1142.196493410646, -9033.569280334626, 239.40953486079394, 652.000385761307, -4612.975372430727, -853.3225480702578, -991.724549737519, -3981.4938880793916, -3208.525861325963, -2448.6783085677994, -2804.7192459963853, -1598.373245999008, -8257.472009357454, -14247.270136746185, 0.014, -0.1, 0.988, 192.0, 0.0, 0.0, 0.0, 0.0, 0.0, 0.0, 0.0, 0.0, 0.0, 1.645922338941631E9, 0.0, 2022-02-27 11:38:58.941
112.0, -889.375911876668, -3617.2945639246186, -1227.5801572299192, -9131.984011171344, 174.25419977357387, 533.2232157258053, -4814.766921373239, -1144.9681097231044, -3238.6336611072616, -4554.212636257725, -3084.719548788017, -2526.1718065943487, -2526.5070827611785, -1512.6543060129054, -8512.30424789241, -15074.150571125814, 0.014, -0.1, 0.988, 192.0, 0.0, 0.0, 0.0, 0.0, 0.0, 0.0, 0.0, 0.0, 0.0, 1.645922338948228E9, 0.0, 2022-02-27 11:38:58.948
114.0, -1189.4480811891654, -3843.270700367773, -1412.7643600421382, -9339.072923549762, -79.19223060515293, 414.13312126792925, -4803.300476467666, -1060.3891087042223, -1725.6217271830712, -4466.370280548368, -3403.276610765053, -2589.203725958315, -2956.889922248116, -1799.494242607861, -8463.823314168849, -14754.408866692647, 0.014, -0.1, 0.988, 192.0, 0.0, 0.0, 0.0, 0.0, 0.0, 0.0, 0.0, 0.0, 0.0, 1.645922338956631E9, 0.0, 2022-02-27 11:38:58.956
116.0, -627.1228941825502, -3394.067692049467, -995.4125875726447, -8875.989481924711, 434.1602842998844, 763.4014801265574, -4614.696456753785, -855.0659841377717, -1834.5641296582378, -4039.451961452003, -3042.6759174675844, -2419.0398954200623, -2574.1833536843483, -1447.4542674367747, -8293.368910952677, -14428.788653467735, 0.016, -0.106, 0.99, 192.0, 0.0, 64.0, 126.0, 88.0, 15.0, 120.0, 0.0, 0.0, 0.0, 1.645922338962774E9, 0.0, 2022-02-27 11:38:58.962
118.0, -1264.7958117480055, -3914.259840757828, -1505.3452855760202, -9445.310764945838, -179.59626669839224, 299.1557477898297, -4936.4051146990205, -1268.1262216718462, -3224.6638208226946, -4859.023375394747, -3321.491577803085, -2637.4387904928676, -2775.3043502932014, -1742.9443291359341, -8643.888967500803, -15298.830306390562, 0.016, -0.106, 0.99, 192.0, 0.0, 0.0, 0.0, 0.0, 0.0, 0.0, 0.0, 0.0, 0.0, 1.645922338970736E9, 0.0, 2022-02-27 11:38:58.970
120.0, -833.2283298049367, -3553.994423627189, -1128.9866124375596, -9032.161120433942, 249.1101919543972, 649.2958246822149, -4607.320381083534, -846.1476381001041, -974.401947784656, -3969.222780373428, -3197.975837943058, -2441.4586951087354, -2798.88544069355, -1594.4169872304187, -8249.671250542551, -14229.701665604314, 0.016, -0.106, 0.99, 192.0, 0.0, 0.0, 0.0, 0.0, 0.0, 0.0, 0.0, 0.0, 0.0, 1.64592233897785E9, 0.0, 2022-02-27 11:38:58.977
122.0, -884.8385077522407, -3616.1322732129424, -1227.6248607188297, -9132.09576989362, 167.99571132608787, 523.880186543487, -4846.573453733141, -1148.7679062805064, -3227.7930650464377, -4554.190284513269, -3078.215191151523, -2519.6003937244886, -2528.2505188286923, -1513.3248583465647, -8514.137090937746, -15071.781286213552, 0.016, -0.106, 0.99, 192.0, 0.0, 0.0, 0.0, 0.0, 0.0, 0.0, 0.0, 0.0, 0.0, 1.645922338985312E9, 0.0, 2022-02-27 11:38:58.985
124.0, -1167.1186884783135, -3826.909223426488, -1402.9295924818032, -9324.588993142725, -79.52750677198253, 407.7628740981667, -4790.09059549458, -1068.882771597239, -1664.467354353351, -4450.053507095994, -3395.1405757833218, -2573.4457461173233, -2963.5060386068867, -1793.302809393741, -8465.76791593646, -14728.950229758053, 0.016, -0.106, 0.99, 192.0, 0.0, 0.0, 0.0, 0.0, 0.0, 0.0, 0.0, 0.0, 0.0, 1.645922338993433E9, 0.0, 2022-02-27 11:38:58.993
126.0, -621.5126063242682, -3394.9617618276793, -999.0335701744044, -8881.912694205368, 423.9008335948984, 748.3364043636805, -4578.866610391929, -865.6607110095872, -1870.9527696314776, -4053.891188370131, -3046.140437858157, -2420.2915931095595, -2591.774176570675, -1461.5805699325288, -8298.889791833139, -14445.083075175653, 0.01, -0.106, 0.99, 192.0, 0.0, 40.0, 126.0, 88.0, 15.0, 120.0, 0.0, 0.0, 0.0, 1.645922339001407E9, 0.0, 2022-02-27 11:38:59.001
128.0, -1256.6597767662736, -3911.3988174675487, -1504.1159396309781, -9443.544977133868, -182.70315917767994, 295.2888959990616, -4935.9357280654585, -1257.9785296891368, -3244.1098384988118, -4866.5559132761855, -3322.0727231589226, -2641.1268283279933, -2788.5589347551986, -1745.8053524262134, -8643.665450056249, -15307.83805940605, 0.01, -0.106, 0.99, 192.0, 0.0, 0.0, 0.0, 0.0, 0.0, 0.0, 0.0, 0.0, 0.0, 1.645922339008106E9, 0.0, 2022-02-27 11:38:59.008
130.0, -832.2672047933585, -3552.9438916377894, -1130.0818479158697, -9034.530405346204, 238.87309299386658, 652.4474206504132, -4616.261078865657, -852.607292247688, -968.5457907373657, -3971.5920652856908, -3198.9369629546363, -2437.390677617869, -2816.6550775355195, -1591.3547982400416, -8251.571148821253, -14228.002933025711, 0.01, -0.106, 0.99, 192.0, 0.0, 0.0, 0.0, 0.0, 0.0, 0.0, 0.0, 0.0, 0.0, 1.645922339016032E9, 0.0, 2022-02-27 11:38:59.016
132.0, -879.8317169942519, -3608.66679056487, -1219.846453648383, -9133.52628153876, 169.78385088251244, 530.8986343024534, -4821.964183087848, -1141.5929963103529, -3218.0924079528345, -4555.441982202767, -3081.187973164079, -2518.482806501723, -2535.2466148432036, -1517.34817234852, -8506.783367011949, -15059.152550596304, 0.01, -0.106, 0.99, 192.0, 0.0, 0.0, 0.0, 0.0, 0.0, 0.0, 0.0, 0.0, 0.0, 1.645922339023034E9, 0.0, 2022-02-27 11:38:59.023
134.0, -1170.4714501466096, -3823.779979202745, -1398.6827610352948, -9332.61326940218, -75.45948928111665, 413.8872520789209, -4793.555115885153, -1061.6855098826302, -1689.3895494210185, -4471.354719561901, -3400.773215386059, -2584.7333770672535, -2968.1999049425012, -1798.913097252023, -8462.90689264618, -14735.543994372369, 0.01, -0.106, 0.99, 192.0, 0.0, 0.0, 0.0, 0.0, 0.0, 0.0, 0.0, 0.0, 0.0, 1.645922339037765E9, 0.0, 2022-02-27 11:38:59.037
136.0, -615.6788010214331, -3381.483659921129, -989.9587619255498, -8879.521057548649, 430.60635693149055, 752.6726427880101, -4606.67218049433, -866.1300976431487, -1858.9275311145225, -4054.89701687062, -3039.0996383547354, -2419.151654142339, -2588.0861387355494, -1455.8585233519702, -8296.364044709688, -14444.993668197832, 0.01, -0.106, 0.99, 192.0, 0.0, 40.0, 126.0, 88.0, 15.0, 120.0, 0.0, 0.0, 0.0, 1.645922339045672E9, 0.0, 2022-02-27 11:38:59.045
138.0, -1240.8347416919162, -3895.4396719264596, -1496.4045877938972, -9436.794750308365, -173.02485382853197, 303.9390211032654, -4962.355490011631, -1282.0960619564132, -3242.1875884756555, -4862.063212640669, -3311.477996287107, -2632.6555171794316, -2776.9583793828942, -1739.435105256451, -8643.911319245259, -15310.721434440786, 0.01, -0.106, 0.99, 192.0, 0.0, 0.0, 0.0, 0.0, 0.0, 0.0, 0.0, 0.0, 0.0, 1.645922339053692E9, 0.0, 2022-02-27 11:38:59.053
140.0, -822.7677133998529, -3542.5056269771612, -1129.3218886043894, -9035.737399546791, 240.57182557246992, 649.0276037487512, -4617.736293999707, -861.7491557299085, -959.7168516775193, -3969.200428628973, -3196.3218088533654, -2435.110799683428, -2809.5248710542764, -1594.7746151417036, -8253.649861055597, -14232.495633661227, 0.01, -0.106, 0.99, 192.0, 0.0, 0.0, 0.0, 0.0, 0.0, 0.0, 0.0, 0.0, 0.0, 1.645922339060321E9, 0.0, 2022-02-27 11:38:59.060
142.0, -851.0650218802717, -3582.671711763348, -1209.229375032112, -9120.517566265771, 173.4718887176381, 540.1075530180399, -4837.476293739831, -1146.3539178793333, -3199.652218777206, -4543.461447174722, -3071.08498467028, -2508.2457075411926, -2532.45264678629, -1508.183957121844, -8512.34895138132, -15052.536434237532, 0.01, -0.106, 0.99, 192.0, 0.0, 0.0, 0.0, 0.0, 0.0, 0.0, 0.0, 0.0, 0.0, 1.645922339068255E9, 0.0, 2022-02-27 11:38:59.068
144.0, -1164.168258210213, -3821.1201216125637, -1405.2988773940656, -9335.854272348199, -93.43029182318352, 409.1710339988511, -4816.979744074314, -1062.043137793915, -1715.854014856102, -4484.832821468452, -3395.2299827611428, -2575.5915135850328, -2969.7421753099175, -1799.1142629521207, -8478.1507823647, -14750.67612536861, 0.01, -0.106, 0.99, 192.0, 0.0, 0.0, 0.0, 0.0, 0.0, 0.0, 0.0, 0.0, 0.0, 1.645922339077756E9, 0.0, 2022-02-27 11:38:59.077
146.0, -610.1355683965169, -3376.8568488188803, -992.8644887047398, -8878.179952881332, 428.28177550813865, 752.7844015102866, -4585.862706406439, -857.1893998610259, -1823.231795219397, -4047.967976089475, -3046.1851413470677, -2415.016581418107, -2598.166775484893, -1459.7700786316489, -8295.514678420386, -14425.301781332706, 0.014, -0.11, 0.99, 192.0, 0.0, 56.0, 126.0, 72.0, 15.0, 120.0, 0.0, 0.0, 0.0, 1.645922339083819E9, 0.0, 2022-02-27 11:38:59.083
148.0, -1237.2361108346117, -3891.1928404799514, -1496.8739744274587, -9435.744218318965, -164.8664671023449, 301.74855014664536, -4944.094114791646, -1261.5101053130752, -3275.424632480697, -4869.3722330775545, -3313.735522477093, -2632.0520200791384, -2773.896190392517, -1731.6119946970935, -8641.22910991062, -15311.526097241176, 0.014, -0.11, 0.99, 192.0, 0.0, 0.0, 0.0, 0.0, 0.0, 0.0, 0.0, 0.0, 0.0, 1.645922339090027E9, 0.0, 2022-02-27 11:38:59.090
150.0, -836.3352222842244, -3555.961377139256, -1143.336432377867, -9047.382658408005, 238.06843019347554, 642.322080412159, -4630.968526717249, -849.8580276796852, -973.5525814953544, -3990.6581033060675, -3215.5443090849294, -2445.2808434105928, -2824.567595072698, -1602.2400977897762, -8260.891826259116, -14242.844491344034, 0.014, -0.11, 0.99, 192.0, 0.0, 0.0, 0.0, 0.0, 0.0, 0.0, 0.0, 0.0, 0.0, 1.645922339097906E9, 0.0, 2022-02-27 11:38:59.097
152.0, -855.7812399603415, -3589.2654763776636, -1209.1176163098355, -9118.975295898354, 189.2522203030849, 548.780029866699, -4825.607517434063, -1122.526958289976, -3185.145936625712, -4534.386638925867, -3079.533944074386, -2512.358428520969, -2537.615899755466, -1500.2714395846654, -8509.48792809104, -15037.516061963566, 0.014, -0.11, 0.99, 192.0, 0.0, 0.0, 0.0, 0.0, 0.0, 0.0, 0.0, 0.0, 0.0, 1.645922339106053E9, 0.0, 2022-02-27 11:38:59.106
154.0, -1180.261514218034, -3835.849921208611, -1409.3445431404762, -9345.778446886356, -82.14266087325346, 403.76191184066676, -4777.260694177234, -1069.7991931199067, -1752.0191373847888, -4500.0990629314265, -3407.9481253562126, -2588.935505024851, -2972.8043643002948, -1800.433015874984, -8478.888389931726, -14758.655698139155, 0.014, -0.11, 0.99, 192.0, 0.0, 0.0, 0.0, 0.0, 0.0, 0.0, 0.0, 0.0, 0.0, 1.645922339112983E9, 0.0, 2022-02-27 11:38:59.112
156.0, -622.294917380204, -3387.988017557623, -992.9985991714716, -8886.226580885243, 437.043659334619, 749.4092880975352, -4582.644055204875, -847.4663910229673, -1810.3124869242297, -4050.7619441463885, -3049.7167169710065, -2430.886319981375, -2600.0890255080494, -1462.2958257550986, -8289.077376017258, -14422.440758042427, 0.008, -0.10200000000000001, 0.994, 192.0, 0.0, 32.0, 126.0, 104.0, 15.5, 8.0, 0.0, 0.0, 0.0, 1.645922339120588E9, 0.0, 2022-02-27 11:38:59.120
158.0, -1245.5062562830753, -3899.1277097615853, -1497.3433610610202, -9436.615936352722, -158.38446121030586, 298.3510849894387, -4937.343887966143, -1277.9609892321814, -3294.513022245529, -4880.123422160557, -3313.2661358435316, -2638.623432948999, -2774.410280514989, -1735.501198232317, -8644.648926812282, -15314.968265887293, 0.008, -0.10200000000000001, 0.994, 192.0, 0.0, 0.0, 0.0, 0.0, 0.0, 0.0, 0.0, 0.0, 0.0, 1.645922339128541E9, 0.0, 2022-02-27 11:38:59.128
160.0, -852.3167195697689, -3562.0634033755546, -1150.7348597925736, -9044.812207795645, 238.85074124941127, 640.0422024777178, -4620.530262056621, -844.9629956439729, -976.1230321077147, -3995.4637283639586, -3215.432550362653, -2442.53157884259, -2822.89121423855, -1596.473347720307, -8258.656651813586, -14238.86588083099, 0.008, -0.10200000000000001, 0.994, 192.0, 0.0, 0.0, 0.0, 0.0, 0.0, 0.0, 0.0, 0.0, 0.0, 1.645922339136656E9, 0.0, 2022-02-27 11:38:59.136
162.0, -862.1291353856487, -3592.5511828125937, -1209.1399680542909, -9110.66044696098, 194.10254884988655, 546.5448554211683, -4805.468595679831, -1107.4842342715544, -3184.6765499921503, -4535.392467426356, -3079.332778374288, -2511.4420069983016, -2536.945347421807, -1496.7398639607268, -8502.022445442968, -15026.988390325118, 0.008, -0.10200000000000001, 0.994, 192.0, 0.0, 0.0, 0.0, 0.0, 0.0, 0.0, 0.0, 0.0, 0.0, 1.645922339143188E9, 0.0, 2022-02-27 11:38:59.143
164.0, -1200.5568981834529, -3851.987880705343, -1421.1686159573337, -9355.724973168966, -92.49151855606063, 393.07777799103, -4808.754302114761, -1076.370605989767, -1800.433015874984, -4530.117455734904, -3411.5244044690617, -2598.993790029739, -2970.122154965658, -1798.8013385297465, -8480.453012043597, -14776.559445447856, 0.008, -0.10200000000000001, 0.994, 192.0, 0.0, 0.0, 0.0, 0.0, 0.0, 0.0, 0.0, 0.0, 0.0, 1.645922339158254E9, 0.0, 2022-02-27 11:38:59.158
166.0, -631.0120977177737, -3395.7887763725257, -996.1501951396699, -8882.158563394376, 434.8308366335436, 757.1653434235268, -4596.4797850227105, -845.6782514665427, -1791.6487803040482, -4049.264377267883, -3052.1307053721794, -2427.7794275020874, -2603.3076767096136, -1452.2822442391212, -8286.506925404898, -14406.19103982342, 0.014, -0.1, 0.986, 192.0, 0.0, 56.0, 126.0, 112.0, 15.0, 104.0, 0.0, 0.0, 0.0, 1.645922339165408E9, 0.0, 2022-02-27 11:38:59.165
168.0, -1249.9542534296816, -3904.045093541753, -1502.5960210080173, -9436.01243925243, -158.78679261050138, 301.34621874644984, -4950.397306728042, -1269.0426431945139, -3304.7724729505153, -4869.975730177847, -3304.280734572498, -2637.1705695594037, -2771.3927950135226, -1725.3088027606968, -8644.693630301193, -15310.877896651971, 0.014, -0.1, 0.986, 192.0, 0.0, 0.0, 0.0, 0.0, 0.0, 0.0, 0.0, 0.0, 0.0, 1.645922339172863E9, 0.0, 2022-02-27 11:38:59.172
170.0, -852.9649201589729, -3566.2655313331525, -1150.6007493258417, -9050.668364842935, 240.43771510573808, 638.2987664102038, -4627.571061560043, -855.2447980934141, -970.4680407605221, -3991.999207973386, -3206.8941839807253, -2444.9008637548523, -2823.248842149835, -1592.2265162737986, -8256.890864001616, -14237.72594186377, 0.014, -0.1, 0.986, 192.0, 0.0, 0.0, 0.0, 0.0, 0.0, 0.0, 0.0, 0.0, 0.0, 1.645922339180955E9, 0.0, 2022-02-27 11:38:59.180
172.0, -854.9989289044057, -3586.896191465401, -1209.944630854682, -9114.437891773927, 201.67979022023562, 544.2873292311823, -4803.523993912219, -1127.8019699814286, -3163.397689270698, -4523.590746353954, -3066.4805253124864, -2506.882251129419, -2528.4740362732455, -1488.9391051458247, -8495.741605251027, -15023.322704234446, 0.014, -0.1, 0.986, 192.0, 0.0, 0.0, 0.0, 0.0, 0.0, 0.0, 0.0, 0.0, 0.0, 1.645922339188878E9, 0.0, 2022-02-27 11:38:59.188
174.0, -1195.8183283589278, -3847.6963457699235, -1426.130703226412, -9352.193397545028, -84.28842834096294, 389.2109262002619, -4799.567735143631, -1080.528030458454, -1780.6293702875819, -4506.536365334555, -3404.327142754453, -2592.780005071164, -2970.2562654323897, -1794.5992105721486, -8479.96127366558, -14775.218340780539, 0.014, -0.10200000000000001, 0.987, 192.0, 0.0, 56.0, 126.0, 96.0, 15.0, 112.0, 0.0, 0.0, 0.0, 1.645922339195518E9, 0.0, 2022-02-27 11:38:59.195
176.0, -638.1423041990166, -3398.649799662805, -1007.2366603895022, -8887.366519852463, 432.8415313770213, 740.2227211264039, -4592.076491365015, -848.6510334790986, -1805.7303793108917, -4046.448057466514, -3048.688536726062, -2426.6394885348664, -2605.5875546440548, -1454.4280117068306, -8292.206620241, -14412.628342226548, 0.014, -0.10200000000000001, 0.987, 192.0, 0.0, 0.0, 0.0, 0.0, 0.0, 0.0, 0.0, 0.0, 0.0, 1.645922339203487E9, 0.0, 2022-02-27 11:38:59.203
178.0, -1257.6879570112178, -3903.5980586526466, -1507.5134047881847, -9442.33798293328, -161.089022289398, 285.63294239436897, -4945.815199114704, -1275.099965941902, -3326.520720305529, -4876.904770958993, -3308.5052142745512, -2647.877055153496, -2776.131364838048, -1729.4438754849286, -8646.727639046627, -15320.913829912404, 0.014, -0.10200000000000001, 0.987, 192.0, 0.0, 0.0, 0.0, 0.0, 0.0, 0.0, 0.0, 0.0, 0.0, 1.645922339210425E9, 0.0, 2022-02-27 11:38:59.210
180.0, -861.7044522409979, -3571.026452902133, -1152.8582755158277, -9060.771353336735, 238.2695958935733, 623.9489464698967, -4617.132796899414, -851.1320771136376, -971.9879593834829, -3989.764033527855, -3212.437416605642, -2454.355651659447, -2824.7240572838855, -1609.0797315931002, -8257.270843657356, -14244.833796600557, 0.014, -0.10200000000000001, 0.987, 192.0, 0.0, 0.0, 0.0, 0.0, 0.0, 0.0, 0.0, 0.0, 0.0, 1.645922339218501E9, 0.0, 2022-02-27 11:38:59.218
182.0, -854.9542254154951, -3583.5881332860154, -1204.3119912519446, -9115.734292952335, 208.5641275124702, 540.4204774404142, -4801.489985166787, -1113.6086122523084, -3156.423945000642, -4519.746246307641, -3068.4251270800983, -2520.0250768691394, -2525.680068216332, -1489.319084801565, -8492.34414009382, -15019.58996291041, 0.014, -0.10200000000000001, 0.987, 192.0, 0.0, 0.0, 0.0, 0.0, 0.0, 0.0, 0.0, 0.0, 0.0, 1.645922339225247E9, 0.0, 2022-02-27 11:38:59.225
184.0, -1198.5899446713859, -3842.3766305895606, -1424.2755084366213, -9350.56172019979, -94.86080346832317, 379.35380689547145, -4807.480252680809, -1082.0255973369597, -1800.5000711083499, -4514.381827638367, -3404.1036253098996, -2595.9539527838174, -2973.474916633954, -1803.6740188210035, -8483.604608011796, -14784.896646129686, 0.014, -0.10500000000000001, 0.9864999999999999, 192.0, 0.0, 56.0, 126.0, 80.0, 15.0, 104.0, 0.0, 0.0, 0.0, 1.645922339233081E9, 0.0, 2022-02-27 11:38:59.233
186.0, -624.7089057813771, -3382.9141715662686, -993.5126892939436, -8879.699871504292, 433.2662145216721, 740.4462385709571, -4601.643037991887, -855.960053915984, -1774.102660906632, -4025.0574380227854, -3041.915958156104, -2409.719217982199, -2603.553545898622, -1451.701098883283, -8290.798460340317, -14408.023882868754, 0.014, -0.10500000000000001, 0.9864999999999999, 192.0, 0.0, 0.0, 0.0, 0.0, 0.0, 0.0, 0.0, 0.0, 0.0, 1.645922339241244E9, 0.0, 2022-02-27 11:38:59.241
188.0, -1240.6559277362737, -3888.801203823233, -1496.315180816076, -9433.419636895615, -159.90437983326672, 289.7680151186008, -4950.2184927724, -1276.5975328204077, -3319.2116998686433, -4863.001985907792, -3291.204964066144, -2626.285270009669, -2751.678556403942, -1718.9609073353897, -8647.062915213457, -15320.84677467904, 0.014, -0.10500000000000001, 0.9864999999999999, 192.0, 0.0, 0.0, 0.0, 0.0, 0.0, 0.0, 0.0, 0.0, 0.0, 1.645922339247838E9, 0.0, 2022-02-27 11:38:59.247
190.0, -853.9483969150064, -3559.4929527631944, -1153.1711999382019, -9056.502170145772, 228.23366263314043, 620.193853401405, -4628.174558660336, -865.7724697318638, -963.3154825348238, -3983.840821247199, -3206.49185258053, -2441.1457706863607, -2823.22649040538, -1602.5306704676952, -8261.964709992972, -14244.945555322833, 0.014, -0.10500000000000001, 0.9864999999999999, 192.0, 0.0, 0.0, 0.0, 0.0, 0.0, 0.0, 0.0, 0.0, 0.0, 1.645922339256517E9, 0.0, 2022-02-27 11:38:59.256
192.0, -838.2127688184702, -3568.411298800862, -1195.1254242808134, -9107.620609715059, 205.25606933308475, 538.4758756728024, -4809.961296315348, -1124.560967035409, -3136.4861889465083, -4503.518879833088, -3055.595225762752, -2503.842413883497, -2524.584832738022, -1494.6611517263832, -8495.003997684002, -15015.633704141821, 0.014, -0.10500000000000001, 0.9864999999999999, 192.0, 0.0, 0.0, 0.0, 0.0, 0.0, 0.0, 0.0, 0.0, 0.0, 1.645922339263721E9, 0.0, 2022-02-27 11:38:59.263
194.0, -1188.1963834996682, -3833.6147467630803, -1425.5495578705738, -9357.42370574757, -101.78984424946836, 378.88442026191, -4813.112892283546, -1090.7427776745294, -1804.4339781324838, -4510.984362481161, -3392.7936426155143, -2589.5390021251446, -2964.891846763116, -1803.6069635876374, -8482.889352189226, -14789.769326420943, 0.011, -0.10650000000000001, 0.98625, 192.0, 0.0, 32.0, 126.0, 80.0, 15.0, 104.0, 0.0, 0.0, 0.0, 1.645922339270779E9, 0.0, 2022-02-27 11:38:59.270
196.0, -617.6234027890448, -3377.8850290638247, -997.0666166623374, -8882.069156416555, 424.21375801727277, 735.2382821128705, -4615.434064320811, -874.5567053027994, -1751.594454240138, -4012.7639785723663, -3035.299841797333, -2414.7036569957327, -2602.391255186946, -1451.8128576055597, -8285.568152137776, -14405.386377023027, 0.011, -0.10650000000000001, 0.98625, 192.0, 0.0, 0.0, 0.0, 0.0, 0.0, 0.0, 0.0, 0.0, 0.0, 1.64592233928544E9, 0.0, 2022-02-27 11:38:59.285
198.0, -1233.525721255031, -3880.0840234856637, -1496.538698260629, -9433.53139561789, -169.60503692686999, 286.0352737945645, -4967.094059836157, -1297.0270272525581, -3325.581947038406, -4853.43543928092, -3282.063100583923, -2623.647764163943, -2756.551236695199, -1725.7111341608925, -8645.922976246236, -15328.245202093745, 0.011, -0.10650000000000001, 0.98625, 192.0, 0.0, 0.0, 0.0, 0.0, 0.0, 0.0, 0.0, 0.0, 0.0, 1.645922339293485E9, 0.0, 2022-02-27 11:38:59.293
200.0, -853.411955048079, -3563.9409499098006, -1156.1886854396685, -9062.403030681971, 216.56605202747014, 621.0208679462514, -4633.114294184958, -865.638359265132, -957.6604911876311, -3979.54928631178, -3202.915573467681, -2439.5364450855786, -2830.51315909781, -1608.5656414706282, -8264.423401883054, -14249.393552469439, 0.011, -0.10650000000000001, 0.98625, 192.0, 0.0, 0.0, 0.0, 0.0, 0.0, 0.0, 0.0, 0.0, 0.0, 1.645922339300713E9, 0.0, 2022-02-27 11:38:59.300
202.0, -820.1972627874927, -3555.044955616588, -1186.9893892990815, -9092.443775229905, 215.76138922707906, 560.0900125610843, -4798.204278731857, -1109.5405947614427, -3108.7700258219274, -4493.102966916915, -3045.626347735685, -2496.309876002059, -2521.5002920031898, -1491.7777766916486, -8489.39370982572, -15007.363558693358, 0.011, -0.10650000000000001, 0.98625, 192.0, 0.0, 0.0, 0.0, 0.0, 0.0, 0.0, 0.0, 0.0, 0.0, 1.645922339308022E9, 0.0, 2022-02-27 11:38:59.308
204.0, -1188.5987148998636, -3836.654584009002, -1426.3095171820544, -9359.770638915377, -100.6275535377924, 388.13804246640717, -4811.9058980829595, -1088.9099346291941, -1856.1112113131537, -4531.525615635588, -3388.971494313657, -2592.5564876266108, -2958.990986226915, -1798.175489684998, -8490.176020881656, -14816.278495344937, 0.0125, -0.10725000000000001, 0.9901249999999999, 192.0, 0.0, 56.0, 126.0, 80.0, 15.5, 8.0, 0.0, 0.0, 0.0, 1.645922339316032E9, 0.0, 2022-02-27 11:38:59.316
206.0, -611.5660800416565, -3374.0405290175117, -991.2328113595023, -8877.487048803217, 432.70742091028944, 762.4403551149792, -4595.764529200141, -850.2603590798807, -1675.2855986697195, -4002.392769145104, -3027.0967515822354, -2406.589973758456, -2596.266877206192, -1450.8070291050708, -8270.927759519549, -14376.999661564787, 0.0125, -0.10725000000000001, 0.9901249999999999, 192.0, 0.0, 0.0, 0.0, 0.0, 0.0, 0.0, 0.0, 0.0, 0.0, 1.645922339325421E9, 0.0, 2022-02-27 11:38:59.325
208.0, -1211.1069215663579, -3860.9956337208314, -1481.7865469201265, -9419.136872188672, -152.08126927390924, 314.71256193072344, -4967.786963914271, -1281.5149166005751, -3323.7938074819813, -4847.132247344523, -3266.0592515539233, -2624.1395025419597, -2737.641660886009, -1704.5440321617166, -8638.032810453513, -15316.55523974362, 0.0125, -0.10725000000000001, 0.9901249999999999, 192.0, 0.0, 0.0, 0.0, 0.0, 0.0, 0.0, 0.0, 0.0, 0.0, 1.645922339331646E9, 0.0, 2022-02-27 11:38:59.331
210.0, -861.7715074743638, -3552.8097811710577, -1158.267397674012, -9066.69456561739, 210.62048800235846, 623.8818912365307, -4644.357221645978, -874.9143332140843, -946.2834532598798, -3997.4083301315704, -3204.748416513016, -2439.1788171742937, -2828.70266779693, -1597.3227140096087, -8262.478800115443, -14254.86972986099, 0.0125, -0.10725000000000001, 0.9901249999999999, 192.0, 0.0, 0.0, 0.0, 0.0, 0.0, 0.0, 0.0, 0.0, 0.0, 1.645922339337668E9, 0.0, 2022-02-27 11:38:59.337
212.0, -814.5869749292106, -3538.07998157501, -1176.4170141717213, -9086.520562949248, 225.77497074305663, 565.7897073971877, -4808.486081181298, -1114.3462198193336, -3065.7652694899166, -4464.045699125016, -3037.8032371763275, -2509.072722086039, -2513.7665884216535, -1483.6640934543723, -8474.373337551753, -14982.44136362569, 0.0125, -0.10725000000000001, 0.9901249999999999, 192.0, 0.0, 0.0, 0.0, 0.0, 0.0, 0.0, 0.0, 0.0, 0.0, 1.645922339345615E9, 0.0, 2022-02-27 11:38:59.345
214.0, -1186.005912543048, -3842.041354422731, -1421.772113057627, -9350.718182410978, -92.7597394895243, 394.21771695825066, -4812.576450416619, -1091.8156614083841, -1820.974269029411, -4518.785121296063, -3377.0133110300676, -2573.490449606234, -2951.257282645379, -1803.9869432433777, -8481.771764966461, -14802.666282971655, 0.01425, -0.107625, 0.9900625, 192.0, 0.0, 64.0, 126.0, 80.0, 15.0, 120.0, 0.0, 0.0, 0.0, 1.645922339352897E9, 0.0, 2022-02-27 11:38:59.352
216.0, -615.5893940436118, -3381.126032009844, -992.5962677712761, -8875.14011563541, 439.92703436935363, 756.7853637677865, -4596.882116422906, -856.8541236941962, -1687.981389520334, -4012.227536705439, -3028.2813940383667, -2403.3489708124366, -2592.6235428599766, -1454.897398340392, -8268.849047285205, -14381.112382544565, 0.01425, -0.107625, 0.9900625, 192.0, 0.0, 0.0, 0.0, 0.0, 0.0, 0.0, 0.0, 0.0, 0.0, 1.64592233936018E9, 0.0, 2022-02-27 11:38:59.360
218.0, -1222.6627734497517, -3873.713776315901, -1486.122785344456, -9417.929877988086, -145.73337384860204, 308.58818394996933, -4954.130048052079, -1295.0153702515806, -3327.615955783839, -4858.799857950194, -3267.109783543323, -2619.445636206345, -2728.3656869370566, -1705.1028257730993, -8636.915223230746, -15318.008103133216, 0.01425, -0.107625, 0.9900625, 192.0, 0.0, 0.0, 0.0, 0.0, 0.0, 0.0, 0.0, 0.0, 0.0, 1.645922339368243E9, 0.0, 2022-02-27 11:38:59.368
220.0, -873.2379523799364, -3571.5852465135154, -1167.2080954561347, -9068.03567028471, 213.16858687026345, 617.3328301111258, -4608.236802606202, -888.280676398358, -941.4778282019888, -4001.7445685559, -3207.564736314385, -2440.4081631193358, -2825.9757549733827, -1619.0709613646225, -8256.242663412413, -14256.43435197286, 0.01425, -0.107625, 0.9900625, 192.0, 0.0, 0.0, 0.0, 0.0, 0.0, 0.0, 0.0, 0.0, 0.0, 1.645922339376284E9, 0.0, 2022-02-27 11:38:59.376
222.0, -818.2973645087916, -3544.60669095596, -1179.3897961842772, -9078.384527967517, 227.96544169967675, 569.3212830211262, -4781.798098301661, -1104.0867691143476, -3060.087926398269, -4487.98441743665, -3040.7089639555174, -2494.7005504012764, -2515.174748322338, -1483.7087969432828, -8471.311148561377, -14979.468581613135, 0.01425, -0.107625, 0.9900625, 192.0, 0.0, 0.0, 0.0, 0.0, 0.0, 0.0, 0.0, 0.0, 0.0, 1.64592233938298E9, 0.0, 2022-02-27 11:38:59.382
224.0, -1201.1603952837463, -3838.018040420776, -1430.3998864173755, -9358.18366505905, -104.15912916173092, 387.26632443265015, -4807.90493582546, -1106.6348679822527, -1868.1140980856537, -4547.820037343507, -3386.1998780011986, -2591.6624178483985, -2962.1649339395685, -1803.9869432433777, -8486.912666191181, -14822.022893669951, 0.013125000000000001, -0.11081250000000001, 0.9880312499999999, 192.0, 0.0, 48.0, 126.0, 56.0, 15.0, 104.0, 0.0, 0.0, 0.0, 1.645922339391004E9, 0.0, 2022-02-27 11:38:59.391
226.0, -620.6185365460559, -3371.8500580608916, -993.177413127114, -8872.480258045229, 433.4897319662252, 767.9165325065294, -4595.093976866481, -846.5276177558444, -1657.3594996165634, -4009.7688448153554, -3029.466036494498, -2403.3713225568918, -2598.1220719959824, -1456.9090553413696, -8265.54098910582, -14372.350498718084, 0.013125000000000001, -0.11081250000000001, 0.9880312499999999, 192.0, 0.0, 0.0, 0.0, 0.0, 0.0, 0.0, 0.0, 0.0, 0.0, 1.645922339405884E9, 0.0, 2022-02-27 11:38:59.405
228.0, -1230.7094014536622, -3871.970340248387, -1488.96145689028, -9413.884212241675, -141.03950751298757, 323.04976261255297, -4921.9658877808915, -1262.5829890469302, -3340.4682088456407, -4861.459715540375, -3269.1214405443, -2623.9606885863172, -2733.5736433951433, -1700.140738504021, -8630.187348149699, -15309.916771640394, 0.013125000000000001, -0.11081250000000001, 0.9880312499999999, 192.0, 0.0, 0.0, 0.0, 0.0, 0.0, 0.0, 0.0, 0.0, 0.0, 1.645922339412475E9, 0.0, 2022-02-27 11:38:59.412
230.0, -877.1718594040703, -3569.0371476456107, -1168.8621245458276, -9066.962786550856, 207.73711296762383, 631.5485395847011, -4625.894680725894, -880.4575658390005, -943.243616013958, -4017.770769330355, -3212.102140438812, -2451.852256280453, -2833.79886553274, -1613.728894439804, -8253.448695355499, -14250.466436203295, 0.013125000000000001, -0.11081250000000001, 0.9880312499999999, 192.0, 0.0, 0.0, 0.0, 0.0, 0.0, 0.0, 0.0, 0.0, 0.0, 1.645922339420716E9, 0.0, 2022-02-27 11:38:59.420
232.0, -815.3245824962357, -3538.5940716974824, -1169.7785460684952, -9070.628472641525, 237.64374704882468, 582.2182395718384, -4795.4103106749435, -1098.9235161451718, -3039.3455075437437, -4472.4052515513, -3034.919862141593, -2491.548954433078, -2511.9337453763183, -1474.835154394526, -8466.751392692495, -14969.38794486379, 0.013125000000000001, -0.11081250000000001, 0.9880312499999999, 192.0, 0.0, 0.0, 0.0, 0.0, 0.0, 0.0, 0.0, 0.0, 0.0, 1.645922339428715E9, 0.0, 2022-02-27 11:38:59.428
234.0, -1207.8659186203383, -3834.5311682857478, -1429.3270026835207, -9356.999022602919, -108.60712630833702, 384.24883893118374, -4847.445171766898, -1114.2121093526018, -1882.8215459372457, -4554.503208935644, -3383.741186111115, -2589.784871314153, -2957.3369571372223, -1801.1929751864643, -8493.01469242748, -14831.298867618903, 0.0085625, -0.11040625000000001, 0.986015625, 192.0, 0.0, 16.0, 126.0, 72.0, 15.0, 96.0, 0.0, 0.0, 0.0, 1.645922339435609E9, 0.0, 2022-02-27 11:38:59.435
236.0, -621.8478824910978, -3367.1785434697326, -991.3669218262341, -8870.51330453316, 428.7288103972448, 758.5511515797558, -4617.713942255252, -847.9357776565288, -1628.7492667137703, -3999.3752836436374, -3028.594318460741, -2399.4374155327578, -2604.9840575437615, -1451.8799128389255, -8269.54195136332, -14367.03078353772, 0.0085625, -0.11040625000000001, 0.986015625, 192.0, 0.0, 0.0, 0.0, 0.0, 0.0, 0.0, 0.0, 0.0, 0.0, 1.645922339443235E9, 0.0, 2022-02-27 11:38:59.443
238.0, -1231.5364159985086, -3867.1870669349514, -1487.9109249008804, -9417.14756693215, -146.71685060463557, 309.97399210619835, -4924.849262815626, -1282.2078206786896, -3337.227205899621, -4869.640454011018, -3263.868780597303, -2623.42424671939, -2727.829245070129, -1711.3613142205852, -8627.32632485942, -15317.896344410938, 0.0085625, -0.11040625000000001, 0.986015625, 192.0, 0.0, 0.0, 0.0, 0.0, 0.0, 0.0, 0.0, 0.0, 0.0, 1.645922339451271E9, 0.0, 2022-02-27 11:38:59.451
240.0, -886.4478333530228, -3571.89817093589, -1175.746461838062, -9072.79659185369, 197.1647378402636, 624.8430162481089, -4637.227015164735, -864.0290336643499, -943.5788921807876, -4007.1983942029947, -3220.4169893761864, -2445.571416088512, -2844.9747377603935, -1614.8017781736587, -8253.53810233332, -14253.8639013605, 0.0085625, -0.11040625000000001, 0.986015625, 192.0, 0.0, 0.0, 0.0, 0.0, 0.0, 0.0, 0.0, 0.0, 0.0, 1.645922339458264E9, 0.0, 2022-02-27 11:38:59.458
242.0, -816.3751144856352, -3537.5658914525384, -1169.7785460684952, -9066.403992939471, 243.63401456284697, 588.4990797637796, -4765.973063227304, -1083.8137368933842, -3020.8159113902943, -4476.249751597614, -3038.5184929988973, -2492.845355611486, -2514.7277134332317, -1482.6582649538834, -8458.369488521754, -14958.726162758609, 0.0085625, -0.11040625000000001, 0.986015625, 192.0, 0.0, 0.0, 0.0, 0.0, 0.0, 0.0, 0.0, 0.0, 0.0, 1.645922339465246E9, 0.0, 2022-02-27 11:38:59.465
244.0, -1222.2827937940115, -3852.6360812945463, -1443.9897470462022, -9368.264301808395, -103.71209427262477, 387.0875104770077, -4799.254810721256, -1095.2801817989566, -1938.455037886505, -4584.633360461397, -3400.4602909636847, -2601.3630749420017, -2954.565340824764, -1806.3785799000955, -8483.001110911502, -14842.31827763537, 0.009281250000000001, -0.11220312500000001, 0.9870078124999999, 192.0, 0.0, 40.0, 126.0, 56.0, 15.0, 112.0, 0.0, 0.0, 0.0, 1.645922339472834E9, 0.0, 2022-02-27 11:38:59.472
246.0, -621.8255307466425, -3371.358319682875, -993.8032619718626, -8873.933121434822, 440.7316971697447, 764.3179016492251, -4568.09306956447, -842.4596002649785, -1603.6706094349158, -4006.5054901248805, -3035.3892487751546, -2404.3100958240148, -2599.485528407756, -1459.703023398283, -8249.693602287007, -14352.591556619593, 0.009281250000000001, -0.11220312500000001, 0.9870078124999999, 192.0, 0.0, 0.0, 0.0, 0.0, 0.0, 0.0, 0.0, 0.0, 0.0, 1.64592233948085E9, 0.0, 2022-02-27 11:38:59.480
