%OpenBCI Raw EEG Data
%Number of channels = 16
%Sample Rate = 125 Hz
%Board = OpenBCI_GUI$BoardCytonSerialDaisy
Sample Index, EXG Channel 0, EXG Channel 1, EXG Channel 2, EXG Channel 3, EXG Channel 4, EXG Channel 5, EXG Channel 6, EXG Channel 7, EXG Channel 8, EXG Channel 9, EXG Channel 10, EXG Channel 11, EXG Channel 12, EXG Channel 13, EXG Channel 14, EXG Channel 15, Accel Channel 0, Accel Channel 1, Accel Channel 2, Other, Other, Other, Other, Other, Other, Other, Analog Channel 0, Analog Channel 1, Analog Channel 2, Timestamp, Other, Timestamp (Formatted)
30.0, -747.3752793521022, -4024.4315891780366, -1693.0999390005993, -9886.042462115582, -316.7242189317011, 436.21664478977266, -5089.581619451239, -1369.7149002212168, -1151.785391781973, -5396.2475533780525, -3931.068352588219, -2787.3966440435224, -3383.7858896000257, -2201.937401525665, -9233.483282742893, -14438.824586728168, 0.0, 0.0, 0.0, 192.0, 0.0, 0.0, 0.0, 0.0, 0.0, 0.0, 0.0, 0.0, 0.0, 1.645921873042162E9, 0.0, 2022-02-27 11:31:13.042
32.0, -293.567811676003, -3690.6082857380256, -1412.4961391086745, -9570.547589128922, 75.90652417022278, 658.1024119976058, -5062.267787726854, -1385.3387695954764, -2844.9970895048486, -5505.480528531138, -3568.5007057786834, -2732.5231114057437, -2913.214613582446, -1898.9371536895221, -9327.338257710726, -14841.044228201417, 0.0, 0.0, 0.0, 192.0, 0.0, 0.0, 0.0, 0.0, 0.0, 0.0, 0.0, 0.0, 0.0, 1.645921873042165E9, 0.0, 2022-02-27 11:31:13.042
0.0, -582.7099779498551, -2185.1735931841845, -1033.9022915246835, -5139.783637497859, -376.917466749843, 26.79974160191317, -2735.9205765629504, -842.861931665174, -801.801777100775, -2903.2680872998344, -2046.4586670945487, -1447.8565988369703, -1758.1882188544535, -1186.4976509210649, -4693.911039103394, -7407.70338865559, 0.008, -0.053, 0.489, 192.0, 0.0, 64.0, 126.0, 88.0, 15.0, 72.0, 0.0, 0.0, 0.0, 1.645921873146933E9, 0.0, 2022-02-27 11:31:13.146
2.0, -638.2317111768378, -3958.292777334783, -1631.342069070586, -9810.426510623278, -251.43477337774914, 439.7258686692558, -5118.504776776406, -1234.0845148664137, -992.1492328821699, -5253.79988596438, -3928.229681042395, -2728.6339078705205, -3309.0193043970235, -2118.3642290072717, -9153.553444570714, -14321.030893448698, 0.008, -0.053, 0.489, 192.0, 0.0, 0.0, 0.0, 0.0, 0.0, 0.0, 0.0, 0.0, 0.0, 1.645921873153113E9, 0.0, 2022-02-27 11:31:13.153
4.0, -415.38481895742643, -3791.2134875313627, -1533.575538823073, -9698.578381368921, -81.15918411721995, 506.9822677352748, -5256.772667976937, -1419.6934008232834, -3280.811402894426, -5671.084603200508, -3649.9951660627326, -2761.222751286358, -2909.884203658605, -1914.8515957417007, -9378.702566469023, -15067.020364644572, 0.008, -0.053, 0.489, 192.0, 0.0, 0.0, 0.0, 0.0, 0.0, 0.0, 0.0, 0.0, 0.0, 1.645921873168232E9, 0.0, 2022-02-27 11:31:13.168
6.0, -1007.2143086450469, -4225.239661364515, -1930.3190029047732, -10136.650220948484, -603.3406380821035, 195.33189479492842, -5353.600424957326, -1507.1110733879893, -2357.2596737455933, -5920.842995744109, -4084.937761418553, -2904.698598944974, -3405.601192188405, -2299.055731183974, -9455.704326117555, -15096.4129086033, 0.008, -0.053, 0.489, 192.0, 0.0, 0.0, 0.0, 0.0, 0.0, 0.0, 0.0, 0.0, 0.0, 1.645921873175183E9, 0.0, 2022-02-27 11:31:13.175
8.0, -268.3997474193272, -3676.3031692866293, -1378.4320805587865, -9537.623469546255, 68.19517233314185, 661.3434149436254, -5040.005450249369, -1139.9613189651154, -1599.4237779884074, -5129.010096670401, -3692.2846665721736, -2678.38718633499, -3038.7420104434505, -1907.810796238279, -9136.119083895575, -14341.393332647483, 0.014, -0.106, 0.984, 192.0, 0.0, 56.0, 126.0, 88.0, 15.0, 96.0, 0.0, 0.0, 0.0, 1.645921873182614E9, 0.0, 2022-02-27 11:31:13.182
10.0, -921.6518308701314, -4175.39527122918, -1912.2140898959744, -10119.864060862548, -558.3018730046598, 195.6001157283921, -5481.810031152968, -1677.565476604161, -3937.617413713624, -6188.840411763241, -3872.2162094373957, -2901.278782043312, -3098.2870576723885, -2131.32824079135, -9594.262789996004, -15603.104603660657, 0.014, -0.106, 0.984, 192.0, 0.0, 0.0, 0.0, 0.0, 0.0, 0.0, 0.0, 0.0, 0.0, 1.645921873190986E9, 0.0, 2022-02-27 11:31:13.190
12.0, -624.3959813590028, -3925.1227885631074, -1627.2964033241753, -9809.174812933781, -262.7000525832239, 457.0037671332082, -5171.411355902119, -1235.291509067, -979.6993112205639, -5226.8436821512805, -3916.58442218118, -2745.73299237883, -3296.547030990962, -2119.9735546080537, -9163.030584219765, -14320.002713203754, 0.014, -0.106, 0.984, 192.0, 0.0, 0.0, 0.0, 0.0, 0.0, 0.0, 0.0, 0.0, 0.0, 1.645921873197812E9, 0.0, 2022-02-27 11:31:13.197
14.0, -396.58700187051323, -3784.1279845390304, -1518.309297360098, -9694.018625500039, -67.52461999948264, 503.2718781556938, -5217.970039602523, -1413.904299009359, -3245.4509431661304, -5660.020489695131, -3633.7007443548137, -2759.792239641218, -2892.04751158327, -1874.3725865331396, -9377.160296101607, -15050.636535958833, 0.014, -0.106, 0.984, 192.0, 0.0, 0.0, 0.0, 0.0, 0.0, 0.0, 0.0, 0.0, 0.0, 1.645921873205277E9, 0.0, 2022-02-27 11:31:13.205
16.0, -1003.7721399989296, -4238.494245826512, -1922.5405958343263, -10132.716313924351, -605.4417020609025, 177.249333530585, -5358.450753504128, -1503.378332063953, -2360.7241941361663, -5943.708830321888, -4079.126307860173, -2890.371130749122, -3385.5963809009054, -2313.763179035566, -9451.077515015306, -15098.983359215661, 0.014, -0.106, 0.984, 192.0, 0.0, 0.0, 0.0, 0.0, 0.0, 0.0, 0.0, 0.0, 0.0, 1.645921873213297E9, 0.0, 2022-02-27 11:31:13.213
18.0, -266.56690437399203, -3670.4246604948835, -1376.8451067024598, -9537.332896868336, 65.26709380949663, 656.4260311634578, -5057.082183013223, -1148.231464413579, -1578.1002137780445, -5140.253024131421, -3688.9989601372436, -2665.1996571063587, -3029.309574283311, -1918.0925986877203, -9141.058819420197, -14340.946297758377, 0.014, -0.106, 0.988, 192.0, 0.0, 56.0, 126.0, 88.0, 15.0, 112.0, 0.0, 0.0, 0.0, 1.645921873220432E9, 0.0, 2022-02-27 11:31:13.220
20.0, -938.9520810785391, -4186.682902179111, -1919.8583864996895, -10122.032180074713, -566.9519981088637, 174.88004861832246, -5462.900455343778, -1665.7190520428483, -3947.519236507325, -6205.827737549274, -3880.2181339523954, -2913.885165916105, -3100.008141995447, -2151.154238123207, -9602.890563355752, -15602.501106560363, 0.014, -0.106, 0.988, 192.0, 0.0, 0.0, 0.0, 0.0, 0.0, 0.0, 0.0, 0.0, 0.0, 1.645921873227371E9, 0.0, 2022-02-27 11:31:13.227
22.0, -629.067495950162, -3952.548379009769, -1621.2614323212424, -9808.772481533586, -250.07131696597543, 460.89297066843164, -5122.4833872894515, -1229.81533167545, -984.3931775561783, -5236.901967156168, -3930.0625240877303, -2740.547387665199, -3300.391531037275, -2111.412836481671, -9157.912034739498, -14313.185431144886, 0.014, -0.106, 0.988, 192.0, 0.0, 0.0, 0.0, 0.0, 0.0, 0.0, 0.0, 0.0, 0.0, 1.64592187323503E9, 0.0, 2022-02-27 11:31:13.235
24.0, -396.1623187258624, -3784.8432403616002, -1512.6766577573608, -9693.213962699649, -57.01930010548832, 519.5439481191573, -5224.474397239018, -1397.162842412334, -3263.287635241465, -5668.156524676862, -3645.6142241494927, -2767.324777522657, -2895.4449767404767, -1914.9857062084327, -9374.545142000336, -15057.163245339781, 0.014, -0.106, 0.988, 192.0, 0.0, 0.0, 0.0, 0.0, 0.0, 0.0, 0.0, 0.0, 0.0, 1.645921873243059E9, 0.0, 2022-02-27 11:31:13.243
26.0, -1003.9062504656614, -4232.056943423384, -1923.4793691014493, -10138.14778782699, -609.2414986183046, 189.5874964699145, -5381.450698548639, -1525.2159863967881, -2415.1283401403834, -5946.346336167614, -4083.8201741957873, -2900.0047326093595, -3382.1989157436988, -2295.814728237954, -9457.87244532972, -15120.865717037406, 0.012, -0.108, 0.988, 192.0, 0.0, 40.0, 126.0, 72.0, 15.0, 112.0, 0.0, 0.0, 0.0, 1.645921873251128E9, 0.0, 2022-02-27 11:31:13.251
28.0, -267.3715671743831, -3669.754108161224, -1373.2688275896105, -9542.74201902652, 68.57515198888207, 654.6378916070332, -5041.190092705499, -1140.5201125764981, -1558.9671205243017, -5120.158805866099, -3694.0057508952323, -2666.7866309626856, -3033.4446470075427, -1926.519206347371, -9138.309554852194, -14335.73834130029, 0.012, -0.108, 0.988, 192.0, 0.0, 0.0, 0.0, 0.0, 0.0, 0.0, 0.0, 0.0, 0.0, 1.645921873257519E9, 0.0, 2022-02-27 11:31:13.257
30.0, -928.6032233957319, -4184.112451566751, -1908.1237206606534, -10126.994267343793, -547.8189048551208, 172.26489451705154, -5455.03264129551, -1667.8424677661023, -3952.7271929654116, -6202.452624136523, -3878.1170699735967, -2915.852119428172, -3092.632066325196, -2142.9734996525644, -9590.731214372065, -15600.020062925823, 0.012, -0.108, 0.988, 192.0, 0.0, 0.0, 0.0, 0.0, 0.0, 0.0, 0.0, 0.0, 0.0, 1.64592187326549E9, 0.0, 2022-02-27 11:31:13.265
32.0, -633.582548330134, -3947.295719062772, -1624.3906765449856, -9820.529499117078, -245.71272679719053, 441.8939878814206, -5156.949777239535, -1240.38770680281, -985.9577996680498, -5253.509313286461, -3933.5493962227583, -2747.2082075128806, -3304.8171764394256, -2123.6615924431794, -9156.816799261189, -14319.600381803559, 0.012, -0.108, 0.988, 192.0, 0.0, 0.0, 0.0, 0.0, 0.0, 0.0, 0.0, 0.0, 0.0, 1.645921873273749E9, 0.0, 2022-02-27 11:31:13.273
34.0, -406.53352815312485, -3789.7382723973124, -1518.1975386378217, -9695.985579012106, -80.22041085009705, 512.7937212936546, -5249.262481839953, -1401.4320256032975, -3258.973748561591, -5666.413088609349, -3655.538398687649, -2763.7932018987185, -2906.889069901594, -1913.7340085189353, -9374.701604211523, -15050.010687114083, 0.012, -0.108, 0.988, 192.0, 0.0, 0.0, 0.0, 0.0, 0.0, 0.0, 0.0, 0.0, 0.0, 1.645921873280241E9, 0.0, 2022-02-27 11:31:13.280
36.0, -1018.367829128245, -4248.418420364669, -1932.8894535171335, -10147.870796665049, -618.8974522229972, 183.44076674470506, -5370.006605387522, -1520.6338787834502, -2420.828034976487, -5969.949778312419, -4096.8959447021425, -2908.319581546734, -3399.4991659521065, -2310.6562865562782, -9465.270872744426, -15114.584876845465, 0.009000000000000001, -0.11, 0.987, 192.0, 0.0, 24.0, 126.0, 64.0, 15.0, 104.0, 0.0, 0.0, 0.0, 1.645921873295198E9, 0.0, 2022-02-27 11:31:13.295
38.0, -280.4249859362824, -3670.625826194981, -1384.4223480728087, -9549.98398423004, 62.56253273040447, 649.3405281711255, -5025.879147753614, -1155.9428162506601, -1591.2877430066758, -5150.8924544921465, -3706.3215620901065, -2691.0159219522384, -3043.5699872457967, -1929.4472848710163, -9139.04716241922, -14335.246602922274, 0.009000000000000001, -0.11, 0.987, 192.0, 0.0, 0.0, 0.0, 0.0, 0.0, 0.0, 0.0, 0.0, 0.0, 1.64592187330329E9, 0.0, 2022-02-27 11:31:13.303
40.0, -927.0609530283157, -4182.100794565773, -1904.5697932922594, -10124.982610342815, -555.6420154144782, 183.53017372252629, -5479.351339262884, -1688.0707964981552, -3967.7475652393778, -6204.218411948492, -3873.557314104714, -2923.1387881206024, -3103.2938484303772, -2146.3933165542267, -9597.906124342218, -15606.300903117766, 0.009000000000000001, -0.11, 0.987, 192.0, 0.0, 0.0, 0.0, 0.0, 0.0, 0.0, 0.0, 0.0, 0.0, 1.645921873309739E9, 0.0, 2022-02-27 11:31:13.309
42.0, -642.6573565789887, -3958.3151290792384, -1623.3848480444967, -9825.446882897244, -260.64369209333563, 441.7375256702335, -5145.438628845051, -1241.4829422811201, -1000.6205440307313, -5259.812505222858, -3933.459989244937, -2755.970091339361, -3311.7015137316603, -2132.6246419697572, -9162.315328397195, -14329.725722041812, 0.009000000000000001, -0.11, 0.987, 192.0, 0.0, 0.0, 0.0, 0.0, 0.0, 0.0, 0.0, 0.0, 0.0, 1.645921873317857E9, 0.0, 2022-02-27 11:31:13.317
44.0, -402.979600784731, -3797.8743073790442, -1506.9993146657127, -9690.218828942638, -59.701509440125164, 510.5808985925792, -5217.6347634356935, -1396.0899586784792, -3237.9631087736025, -5659.707565272756, -3650.017517807188, -2764.933140865939, -2907.1572908350577, -1919.0984271882091, -9365.984423873953, -15042.366390510368, 0.009000000000000001, -0.11, 0.987, 192.0, 0.0, 0.0, 0.0, 0.0, 0.0, 0.0, 0.0, 0.0, 0.0, 1.645921873325892E9, 0.0, 2022-02-27 11:31:13.325
46.0, -1037.8585502932729, -4266.791554306931, -1931.8836250166448, -10151.58118624463, -618.7409900118101, 172.15313579477498, -5370.699509465637, -1535.251919657221, -2469.554837889056, -5980.6562639065105, -4096.851241213231, -2910.0630176142477, -3405.802357888503, -2313.986696480119, -9468.06484080134, -15138.881223068383, 0.0085, -0.11, 0.9884999999999999, 192.0, 0.0, 32.0, 126.0, 72.0, 15.0, 120.0, 0.0, 0.0, 0.0, 1.64592187333285E9, 0.0, 2022-02-27 11:31:13.332
48.0, -294.14895703184095, -3694.117509617509, -1371.7265572221945, -9554.476684865556, 61.13202108526482, 642.2997286677038, -5045.0569444962675, -1156.8592377733275, -1559.570617624595, -5139.1130851642, -3712.02125692621, -2680.3988433359677, -3057.3163100858105, -1923.747590034913, -9135.560290284193, -14329.971591230822, 0.0085, -0.11, 0.9884999999999999, 192.0, 0.0, 0.0, 0.0, 0.0, 0.0, 0.0, 0.0, 0.0, 0.0, 1.645921873340528E9, 0.0, 2022-02-27 11:31:13.340
50.0, -930.9725083079944, -4183.665416677644, -1890.197621607497, -10112.823261359128, -540.4651809293248, 169.91796134924428, -5471.0364903255095, -1690.730654088337, -3977.9846641999084, -6201.5362026138555, -3866.583569834658, -2930.2689946018454, -3086.8876680001817, -2156.3621945812934, -9592.5640574174, -15607.03851068479, 0.0085, -0.11, 0.9884999999999999, 192.0, 0.0, 0.0, 0.0, 0.0, 0.0, 0.0, 0.0, 0.0, 0.0, 1.645921873347641E9, 0.0, 2022-02-27 11:31:13.347
52.0, -692.5911536921446, -4009.1429959706065, -1635.2312726058094, -9838.992040037161, -270.1655352312965, 436.0154790896749, -5155.318099894297, -1253.9328639427263, -1030.9965647454935, -5279.1467641766985, -3950.0226318863192, -2756.8194576286623, -3320.4633975581405, -2141.1406566072296, -9171.166619201496, -14347.495358883782, 0.0085, -0.11, 0.9884999999999999, 192.0, 0.0, 0.0, 0.0, 0.0, 0.0, 0.0, 0.0, 0.0, 0.0, 1.645921873355507E9, 0.0, 2022-02-27 11:31:13.355
54.0, -434.02617383315254, -3821.6118599905803, -1504.1159396309781, -9685.480259118112, -51.565474458393396, 524.5060353882355, -5235.806731677858, -1403.0189994596244, -3210.9845532160466, -5644.083695898497, -3662.0427563241433, -2765.5366379662323, -2908.543098991287, -1926.2733371583627, -9363.078697094763, -15018.293561732002, 0.0085, -0.11, 0.9884999999999999, 192.0, 0.0, 0.0, 0.0, 0.0, 0.0, 0.0, 0.0, 0.0, 0.0, 1.645921873362485E9, 0.0, 2022-02-27 11:31:13.362
56.0, -1080.952713603105, -4314.400769996735, -1925.5804330802482, -10151.804703689182, -628.195777916405, 173.4718887176381, -5393.7888614879685, -1530.513349832696, -2474.0251867801176, -5981.1256505400725, -4106.283677373371, -2919.5178055188426, -3396.347569983908, -2329.0294204985407, -9469.987090824496, -15136.444882922755, 0.01025, -0.109, 0.99025, 192.0, 0.0, 48.0, 126.0, 80.0, 15.5, 0.0, 0.0, 0.0, 0.0, 1.645921873370211E9, 0.0, 2022-02-27 11:31:13.370
58.0, -357.38204209590464, -3759.0716790046313, -1379.482612548186, -9557.65063257821, 49.48676222404983, 644.5796066021451, -5050.644880610094, -1159.0497087299477, -1575.59681839905, -5158.357937140219, -3724.5158820767265, -2701.6330005685095, -3056.6681094966066, -1948.4686194024825, -9136.543767040226, -14332.16206218744, 0.01025, -0.109, 0.99025, 192.0, 0.0, 0.0, 0.0, 0.0, 0.0, 0.0, 0.0, 0.0, 0.0, 1.645921873378102E9, 0.0, 2022-02-27 11:31:13.378
60.0, -1015.2385849045021, -4282.013092280995, -1907.229650882441, -10125.563755698653, -558.5253904492129, 171.63904567230293, -5491.242467313107, -1692.5411453892168, -4007.354856414182, -6228.358295960224, -3896.624314382591, -2936.7957039827947, -3102.019798996425, -2160.340805094338, -9599.828374365376, -15614.526345077318, 0.01025, -0.109, 0.99025, 192.0, 0.0, 0.0, 0.0, 0.0, 0.0, 0.0, 0.0, 0.0, 0.0, 1.64592187338609E9, 0.0, 2022-02-27 11:31:13.386
62.0, -775.2702564323255, -4086.390624808148, -1642.205016875865, -9840.847234826952, -285.96821856119857, 434.1602842998844, -5160.347242396741, -1251.7200412416507, -1044.9217015411498, -5297.721063819059, -3979.54928631178, -2774.790260170729, -3335.4390663431964, -2150.640148000735, -9176.553389615225, -14347.9870972618, 0.01025, -0.109, 0.99025, 192.0, 0.0, 0.0, 0.0, 0.0, 0.0, 0.0, 0.0, 0.0, 0.0, 1.645921873392767E9, 0.0, 2022-02-27 11:31:13.392
64.0, -525.0648289996182, -3922.9323176064872, -1502.0372273966345, -9688.095413219382, -50.581997702359885, 527.3447069340596, -5232.8339496653025, -1412.4290838753086, -3243.327527442876, -5669.4305741108155, -3690.5859339935705, -2788.670693477475, -2919.8530816856724, -1928.4638081149828, -9369.605406475712, -15029.581192681933, 0.01025, -0.109, 0.99025, 192.0, 0.0, 0.0, 0.0, 0.0, 0.0, 0.0, 0.0, 0.0, 0.0, 1.645921873400803E9, 0.0, 2022-02-27 11:31:13.400
66.0, -1206.6365726752965, -4440.174036046748, -1936.264566929885, -10166.4003928185, -612.1919288864051, 188.49226099160447, -5363.837523917857, -1529.73103877676, -2534.7325247207314, -6021.4481975374465, -4137.53141612189, -2954.878265247138, -3397.420453717763, -2331.532815877535, -9474.233922271005, -15152.627545908397, 0.013125000000000001, -0.1075, 0.9901249999999999, 192.0, 0.0, 64.0, 126.0, 88.0, 15.0, 120.0, 0.0, 0.0, 0.0, 1.645921873414779E9, 0.0, 2022-02-27 11:31:13.414
68.0, -502.0425322106519, -3911.778797123289, -1388.51271730813, -9566.188998960139, 74.16308810270884, 668.4959731693236, -5027.488473354397, -1135.2451008850458, -1598.5297082101952, -5189.158640999633, -3766.626568630525, -2734.1994922398917, -3057.2716065969003, -1944.557064122804, -9129.547671025715, -14320.06976843712, 0.013125000000000001, -0.1075, 0.9901249999999999, 192.0, 0.0, 0.0, 0.0, 0.0, 0.0, 0.0, 0.0, 0.0, 0.0, 1.645921873422538E9, 0.0, 2022-02-27 11:31:13.422
70.0, -1172.9971972700594, -4436.620108678354, -1908.257831127385, -10125.228479531823, -530.1610267354282, 208.18414785673, -5451.210492993652, -1678.8395260381135, -4071.2361420674497, -6257.795543407863, -3936.365716024127, -2965.3835851411327, -3096.3648076492323, -2145.7898194539334, -9593.480478940068, -15599.550676292263, 0.013125000000000001, -0.1075, 0.9901249999999999, 192.0, 0.0, 0.0, 0.0, 0.0, 0.0, 0.0, 0.0, 0.0, 0.0, 1.645921873430456E9, 0.0, 2022-02-27 11:31:13.430
72.0, -931.5536536638325, -4226.491359054013, -1648.5752640456278, -9853.028935555094, -262.0295002495647, 459.93184565685345, -5134.799198484326, -1239.1360091133129, -1099.7281789455628, -5335.584918926349, -4023.582222888735, -2817.996182202838, -3322.6985720036714, -2141.5876914963355, -9162.62825281957, -14343.583803604104, 0.013125000000000001, -0.1075, 0.9901249999999999, 192.0, 0.0, 0.0, 0.0, 0.0, 0.0, 0.0, 0.0, 0.0, 0.0, 1.645921873438368E9, 0.0, 2022-02-27 11:31:13.438
74.0, -658.8176678201756, -4027.449074679503, -1507.7592739771933, -9689.972959753628, -35.38281147275108, 561.0734893171178, -5222.239222793487, -1376.800403213549, -3276.9892545925686, -5702.55585939358, -3730.4167426129275, -2841.7784383032845, -2911.024142625826, -1933.6047093397033, -9355.032069090852, -15009.665788372255, 0.013125000000000001, -0.1075, 0.9901249999999999, 192.0, 0.0, 0.0, 0.0, 0.0, 0.0, 0.0, 0.0, 0.0, 0.0, 1.645921873445086E9, 0.0, 2022-02-27 11:31:13.445
76.0, -1295.8870882853375, -4510.22440316968, -1946.3452036792285, -10166.959186429882, -614.3600480985699, 190.72743543713517, -5390.63726551977, -1547.3665651519973, -2619.0880082950603, -6040.357773346636, -4167.125125780717, -2970.278617176845, -3396.436976961729, -2333.9915077676187, -9476.513800205446, -15164.451618725256, 0.0115625, -0.10575000000000001, 0.9900625, 192.0, 0.0, 40.0, 126.0, 96.0, 15.0, 120.0, 0.0, 0.0, 0.0, 1.645921873453084E9, 0.0, 2022-02-27 11:31:13.453
78.0, -547.4612769438359, -3931.5377392217806, -1392.0666446765238, -9568.200655961116, 71.88321016826751, 665.2996737122147, -5032.450560623474, -1128.4501705706323, -1584.6716266479048, -5184.353015941741, -3793.0910340656087, -2732.3442974501013, -3073.051938182347, -1943.618290855681, -9129.502967536804, -14304.445899062861, 0.0115625, -0.10575000000000001, 0.9900625, 192.0, 0.0, 0.0, 0.0, 0.0, 0.0, 0.0, 0.0, 0.0, 0.0, 1.645921873461046E9, 0.0, 2022-02-27 11:31:13.461
80.0, -1130.7076967606183, -4386.529849354011, -1894.0421216538098, -10111.549211925176, -519.1416167189618, 210.1063978798864, -5477.004406095077, -1671.5975608345939, -4058.6074064502013, -6227.866557582207, -3924.943974607465, -2966.1435444526132, -3086.530040088897, -2164.9676161965867, -9587.065528281395, -15590.386461065587, 0.0115625, -0.10575000000000001, 0.9900625, 192.0, 0.0, 0.0, 0.0, 0.0, 0.0, 0.0, 0.0, 0.0, 0.0, 1.645921873468218E9, 0.0, 2022-02-27 11:31:13.468
82.0, -873.3944145911235, -4187.107585323762, -1647.3235663561304, -9851.62077565441, -277.8321835794668, 438.51887446866925, -5158.335585395764, -1261.5771605464413, -1090.563963718887, -5326.487758933039, -4008.092463981207, -2787.5307545102546, -3325.805464482959, -2167.7168807645894, -9171.546598857236, -14352.524501386226, 0.0115625, -0.10575000000000001, 0.9900625, 192.0, 0.0, 0.0, 0.0, 0.0, 0.0, 0.0, 0.0, 0.0, 0.0, 1.645921873474859E9, 0.0, 2022-02-27 11:31:13.474
84.0, -558.167762537928, -3949.5755969972133, -1485.8769161554476, -9682.283959661003, -31.04657304842151, 549.1600095224392, -5200.736844627481, -1386.1881358847781, -3210.2916491379324, -5674.16914393534, -3698.9007829309444, -2790.2129638448914, -2914.3098490607563, -1935.2363866849407, -9347.588938187235, -14994.01956725354, 0.0115625, -0.10575000000000001, 0.9900625, 192.0, 0.0, 0.0, 0.0, 0.0, 0.0, 0.0, 0.0, 0.0, 0.0, 1.645921873482871E9, 0.0, 2022-02-27 11:31:13.482
86.0, -1191.2585724900453, -4415.855338079374, -1934.9234622625665, -10165.081639895636, -621.646716791, 178.00929284206543, -5417.727579799603, -1561.3587571810197, -2614.6623628929096, -6041.207139635938, -4131.161168952128, -2947.3233756212444, -3391.832517603936, -2338.059525258485, -9478.950140351075, -15182.556531734053, 0.00978125, -0.10487500000000001, 0.9880312499999999, 192.0, 0.0, 32.0, 126.0, 96.0, 15.0, 104.0, 0.0, 0.0, 0.0, 1.645921873490991E9, 0.0, 2022-02-27 11:31:13.490
88.0, -430.24872902020564, -3822.751798957801, -1374.967560168214, -9562.07627798036, 60.90850364071174, 654.0120427622846, -5061.999566793391, -1169.331511179389, -1519.2257188827657, -5145.349221867231, -3751.3826789120058, -2700.493061601289, -3067.531057301886, -1946.7922385683346, -9131.447569304415, -14309.184468887386, 0.00978125, -0.10487500000000001, 0.9880312499999999, 192.0, 0.0, 0.0, 0.0, 0.0, 0.0, 0.0, 0.0, 0.0, 0.0, 1.645921873497785E9, 0.0, 2022-02-27 11:31:13.497
90.0, -1023.6428408196975, -4272.401842165214, -1877.5018307568826, -10106.676531633919, -526.4953406447579, 193.29788604949547, -5462.162847776753, -1695.983314035334, -4008.2042227034835, -6216.936554543562, -3881.939218275454, -2930.5148637908537, -3071.5990747927517, -2143.7558107085006, -9585.970292803084, -15594.454478556452, 0.00978125, -0.10487500000000001, 0.9880312499999999, 192.0, 0.0, 0.0, 0.0, 0.0, 0.0, 0.0, 0.0, 0.0, 0.0, 1.64592187350533E9, 0.0, 2022-02-27 11:31:13.505
92.0, -778.4218524005238, -4079.5956944937343, -1635.1195138835328, -9845.809322096029, -278.793308591045, 434.5179122111693, -5142.756419510415, -1288.3098469149884, -1048.565035887365, -5297.162270207676, -3974.0507571757744, -2758.4511349739, -3324.486711560096, -2171.248456388528, -9167.500933110827, -14359.565300889648, 0.00978125, -0.10487500000000001, 0.9880312499999999, 192.0, 0.0, 0.0, 0.0, 0.0, 0.0, 0.0, 0.0, 0.0, 0.0, 1.645921873513391E9, 0.0, 2022-02-27 11:31:13.513
94.0, -466.7938312046327, -3857.486409841348, -1476.3774247619422, -9673.209151412148, -34.30992773889634, 535.8383698270762, -5213.387931989185, -1403.220165159722, -3164.1129450932676, -5630.806759692045, -3665.9990150927324, -2760.3286815081456, -2903.737473933396, -1920.037200455332, -9346.56075794229, -14996.031224254517, 0.00978125, -0.10487500000000001, 0.9880312499999999, 192.0, 0.0, 0.0, 0.0, 0.0, 0.0, 0.0, 0.0, 0.0, 0.0, 1.645921873521543E9, 0.0, 2022-02-27 11:31:13.521
96.0, -1115.3967518087331, -4337.534825507978, -1928.4414563705275, -10165.416916062464, -625.133588926028, 173.96362709565486, -5385.004625917033, -1565.3373676940641, -2567.9919204702283, -6018.073084124695, -4109.055293685829, -2922.088256131203, -3387.652741390794, -2315.5289668475352, -9475.150343793672, -15177.10270608696, 0.01, -0.108, 0.988, 192.0, 0.0, 40.0, 126.0, 80.0, 15.0, 112.0, 0.0, 0.0, 0.0, 1.645921873528194E9, 0.0, 2022-02-27 11:31:13.528
98.0, -366.92623697832073, -3753.595501613081, -1373.9840834121806, -9564.46791463708, 47.07277382287668, 663.8244585781645, -5056.188113235011, -1167.5210198785092, -1508.9662681777797, -5122.639849500639, -3729.50032109026, -2687.573753306121, -3060.2443886094557, -1945.7640583233904, -9122.596278500114, -14309.720910754313, 0.01, -0.108, 0.988, 192.0, 0.0, 0.0, 0.0, 0.0, 0.0, 0.0, 0.0, 0.0, 0.0, 1.645921873542902E9, 0.0, 2022-02-27 11:31:13.542
100.0, -970.0210058714159, -4225.463178809068, -1879.13350810212, -10104.597819399574, -535.2572244712383, 184.22307780064082, -5496.718644704658, -1698.0843780141329, -4008.092463981207, -6194.9647897439945, -3871.500953614826, -2919.964840407949, -3074.1918771495675, -2141.9229676631653, -9588.250170737527, -15595.214437867933, 0.01, -0.108, 0.988, 192.0, 0.0, 0.0, 0.0, 0.0, 0.0, 0.0, 0.0, 0.0, 0.0, 1.645921873550316E9, 0.0, 2022-02-27 11:31:13.550
102.0, -728.1751308649934, -4030.421856692059, -1640.215711619343, -9850.100857031448, -296.58529717746944, 413.5966794010019, -5173.221847202998, -1305.4089314232983, -1046.5086753974767, -5306.237078456531, -3970.206257129462, -2744.414239455967, -3331.0804761744116, -2169.706186021112, -9178.00625300482, -14366.092010270599, 0.01, -0.108, 0.988, 192.0, 0.0, 0.0, 0.0, 0.0, 0.0, 0.0, 0.0, 0.0, 0.0, 1.645921873557708E9, 0.0, 2022-02-27 11:31:13.557
104.0, -404.7900920856109, -3781.1552025264746, -1468.3531485024869, -9664.24610188557, -44.055288321410224, 556.7819543816989, -5236.2984700558745, -1401.1638046698338, -3128.9983545539803, -5610.377265259894, -3651.179808518864, -2754.383117483034, -2902.6869419439963, -1919.9254417330555, -9350.47231322197, -14986.665843327743, 0.01, -0.108, 0.988, 192.0, 0.0, 0.0, 0.0, 0.0, 0.0, 0.0, 0.0, 0.0, 0.0, 1.645921873565582E9, 0.0, 2022-02-27 11:31:13.565
106.0, -1060.8808470822391, -4289.23270574006, -1921.937098734033, -10157.191474102912, -630.5874145731228, 159.97143506663264, -5410.26209715153, -1578.9942835562567, -2563.8344960015415, -5991.787432645254, -4083.417842795592, -2909.9736106364267, -3377.0356627745227, -2317.272402915049, -9483.644006686689, -15187.406860280857, 0.008, -0.112, 0.986, 192.0, 0.0, 32.0, 126.0, 64.0, 15.0, 104.0, 0.0, 0.0, 0.0, 1.645921873573596E9, 0.0, 2022-02-27 11:31:13.573
108.0, -320.5687189780139, -3719.754960507746, -1370.8101356995269, -9554.610795332288, 51.34195701384032, 636.130647198039, -5049.013203264857, -1181.3791014407996, -1470.8788956259366, -5117.163672109088, -3714.144672649464, -2659.09763087006, -3061.853714210238, -1945.0935059897313, -9121.299877321706, -14305.943465941367, 0.008, -0.112, 0.986, 192.0, 0.0, 0.0, 0.0, 0.0, 0.0, 0.0, 0.0, 0.0, 0.0, 1.645921873581398E9, 0.0, 2022-02-27 11:31:13.581
110.0, -917.1367784901594, -4180.469117220535, -1871.9362463875111, -10094.874810561516, -534.2737477152048, 176.48937421910458, -5489.119051589853, -1694.8657268125687, -3993.519126596347, -6181.419632604079, -3849.4397818374377, -2887.152479547558, -3070.74970850345, -2141.542988007425, -9583.46689742409, -15595.393251823576, 0.008, -0.112, 0.986, 192.0, 0.0, 0.0, 0.0, 0.0, 0.0, 0.0, 0.0, 0.0, 0.0, 1.645921873588257E9, 0.0, 2022-02-27 11:31:13.588
112.0, -692.7699676477871, -3991.8874492511095, -1642.205016875865, -9847.28453723008, -298.1946227782515, 417.61999340295716, -5196.9146963256235, -1281.358454389388, -1032.6952973240968, -5301.900840032201, -3955.297643577772, -2742.1790650104363, -3335.7296390211154, -2163.313587106894, -9181.649587351036, -14366.673155626435, 0.008, -0.112, 0.986, 192.0, 0.0, 0.0, 0.0, 0.0, 0.0, 0.0, 0.0, 0.0, 0.0, 1.64592187359533E9, 0.0, 2022-02-27 11:31:13.595
114.0, -367.5520858230693, -3752.142638223486, -1465.089793812012, -9657.987613438085, -23.782256100446716, 547.8412565995761, -5222.529795471406, -1410.4621303632416, -3100.0304937399023, -5594.663988907813, -3632.6949158543252, -2735.294727718202, -2907.5819739797084, -1904.2345171254299, -9346.583109686746, -14978.529808346011, 0.008, -0.112, 0.986, 192.0, 0.0, 0.0, 0.0, 0.0, 0.0, 0.0, 0.0, 0.0, 0.0, 1.645921873603398E9, 0.0, 2022-02-27 11:31:13.603
116.0, -1031.9353380126165, -4254.520446600967, -1924.9769359799548, -10157.750267714295, -636.8011995316982, 153.04239428548746, -5390.525506797494, -1571.1041177635334, -2579.3019031646136, -5993.866144879597, -4072.9795781349635, -2900.809395409751, -3377.52740115254, -2314.5007866025912, -9473.786887381899, -15197.91218017485, 0.008, -0.112, 0.99, 192.0, 0.0, 32.0, 126.0, 64.0, 15.0, 120.0, 0.0, 0.0, 0.0, 1.645921873609937E9, 0.0, 2022-02-27 11:31:13.609
118.0, -293.9477913317432, -3687.7249107032912, -1373.4923450341637, -9551.906234253196, 36.88037835125665, 633.8507692635977, -5055.830485323726, -1174.3159501929224, -1439.2958807105877, -5105.786634181337, -3704.0193324112097, -2653.2191220783143, -3062.591321777263, -1950.5696833812815, -9115.443720274416, -14298.567390271115, 0.008, -0.112, 0.99, 192.0, 0.0, 0.0, 0.0, 0.0, 0.0, 0.0, 0.0, 0.0, 0.0, 1.645921873617903E9, 0.0, 2022-02-27 11:31:13.617
120.0, -886.4701850974781, -4144.7957330698655, -1870.2822172978185, -10085.420022656921, -531.1221517470065, 204.94314491071046, -5490.996598124099, -1699.827814081647, -3990.747510283889, -6160.543103282822, -3836.4981217978147, -2882.0115783228375, -3063.2171706220115, -2117.1572348066848, -9584.070394524384, -15591.168772121522, 0.008, -0.112, 0.99, 192.0, 0.0, 0.0, 0.0, 0.0, 0.0, 0.0, 0.0, 0.0, 0.0, 1.645921873625943E9, 0.0, 2022-02-27 11:31:13.625
122.0, -683.0022553208179, -3977.6046845441683, -1649.5587408016613, -9845.921080818305, -300.0945210569526, 417.91056608087615, -5187.124632254199, -1298.8822220423488, -1044.0276317629375, -5299.375092908752, -3955.230588344406, -2741.3296987211347, -3327.191272639188, -2165.6828720191565, -9180.53200012827, -14374.9433010749, 0.008, -0.112, 0.99, 192.0, 0.0, 0.0, 0.0, 0.0, 0.0, 0.0, 0.0, 0.0, 0.0, 1.64592187363255E9, 0.0, 2022-02-27 11:31:13.632
124.0, -362.58999855399117, -3749.1922079553856, -1471.5941514485064, -9648.644584255766, -39.31671849688512, 547.2154077548275, -5211.264516265931, -1376.9792171691915, -3089.1228424457126, -5583.2645992356065, -3638.2157967347857, -2736.836998085618, -2904.2515640558677, -1911.4094270955834, -9345.107894552695, -14961.698944771166, 0.008, -0.112, 0.99, 192.0, 0.0, 0.0, 0.0, 0.0, 0.0, 0.0, 0.0, 0.0, 0.0, 1.645921873640582E9, 0.0, 2022-02-27 11:31:13.640
126.0, -1041.1219049837478, -4252.642900066722, -1943.5065321334043, -10154.129285112534, -646.0771734806507, 166.4310892142164, -5424.1872339471865, -1583.3975772139522, -2634.71187766932, -6016.687275968466, -4084.200153851528, -2902.0163896103372, -3379.3602441978746, -2324.7155338186662, -9487.041471843895, -15204.170668622337, 0.006, -0.106, 0.992, 192.0, 0.0, 24.0, 126.0, 88.0, 15.5, 0.0, 0.0, 0.0, 0.0, 1.64592187364854E9, 0.0, 2022-02-27 11:31:13.648
128.0, -300.8321286239778, -3679.6782826993804, -1381.2036968712446, -9553.001469731507, 40.501360953016395, 641.4503623784021, -5067.989834307413, -1183.7260346086068, -1442.6486423788838, -5097.203564310499, -3715.1281494054974, -2662.360985560535, -3066.145249145657, -1947.8651223021893, -9128.81006345869, -14290.230189589285, 0.006, -0.106, 0.992, 192.0, 0.0, 0.0, 0.0, 0.0, 0.0, 0.0, 0.0, 0.0, 0.0, 1.645921873662128E9, 0.0, 2022-02-27 11:31:13.662
130.0, -892.6392665671428, -4153.356451196248, -1872.2044673209748, -10080.145010965469, -527.523520889702, 203.46792977666018, -5466.230865267618, -1682.9075435289794, -4005.0526267352852, -6165.058155662794, -3837.369839831572, -2882.4139097230327, -3050.923711171593, -2123.9521651210985, -9581.99168229004, -15582.563350506229, 0.006, -0.106, 0.992, 192.0, 0.0, 0.0, 0.0, 0.0, 0.0, 0.0, 0.0, 0.0, 0.0, 1.645921873670176E9, 0.0, 2022-02-27 11:31:13.670
132.0, -702.4929764858457, -3997.4083301315704, -1662.9474357303902, -9858.147485035359, -322.71448644572337, 412.76966485615554, -5173.758289069926, -1294.233059195645, -1075.4988879560099, -5325.6383926437375, -3967.4569925614587, -2744.548349922699, -3335.282604132009, -2172.030767444464, -9182.364843173606, -14379.279539499228, 0.006, -0.106, 0.992, 192.0, 0.0, 0.0, 0.0, 0.0, 0.0, 0.0, 0.0, 0.0, 0.0, 1.645921873678136E9, 0.0, 2022-02-27 11:31:13.678
134.0, -362.85821948745485, -3743.626623586014, -1472.4211659933528, -9645.358877820836, -30.554834670404755, 556.200809025861, -5203.977847573501, -1391.2619818761327, -3075.980016705992, -5581.275293979084, -3640.67448862487, -2736.2335009853246, -2905.8385379121946, -1910.850633484201, -9336.033086303842, -14952.668840011222, 0.006, -0.106, 0.992, 192.0, 0.0, 0.0, 0.0, 0.0, 0.0, 0.0, 0.0, 0.0, 0.0, 1.645921873685165E9, 0.0, 2022-02-27 11:31:13.685
136.0, -1048.050945764893, -4250.1618564321825, -1946.8592938017005, -10161.930043927438, -642.903225767997, 158.16094376575276, -5419.6721815672145, -1591.4665569623182, -2674.0509479106604, -6021.649363237544, -4084.066043384796, -2908.319581546734, -3374.62167437335, -2326.391914652814, -9492.674111446633, -15219.280447874124, 0.008, -0.106, 0.99, 192.0, 0.0, 32.0, 126.0, 88.0, 15.0, 120.0, 0.0, 0.0, 0.0, 1.645921873692742E9, 0.0, 2022-02-27 11:31:13.692
138.0, -308.7893496500671, -3686.1379368469643, -1387.6857027632836, -9560.869283779775, 47.20688428960852, 646.1665804584719, -5084.239552526421, -1173.265418203523, -1434.0655725080458, -5089.62632294015, -3719.173815151908, -2667.256017596247, -3068.246313124456, -1949.2062269695077, -9123.289182578228, -14288.084422121576, 0.008, -0.106, 0.99, 192.0, 0.0, 0.0, 0.0, 0.0, 0.0, 0.0, 0.0, 0.0, 0.0, 1.645921873700794E9, 0.0, 2022-02-27 11:31:13.700
140.0, -893.6897985565423, -4148.215549971527, -1872.6738539545363, -10084.503601134253, -520.1921487083613, 192.82849941593403, -5463.459248955161, -1692.7646628337698, -4022.6881531105228, -6175.965806956984, -3837.034563664742, -2892.7851191502955, -3054.3211763287995, -2124.779179665945, -9580.851743322819, -15581.98220515039, 0.008, -0.106, 0.99, 192.0, 0.0, 0.0, 0.0, 0.0, 0.0, 0.0, 0.0, 0.0, 0.0, 1.645921873708834E9, 0.0, 2022-02-27 11:31:13.708
142.0, -717.9156801600076, -4012.3392954277156, -1670.7928980342028, -9870.798572397063, -333.8456551844663, 412.9931823007086, -5181.804917073836, -1302.4137976662873, -1100.97987663506, -5336.747209638025, -3979.057547933763, -2755.3889459835227, -3341.2281681571208, -2177.931627980665, -9183.14715422954, -14392.042385583209, 0.008, -0.106, 0.99, 192.0, 0.0, 0.0, 0.0, 0.0, 0.0, 0.0, 0.0, 0.0, 0.0, 1.645921873714926E9, 0.0, 2022-02-27 11:31:13.714
144.0, -363.2829026321057, -3744.8112660421452, -1469.604846191984, -9654.925424447707, -35.06988705037678, 553.5409514356794, -5221.948650115568, -1393.9888946996803, -3068.6039410357407, -5588.070224293498, -3647.0223840501767, -2748.1469807800036, -2907.4702152574323, -1919.2325376549409, -9332.903842080099, -14943.661086995733, 0.008, -0.106, 0.99, 192.0, 0.0, 0.0, 0.0, 0.0, 0.0, 0.0, 0.0, 0.0, 0.0, 1.645921873722416E9, 0.0, 2022-02-27 11:31:13.722
146.0, -1048.3415184428118, -4249.826580265353, -1948.1556949801084, -10175.072869667158, -655.710775340888, 149.55552215045955, -5419.493367611572, -1598.9990948437567, -2681.605837536554, -6019.123616114094, -4082.993159650941, -2941.7130877629625, -3368.966683026157, -2323.3297256624373, -9493.054091102373, -15227.930572978328, 0.012, -0.10200000000000001, 0.99, 192.0, 0.0, 48.0, 126.0, 104.0, 15.0, 120.0, 0.0, 0.0, 0.0, 1.645921873730488E9, 0.0, 2022-02-27 11:31:13.730
148.0, -314.08671308597485, -3694.2963235731513, -1392.7819004990936, -9561.65159483571, 19.647183376214908, 635.9294814979412, -5080.6856251580275, -1194.588982413886, -1447.0072325476685, -5110.949887150513, -3723.0630186871317, -2680.421195080423, -3071.241446881467, -1964.8300963437673, -9124.518528523271, -14289.760802955725, 0.012, -0.10200000000000001, 0.99, 192.0, 0.0, 0.0, 0.0, 0.0, 0.0, 0.0, 0.0, 0.0, 0.0, 1.645921873737477E9, 0.0, 2022-02-27 11:31:13.737
150.0, -875.473126825467, -4136.8161602993205, -1865.1189643286425, -10067.113943948025, -514.8724335279982, 200.6069064863809, -5491.2871708020175, -1707.4497589409066, -4030.8912433256205, -6180.07852793676, -3840.2532148663063, -2883.0174068233264, -3053.0694786393024, -2131.7752756804557, -9587.13258351476, -15588.061879642235, 0.012, -0.10200000000000001, 0.99, 192.0, 0.0, 0.0, 0.0, 0.0, 0.0, 0.0, 0.0, 0.0, 0.0, 1.6459218737451E9, 0.0, 2022-02-27 11:31:13.745
152.0, -725.2470523413483, -4008.4053884035816, -1676.246723681298, -9875.96182536624, -346.9214256908209, 389.70266457827864, -5179.390928672663, -1324.9890595661473, -1103.4832720140544, -5344.100933563821, -3972.486135063903, -2753.7125651493748, -3339.797656511981, -2194.449567133137, -9187.304578698227, -14408.917952646965, 0.012, -0.10200000000000001, 0.99, 192.0, 0.0, 0.0, 0.0, 0.0, 0.0, 0.0, 0.0, 0.0, 0.0, 1.645921873752985E9, 0.0, 2022-02-27 11:31:13.752
154.0, -356.46562057323706, -3727.9356989783882, -1465.2015525342886, -9639.614479495822, -39.71904989708065, 554.0103380692409, -5227.156606573654, -1387.998627185658, -3027.275565537878, -5557.269520434084, -3639.892177568934, -2746.9623383238722, -2909.1689478360354, -1920.9312702335442, -9327.6511821331, -14925.556173986934, 0.012, -0.10200000000000001, 0.99, 192.0, 0.0, 0.0, 0.0, 0.0, 0.0, 0.0, 0.0, 0.0, 0.0, 1.645921873761082E9, 0.0, 2022-02-27 11:31:13.761
156.0, -1059.6738528816525, -4246.518522085968, -1958.0798695182646, -10172.457715565886, -661.8798568105527, 148.348527949873, -5413.54780358646, -1617.5733944861167, -2751.8126668706736, -6035.19452037746, -4075.5947322362344, -2934.5828812817194, -3369.2125522151655, -2327.1742257087503, -9504.341722052302, -15254.462093646776, 0.006, -0.10400000000000001, 0.988, 192.0, 0.0, 24.0, 126.0, 96.0, 15.0, 112.0, 0.0, 0.0, 0.0, 1.645921873767684E9, 0.0, 2022-02-27 11:31:13.767
158.0, -330.0011551381535, -3710.5236900477043, -1401.6331913033953, -9564.199693703615, 9.834767560335107, 641.1597897004831, -5058.870322569647, -1174.6065228708414, -1390.9267057093032, -5119.801177954814, -3731.0872949465866, -2685.67385502742, -3086.3512261332544, -1979.8951721066444, -9116.695417963912, -14277.936730138867, 0.006, -0.10400000000000001, 0.988, 192.0, 0.0, 0.0, 0.0, 0.0, 0.0, 0.0, 0.0, 0.0, 0.0, 1.645921873775578E9, 0.0, 2022-02-27 11:31:13.775
160.0, -863.2020191195035, -4128.05427647284, -1853.5184089563381, -10055.781609509184, -496.879279241476, 230.42413358976052, -5472.690519415202, -1695.178651234943, -4024.006906033386, -6162.711222494987, -3823.020019891265, -2870.120450272614, -3048.1744466035902, -2113.469196971559, -9577.856609565808, -15574.449667268953, 0.006, -0.10400000000000001, 0.988, 192.0, 0.0, 0.0, 0.0, 0.0, 0.0, 0.0, 0.0, 0.0, 0.0, 1.645921873790751E9, 0.0, 2022-02-27 11:31:13.790
162.0, -737.6969740029543, -4000.6716848220453, -1684.8074418076806, -9885.662482459842, -354.23044612770633, 387.0875104770077, -5202.279114994898, -1324.0055828101138, -1130.1936066381463, -5333.282689247452, -3970.83210597421, -2753.5337511937323, -3343.2398251580985, -2185.151241439729, -9198.480450925881, -14426.486423788838, 0.006, -0.10400000000000001, 0.988, 192.0, 0.0, 0.0, 0.0, 0.0, 0.0, 0.0, 0.0, 0.0, 0.0, 1.645921873797375E9, 0.0, 2022-02-27 11:31:13.797
164.0, -354.8115914835443, -3718.7491320072572, -1461.2452937656992, -9638.318078317414, -26.576224157360098, 551.618701412523, -5213.253821522453, -1393.6536185328507, -2993.9044110661043, -5531.1403311658305, -3631.443218164828, -2740.547387665199, -2900.4294157540103, -1916.907956231589, -9319.269277962361, -14914.089729081361, 0.008, -0.10500000000000001, 0.986, 192.0, 0.0, 40.0, 126.0, 88.0, 15.0, 96.0, 0.0, 0.0, 0.0, 1.645921873805335E9, 0.0, 2022-02-27 11:31:13.805
166.0, -1058.0868790253257, -4254.587501834333, -1954.0118520273986, -10170.669576009463, -664.3385487006365, 148.92967330571096, -5418.666353066726, -1605.1681763134213, -2725.1693874799475, -6041.967098947418, -4073.9183514020865, -2949.402087855588, -3370.6207121158495, -2319.6416878273117, -9501.570105739846, -15245.320230164556, 0.008, -0.10500000000000001, 0.986, 192.0, 0.0, 0.0, 0.0, 0.0, 0.0, 0.0, 0.0, 0.0, 0.0, 1.645921873813341E9, 0.0, 2022-02-27 11:31:13.813
168.0, -328.90591965984345, -3715.1057976610423, -1399.8450517469707, -9565.071411737372, 7.957221026089314, 632.6661268074664, -5070.403822708586, -1185.6035811428526, -1405.5670983275293, -5107.328904548754, -3724.694696032369, -2675.2355903667917, -3084.048996454358, -1947.976881024466, -9124.18325235644, -14278.473172005793, 0.008, -0.10500000000000001, 0.986, 192.0, 0.0, 0.0, 0.0, 0.0, 0.0, 0.0, 0.0, 0.0, 0.0, 1.645921873820445E9, 0.0, 2022-02-27 11:31:13.820
170.0, -888.7724147763747, -4162.341852467282, -1860.9391881155002, -10075.048813229658, -510.37973289248146, 197.1870895847189, -5474.053975826976, -1704.499328672806, -4037.328545728749, -6172.9483214555175, -3828.3173833271726, -2878.7705753768178, -3053.762382717417, -2117.604269695791, -9583.869228824286, -15583.770344706816, 0.008, -0.10500000000000001, 0.986, 192.0, 0.0, 0.0, 0.0, 0.0, 0.0, 0.0, 0.0, 0.0, 0.0, 1.645921873828023E9, 0.0, 2022-02-27 11:31:13.828
172.0, -754.349023622158, -4034.6910398830228, -1674.8162120361583, -9887.070642360526, -348.4189925693265, 383.17595519732896, -5204.290771995875, -1330.9569753357143, -1118.6377547547527, -5359.8589134048125, -3977.9623124554532, -2766.4307077444446, -3347.553711837973, -2190.0015699865307, -9197.184049747473, -14422.887792931533, 0.008, -0.10500000000000001, 0.986, 192.0, 0.0, 0.0, 0.0, 0.0, 0.0, 0.0, 0.0, 0.0, 0.0, 1.645921873835951E9, 0.0, 2022-02-27 11:31:13.835
174.0, -409.0816270210299, -3789.760624141768, -1457.1772762748333, -9646.76703772152, -30.107799781298613, 548.0871257885844, -5202.055597550345, -1389.2056213862445, -3014.7138851539953, -5566.701956594224, -3644.943671815833, -2748.9069400914836, -2911.6499914705746, -1911.364723606673, -9329.953411811997, -14930.250040322548, 0.011, -0.10450000000000001, 0.987, 192.0, 0.0, 56.0, 126.0, 96.0, 15.0, 112.0, 0.0, 0.0, 0.0, 1.645921873843088E9, 0.0, 2022-02-27 11:31:13.843
176.0, -1158.3568046518333, -4374.325796881413, -1953.5648171382925, -10187.120459928568, -664.9196940564746, 138.13378073379764, -5438.201777720664, -1615.5393857406839, -2786.9496091544165, -6084.569523879233, -4091.3974155661367, -2945.4234773425433, -3367.647930103294, -2325.3190309189595, -9507.6944837206, -15273.304614222601, 0.011, -0.10450000000000001, 0.987, 192.0, 0.0, 0.0, 0.0, 0.0, 0.0, 0.0, 0.0, 0.0, 0.0, 1.645921873849616E9, 0.0, 2022-02-27 11:31:13.849
178.0, -486.0610349251074, -3866.5388663457475, -1397.4087116013422, -9576.113173498294, 28.54317766942712, 630.2297866618379, -5069.174476763544, -1190.5433166674754, -1421.3250781685208, -5145.505684078417, -3753.5060946352596, -2701.0295034682163, -3081.433842353087, -1951.0837735037535, -9123.646810489514, -14288.01736688821, 0.011, -0.10450000000000001, 0.987, 192.0, 0.0, 0.0, 0.0, 0.0, 0.0, 0.0, 0.0, 0.0, 0.0, 1.645921873858322E9, 0.0, 2022-02-27 11:31:13.858
180.0, -1100.5775452348644, -4355.460924561135, -1867.0188626073436, -10068.767973037717, -506.6693433129005, 224.07623816445331, -5473.003443837577, -1698.4643576698732, -4089.47516554298, -6196.395301389134, -3870.0257384807755, -2931.073657402236, -3048.621481492696, -2095.6995601295903, -9581.723461356576, -15581.55752200574, 0.011, -0.10450000000000001, 0.987, 192.0, 0.0, 0.0, 0.0, 0.0, 0.0, 0.0, 0.0, 0.0, 0.0, 1.645921873865744E9, 0.0, 2022-02-27 11:31:13.865
182.0, -989.3999683141672, -4253.536969844934, -1688.6519418539933, -9885.058985359548, -344.8203617120221, 414.5578044125801, -5196.579420158794, -1314.126111760868, -1198.2099650156458, -5404.249477893052, -4045.0846010547402, -2819.9184322259944, -3355.9132642642576, -2167.3369011088494, -9197.273456725296, -14415.936400405932, 0.011, -0.10450000000000001, 0.987, 192.0, 0.0, 0.0, 0.0, 0.0, 0.0, 0.0, 0.0, 0.0, 0.0, 1.645921873872873E9, 0.0, 2022-02-27 11:31:13.872
184.0, -612.5272050532348, -3988.0429492047965, -1467.6155409354617, -9649.873930200807, -17.702581608603193, 572.0481958446736, -5201.6085626612385, -1387.2833713630882, -3083.6019615652517, -5605.169308801807, -3714.435245327383, -2815.537490312754, -2912.8122821822503, -1888.0295023953322, -9325.438359432026, -14914.425005248191, 0.0125, -0.10625000000000001, 0.9835, 192.0, 0.0, 56.0, 126.0, 80.0, 15.0, 80.0, 0.0, 0.0, 0.0, 1.645921873880965E9, 0.0, 2022-02-27 11:31:13.880
186.0, -1318.2835362295552, -4520.260336430113, -1970.0380528018538, -10196.217619921877, -656.4260311634578, 137.0608969999429, -5431.853882295356, -1617.3945805304743, -2859.5927786341645, -6125.428512743534, -4146.24859645946, -2999.0229605463696, -3373.0794040059336, -2314.7466557915996, -9515.204669857583, -15275.606843901498, 0.0125, -0.10625000000000001, 0.9835, 192.0, 0.0, 0.0, 0.0, 0.0, 0.0, 0.0, 0.0, 0.0, 0.0, 1.645921873888295E9, 0.0, 2022-02-27 11:31:13.888
188.0, -581.6147424715451, -3947.8545126741546, -1417.0782467220124, -9588.5630951599, 10.19239547162002, 621.9596412133743, -5082.049081569801, -1193.002008557559, -1467.995520591202, -5181.447289162551, -3801.2494207917957, -2749.7563063807856, -3103.13738621919, -1975.491878448949, -9131.38051407105, -14284.441087775362, 0.0125, -0.10625000000000001, 0.9835, 192.0, 0.0, 0.0, 0.0, 0.0, 0.0, 0.0, 0.0, 0.0, 0.0, 1.645921873896333E9, 0.0, 2022-02-27 11:31:13.896
190.0, -1092.8661933977835, -4362.926407209206, -1863.8002114057795, -10075.2276271853, -507.98809623576363, 209.07821763494226, -5496.048092370998, -1709.5061194307948, -4116.029037955885, -6228.626516893687, -3885.649607855035, -2953.961843724471, -3058.74682173095, -2121.381714508738, -9588.026653292973, -15587.793658708772, 0.0125, -0.10625000000000001, 0.9835, 192.0, 0.0, 0.0, 0.0, 0.0, 0.0, 0.0, 0.0, 0.0, 0.0, 1.645921873910127E9, 0.0, 2022-02-27 11:31:13.910
192.0, -947.8704271162067, -4222.937431685618, -1695.4468721684066, -9902.158069867859, -360.7348037642007, 393.6812750913233, -5217.947687858068, -1334.64501317084, -1208.7376366540952, -5429.2387281940855, -4046.001022577408, -2819.8737287370836, -3367.782040570026, -2182.9160669941984, -9209.857488853633, -14435.963563437888, 0.0125, -0.10625000000000001, 0.9835, 192.0, 0.0, 0.0, 0.0, 0.0, 0.0, 0.0, 0.0, 0.0, 0.0, 1.645921873918404E9, 0.0, 2022-02-27 11:31:13.918
194.0, -530.4739511578025, -3900.938201062465, -1461.446459465797, -9647.325831332902, -13.612212373282, 566.5496667086682, -5225.882557139702, -1391.641961531873, -3043.726449456984, -5594.06049180752, -3702.6782277438915, -2799.198365115925, -2928.6820207455185, -1885.3472930606954, -9330.266336234372, -14912.793327902953, 0.01225, -0.106125, 0.98575, 192.0, 0.0, 48.0, 126.0, 88.0, 15.0, 112.0, 0.0, 0.0, 0.0, 1.645921873926053E9, 0.0, 2022-02-27 11:31:13.926
196.0, -1235.8950061672933, -4457.5413414885215, -1967.355843467217, -10192.082547197646, -667.2219237353711, 140.95010053516634, -5445.376687690818, -1626.7376097127926, -2863.5490374027536, -6125.272050532348, -4129.10480846224, -2978.4593556474874, -3382.869468077358, -2340.1605892372836, -9526.537004296422, -15287.095640551524, 0.01225, -0.106125, 0.98575, 192.0, 0.0, 0.0, 0.0, 0.0, 0.0, 0.0, 0.0, 0.0, 0.0, 1.64592187393294E9, 0.0, 2022-02-27 11:31:13.932
198.0, -483.4011773349258, -3868.7069855579125, -1408.5398803400851, -9589.367757960292, 12.47227340606134, 626.6088040600782, -5088.419328739564, -1216.0019536020702, -1423.5379008695961, -5181.313178695819, -3778.4729931918378, -2715.9828205088165, -3104.009104252947, -1965.1877242550522, -9126.999572157809, -14286.095116865054, 0.01225, -0.106125, 0.98575, 192.0, 0.0, 0.0, 0.0, 0.0, 0.0, 0.0, 0.0, 0.0, 0.0, 1.645921873940512E9, 0.0, 2022-02-27 11:31:13.940
200.0, -988.7070642360526, -4252.553493088901, -1855.9994525908774, -10074.668833573918, -485.1222616579845, 211.4251508027495, -5484.089909087409, -1714.7364276333367, -4075.795897936332, -6209.225202706481, -3861.845000010133, -2931.0066021688704, -3049.046164637347, -2107.188356779618, -9582.23755147905, -15584.37384180711, 0.01225, -0.106125, 0.98575, 192.0, 0.0, 0.0, 0.0, 0.0, 0.0, 0.0, 0.0, 0.0, 0.0, 1.64592187394862E9, 0.0, 2022-02-27 11:31:13.948
202.0, -835.5529112282886, -4113.8609187437205, -1680.4488516388956, -9901.755738467662, -344.79800996756677, 390.1496994673848, -5227.603641462761, -1334.9132341043037, -1156.9039412622383, -5389.609085274826, -4007.645429092101, -2800.3606558276006, -3359.5118951215622, -2188.951037997131, -9211.064483054219, -14441.797368740723, 0.01225, -0.106125, 0.98575, 192.0, 0.0, 0.0, 0.0, 0.0, 0.0, 0.0, 0.0, 0.0, 0.0, 1.645921873955196E9, 0.0, 2022-02-27 11:31:13.955
204.0, -429.0864383085297, -3808.13375808403, -1443.7438778571939, -9639.212148095627, -1.2293459450418884, 559.9782538388079, -5218.908812869646, -1383.193002127767, -2971.73148056644, -5557.448334389727, -3652.2526922527186, -2772.130402580548, -2908.2078228244573, -1900.8594037126786, -9330.869833334666, -14910.491098224056, 0.009125000000000001, -0.1060625, 0.986875, 192.0, 0.0, 24.0, 126.0, 88.0, 15.0, 112.0, 0.0, 0.0, 0.0, 1.645921873962229E9, 0.0, 2022-02-27 11:31:13.962
206.0, -1148.9467202361488, -4363.686366520687, -1955.9117503060997, -10201.157355446501, -661.5222288992678, 135.7421440770798, -5435.810141063946, -1640.7968569751808, -2836.570481845198, -6104.127300277627, -4095.800709223832, -2957.091087948214, -3370.9783400271344, -2317.495920359602, -9518.803300714886, -15295.924579611372, 0.009125000000000001, -0.1060625, 0.986875, 192.0, 0.0, 0.0, 0.0, 0.0, 0.0, 0.0, 0.0, 0.0, 0.0, 1.645921873970212E9, 0.0, 2022-02-27 11:31:13.970
208.0, -417.1506067693957, -3791.682874164924, -1403.5330895820964, -9603.069377311394, -0.7599593114804402, 615.0082486877739, -5081.222067024954, -1211.0845698219025, -1370.676025232795, -5135.1121229067, -3758.5799406266146, -2705.5892593370986, -3098.6446855836734, -1952.1566572376082, -9122.305705822195, -14285.692785464858, 0.009125000000000001, -0.1060625, 0.986875, 192.0, 0.0, 0.0, 0.0, 0.0, 0.0, 0.0, 0.0, 0.0, 0.0, 1.64592187397824E9, 0.0, 2022-02-27 11:31:13.978
210.0, -927.5750431507878, -4193.075501093328, -1854.680699668014, -10072.903045761948, -515.8335585395764, 199.84694717490044, -5481.765327664057, -1727.9239568619678, -4055.187589548539, -6178.491554080433, -3843.3377556011387, -2920.411875297055, -3052.756554216928, -2094.872545584744, -9587.244342237038, -15587.726603475405, 0.009125000000000001, -0.1060625, 0.986875, 192.0, 0.0, 0.0, 0.0, 0.0, 0.0, 0.0, 0.0, 0.0, 0.0, 1.645921873984804E9, 0.0, 2022-02-27 11:31:13.984
212.0, -807.0097335588615, -4082.7919939508433, -1697.1009012580994, -9900.973427411727, -382.0583679745636, 370.45781260225925, -5224.630859450204, -1344.5244842200857, -1158.781487796484, -5391.620742275803, -4008.964182014964, -2783.1721643414694, -3380.6566453762825, -2183.988950728053, -9220.787491892277, -14453.219110157384, 0.009125000000000001, -0.1060625, 0.986875, 192.0, 0.0, 0.0, 0.0, 0.0, 0.0, 0.0, 0.0, 0.0, 0.0, 1.645921873992826E9, 0.0, 2022-02-27 11:31:13.992
214.0, -383.6006383419798, -3766.023071530232, -1446.7166598697497, -9630.897299158252, -19.46836942057245, 549.8976170894643, -5213.320876755819, -1405.3659326274317, -2943.9706139529485, -5544.327860394462, -3655.113715542998, -2748.5046086912885, -2928.6596690010633, -1889.0576826402764, -9331.249812990405, -14903.89733360974, 0.0085625, -0.10603125, 0.9874375, 192.0, 0.0, 32.0, 126.0, 88.0, 15.0, 112.0, 0.0, 0.0, 0.0, 1.645921874000763E9, 0.0, 2022-02-27 11:31:14.000
216.0, -1111.5969552513309, -4322.313287533914, -1962.617273642692, -10195.502364099308, -683.4716419543794, 122.21933868161902, -5455.725545373624, -1655.3254908711303, -2862.8337815801838, -6077.81929705373, -4095.9795231794747, -2951.257282645379, -3376.320406951953, -2321.854510528387, -9537.154082912693, -15312.777794930673, 0.0085625, -0.10603125, 0.9874375, 192.0, 0.0, 0.0, 0.0, 0.0, 0.0, 0.0, 0.0, 0.0, 0.0, 1.645921874007898E9, 0.0, 2022-02-27 11:31:14.007
218.0, -374.7269957932229, -3755.4506964028715, -1406.125891938912, -9589.054833537917, -17.12143625276521, 612.8848329645197, -5095.549535220806, -1208.5364709539977, -1349.93360637827, -5121.5446140223285, -3755.5401033806925, -2691.8876399859955, -3118.068351515335, -1963.421936443083, -9133.593336772125, -14281.624767973992, 0.0085625, -0.10603125, 0.9874375, 192.0, 0.0, 0.0, 0.0, 0.0, 0.0, 0.0, 0.0, 0.0, 0.0, 1.645921874015517E9, 0.0, 2022-02-27 11:31:14.015
220.0, -865.5936557762213, -4138.894872533664, -1833.7594668578467, -10055.848664742549, -502.6907327998558, 223.763313742079, -5503.066540129965, -1730.8967388745236, -4022.062304265774, -6152.07179213426, -3815.6662959654686, -2882.1009853006585, -3043.435876779065, -2085.9541995470763, -9591.13354577226, -15581.959853405937, 0.0085625, -0.10603125, 0.9874375, 192.0, 0.0, 0.0, 0.0, 0.0, 0.0, 0.0, 0.0, 0.0, 0.0, 1.645921874023498E9, 0.0, 2022-02-27 11:31:14.023
222.0, -767.156573195049, -4036.546234672813, -1685.723863330348, -9906.114328636448, -380.3596353959603, 369.3402253794939, -5233.616260721238, -1370.4748595326973, -1143.9846329670709, -5380.422518303695, -3989.9428474834976, -2774.410280514989, -3370.2407324601095, -2180.0773954483743, -9226.911869873033, -14464.931424251965, 0.0085625, -0.10603125, 0.9874375, 192.0, 0.0, 0.0, 0.0, 0.0, 0.0, 0.0, 0.0, 0.0, 0.0, 1.645921874037496E9, 0.0, 2022-02-27 11:31:14.037
224.0, -350.0730216590192, -3736.652879315958, -1433.9761655302245, -9631.970182892106, -30.89011083723436, 545.5390269206795, -5224.496748983473, -1420.5427671125851, -2921.7529799643735, -5514.108301890887, -3646.664756138892, -2742.536692921721, -2928.7043724899736, -1896.523165288349, -9333.775560113854, -14906.221915033093, 0.00728125, -0.105015625, 0.98771875, 192.0, 0.0, 24.0, 126.0, 96.0, 15.0, 112.0, 0.0, 0.0, 0.0, 1.6459218740451E9, 0.0, 2022-02-27 11:31:14.045
226.0, -1079.365739746778, -4288.539801661945, -1957.7892968403455, -10195.278846654755, -690.6242001800777, 117.0784374568984, -5477.540847962004, -1671.9998922347895, -2856.7764588327955, -6089.06222451475, -4077.0475956258297, -2924.1222648766357, -3375.5380958960172, -2310.79039702301, -9545.6030423168, -15327.2170218488, 0.00728125, -0.105015625, 0.98771875, 192.0, 0.0, 0.0, 0.0, 0.0, 0.0, 0.0, 0.0, 0.0, 0.0, 1.645921874053053E9, 0.0, 2022-02-27 11:31:14.053
228.0, -352.28584436009464, -3725.1640826659304, -1403.354275626454, -9590.6641591387, -23.938718311633863, 596.2774868342265, -5118.616535498683, -1244.7239452271397, -1317.098893773424, -5105.652523714605, -3741.8161322851342, -2675.682625255898, -3115.6767148586173, -1958.549256151826, -9141.304688609205, -14285.73748895377, 0.00728125, -0.105015625, 0.98771875, 192.0, 0.0, 0.0, 0.0, 0.0, 0.0, 0.0, 0.0, 0.0, 0.0, 1.645921874061135E9, 0.0, 2022-02-27 11:31:14.061
230.0, -847.1087631116824, -4110.731674519977, -1831.7925133457798, -10055.871016487004, -509.99975323674124, 205.56899375545905, -5518.846871715412, -1740.1950645679315, -4013.0769029947405, -6127.97661161144, -3806.5467842277035, -2880.4022527220554, -3040.083115110769, -2081.0368157669086, -9597.727310386575, -15588.151286620056, 0.00728125, -0.105015625, 0.98771875, 192.0, 0.0, 0.0, 0.0, 0.0, 0.0, 0.0, 0.0, 0.0, 0.0, 1.645921874067588E9, 0.0, 2022-02-27 11:31:14.067
232.0, -761.3674713811245, -4032.835845093232, -1696.8773838135462, -9908.774186226628, -398.8221763160439, 353.2022658827622, -5224.005010605456, -1373.8946764343593, -1154.2887871609673, -5378.634378747271, -3996.581315586724, -2769.515248479277, -3376.7227383521486, -2187.341712396349, -9236.612526966635, -14478.834209303166, 0.00728125, -0.105015625, 0.98771875, 192.0, 0.0, 0.0, 0.0, 0.0, 0.0, 0.0, 0.0, 0.0, 0.0, 1.64592187407579E9, 0.0, 2022-02-27 11:31:14.075
234.0, -303.9166693588101, -3692.441128783361, -1427.0247730046242, -9611.80890939342, -22.061171777388072, 550.9481490788638, -5246.356755060763, -1409.2104326737444, -2867.952331060449, -5502.619505240858, -3629.1409884859313, -2714.9769920083277, -2926.536253277809, -1911.5882410512259, -9332.255641490894, -14889.18988575815, 0.004, -0.108, 0.988, 192.0, 0.0, 16.0, 126.0, 80.0, 15.0, 112.0, 0.0, 0.0, 0.0, 1.645921874083718E9, 0.0, 2022-02-27 11:31:14.083
236.0, -1051.7836870889291, -4254.542798345423, -1956.805820084312, -10190.137945430035, -689.9759995908737, 123.67220207121397, -5483.352301520384, -1661.8298485076248, -2859.212798978424, -6063.692994557977, -4049.622005179168, -2903.603363466664, -3363.356395167875, -2290.0256264240297, -9558.745868056521, -15336.068312653104, 0.004, -0.108, 0.988, 192.0, 0.0, 0.0, 0.0, 0.0, 0.0, 0.0, 0.0, 0.0, 0.0, 1.645921874089865E9, 0.0, 2022-02-27 11:31:14.089
238.0, -359.9748444527202, -3709.763730736224, -1411.8255867750154, -9597.772013875487, -23.20111074460873, 611.8790044640308, -5090.878020629647, -1222.752180427573, -1312.874414071371, -5084.217200781965, -3743.201940441363, -2666.160782117937, -3122.3598864507544, -1946.6357763571475, -9143.741028754834, -14277.467343505305, 0.004, -0.108, 0.988, 192.0, 0.0, 0.0, 0.0, 0.0, 0.0, 0.0, 0.0, 0.0, 0.0, 1.645921874097455E9, 0.0, 2022-02-27 11:31:14.097
240.0, -844.5830159882327, -4104.540241305857, -1825.9587080429446, -10052.048868185148, -503.2718781556938, 208.1617961122747, -5481.921789875244, -1744.3301372921633, -4035.1380747721287, -6118.365361495657, -3813.94521164241, -2887.3983487365663, -3055.595225762752, -2102.94152533311, -9589.121888771282, -15579.635271982585, 0.004, -0.108, 0.988, 192.0, 0.0, 0.0, 0.0, 0.0, 0.0, 0.0, 0.0, 0.0, 0.0, 1.645921874105375E9, 0.0, 2022-02-27 11:31:14.105
242.0, -768.028291228806, -4023.2469467219053, -1697.7938053362138, -9923.124006166936, -411.5403189111136, 347.2119983687399, -5263.7687639914475, -1392.2007551432557, -1176.5734763829084, -5394.861745221823, -3999.1070627101735, -2775.639626460031, -3388.6585698912827, -2202.1162154813073, -9235.53964323278, -14490.501819908837, 0.004, -0.108, 0.988, 192.0, 0.0, 0.0, 0.0, 0.0, 0.0, 0.0, 0.0, 0.0, 0.0, 1.645921874113335E9, 0.0, 2022-02-27 11:31:14.113
244.0, -311.31509677351676, -3684.573314735093, -1425.3260404260209, -9621.151938575738, -23.111703766787503, 553.5633031801348, -5254.895121442691, -1409.031618718102, -2859.212798978424, -5469.963606591655, -3635.24301472223, -2727.3822101810233, -2939.544968550798, -1897.685456000025, -9329.349914711704, -14879.735097853554, 0.008, -0.112, 0.986, 192.0, 0.0, 32.0, 126.0, 64.0, 15.0, 104.0, 0.0, 0.0, 0.0, 1.645921874120122E9, 0.0, 2022-02-27 11:31:14.120
246.0, -1062.1772482606468, -4262.790592049431, -1966.3723667111835, -10197.73753854484, -687.2714385117815, 106.6625245407253, -5457.513684930049, -1663.215656663854, -2928.726724234429, -6091.900896060574, -4068.866857155187, -2923.7646369653507, -3379.740223853615, -2322.3909523953143, -9554.052001720906, -15347.512405814221, 0.008, -0.112, 0.986, 192.0, 0.0, 0.0, 0.0, 0.0, 0.0, 0.0, 0.0, 0.0, 0.0, 1.645921874127985E9, 0.0, 2022-02-27 11:31:14.127
248.0, -331.23050108319535, -3688.3954630369503, -1407.7575692841494, -9593.994569062539, -36.14277078423152, 615.969373699352, -5137.906090963614, -1228.9883171306035, -1286.0523207250026, -5075.611779166673, -3746.912330020944, -2664.6632152394313, -3139.838950614804, -1974.553105181826, -9138.890700208032, -14278.808448172624, 0.008, -0.112, 0.986, 192.0, 0.0, 0.0, 0.0, 0.0, 0.0, 0.0, 0.0, 0.0, 0.0, 1.64592187413605E9, 0.0, 2022-02-27 11:31:14.136
250.0, -812.9329458395179, -4084.3789678071703, -1816.459216649439, -10042.214100624813, -480.1154708999957, 201.00923788657641, -5487.710891689168, -1735.4117912544957, -4008.673609337045, -6101.44509094299, -3789.1571270414743, -2867.4829444268876, -3038.2279203209782, -2065.7035190705683, -9588.428984693168, -15577.690670214972, 0.008, -0.112, 0.986, 192.0, 0.0, 0.0, 0.0, 0.0, 0.0, 0.0, 0.0, 0.0, 0.0, 1.645921874143096E9, 0.0, 2022-02-27 11:31:14.143
252.0, -754.6619480445323, -4024.610403133679, -1703.5158519167724, -9926.67793353533, -410.4897869217142, 340.0370883985863, -5214.12553955621, -1373.4029380563425, -1185.8941538207714, -5392.134832398276, -3993.899106252087, -2773.091527592126, -3392.9948083156123, -2201.4009596587375, -9233.706800187445, -14498.950779312943, 0.008, -0.112, 0.986, 192.0, 0.0, 0.0, 0.0, 0.0, 0.0, 0.0, 0.0, 0.0, 0.0, 1.645921874157529E9, 0.0, 2022-02-27 11:31:14.157
254.0, -308.16350080531845, -3694.341027062062, -1431.4504184067748, -9619.162633319216, -27.09031427983216, 583.5816959836121, -5212.180937788598, -1392.8489557324597, -2848.014575006315, -5490.616618468359, -3636.2711949671743, -2730.936137549417, -2949.8491227446943, -1908.8166247387678, -9319.068112262263, -14867.598100614323, 0.006, -0.108, 0.988, 192.0, 0.0, 24.0, 126.0, 80.0, 15.0, 112.0, 0.0, 0.0, 0.0, 1.64592187416558E9, 0.0, 2022-02-27 11:31:14.165
0.0, -1051.5154661554654, -4258.052022224906, -1964.070137032287, -10203.347826403122, -694.6028106931223, 117.81604502392352, -5500.071406372954, -1718.9832590798449, -2940.148465651091, -6089.978646037418, -4068.486877499447, -2921.4847590309096, -3393.486546693629, -2315.1042837028845, -9555.214292432582, -15357.481283841287, 0.006, -0.108, 0.988, 192.0, 0.0, 0.0, 0.0, 0.0, 0.0, 0.0, 0.0, 0.0, 0.0, 1.64592187417287E9, 0.0, 2022-02-27 11:31:14.172
2.0, -339.3665360649271, -3699.7501492202464, -1419.447531634275, -9607.249153524537, -34.68990739463656, 582.6429227164892, -5108.446491771519, -1215.4655117351429, -1296.5129371300861, -5075.43296521103, -3744.1630654529413, -2677.67193051242, -3140.5989099262847, -1978.5093639504153, -9139.941232197432, -14285.670433720403, 0.006, -0.108, 0.988, 192.0, 0.0, 0.0, 0.0, 0.0, 0.0, 0.0, 0.0, 0.0, 0.0, 1.645921874180225E9, 0.0, 2022-02-27 11:31:14.180
4.0, -811.7035998944759, -4083.6860637290556, -1832.0607342792434, -10054.664022286419, -508.233965424772, 199.15404309678593, -5501.300752317996, -1727.5886806951382, -4030.734781114433, -6099.098157775183, -3808.5360894842256, -2896.562563963242, -3067.240484623967, -2102.449786955093, -9593.346368473336, -15573.734411446383, 0.006, -0.108, 0.988, 192.0, 0.0, 0.0, 0.0, 0.0, 0.0, 0.0, 0.0, 0.0, 0.0, 1.645921874188266E9, 0.0, 2022-02-27 11:31:14.188
6.0, -766.642483072577, -4044.0117173208855, -1721.7325236478478, -9936.49034935121, -432.05922032108555, 311.4492072402486, -5274.877580985735, -1410.70799955225, -1208.7599883985506, -5434.871367796823, -4011.959315771975, -2782.255742818802, -3418.632259205849, -2228.983012316586, -9245.285003815294, -14509.947837584954, 0.006, -0.108, 0.988, 192.0, 0.0, 0.0, 0.0, 0.0, 0.0, 0.0, 0.0, 0.0, 0.0, 1.645921874195453E9, 0.0, 2022-02-27 11:31:14.195
8.0, -311.113931073419, -3707.8414807130675, -1433.5738341300291, -9630.830243924886, -37.55093068491586, 538.1405995059729, -5250.491827784995, -1403.3095721375432, -2841.7113830699186, -5511.873127445356, -3653.727907386769, -2737.060515530171, -2966.7470415529065, -1925.2675086578738, -9325.192490243016, -14868.358059925802, 0.012, -0.108, 0.988, 192.0, 0.0, 48.0, 126.0, 80.0, 15.0, 112.0, 0.0, 0.0, 0.0, 1.645921874202823E9, 0.0, 2022-02-27 11:31:14.202
10.0, -1066.8711145962614, -4277.967426534585, -1974.6201604151918, -10222.793844079239, -718.2733080712925, 89.29521909895172, -5484.112260831865, -1689.590715121116, -2987.0647772627804, -6132.245794802403, -4078.701624715522, -2958.5439513378087, -3390.245543747609, -2330.281118188038, -9560.668118079677, -15379.318938174123, 0.012, -0.108, 0.988, 192.0, 0.0, 0.0, 0.0, 0.0, 0.0, 0.0, 0.0, 0.0, 0.0, 1.645921874209961E9, 0.0, 2022-02-27 11:31:14.209
12.0, -347.32375709101643, -3708.6461435134584, -1423.3143834250432, -9620.973124620095, -48.70445116811409, 586.3533122960702, -5103.730273691449, -1228.4295235192208, -1283.7053875571953, -5103.663218458083, -3769.4652401763487, -2705.6563145704645, -3161.922474136648, -1987.58417219927, -9132.47574954936, -14275.567445226605, 0.012, -0.108, 0.988, 192.0, 0.0, 0.0, 0.0, 0.0, 0.0, 0.0, 0.0, 0.0, 0.0, 1.645921874217999E9, 0.0, 2022-02-27 11:31:14.217
14.0, -807.702637636976, -4082.769642206388, -1825.8022458317573, -10052.674717029897, -496.8345757525654, 211.4475025472048, -5494.841098170412, -1728.3933434955293, -4018.6201356196566, -6122.992172597907, -3799.908316124477, -2885.7219679024183, -3056.131667629679, -2101.734531132523, -9580.203542733616, -15566.89477764306, 0.012, -0.108, 0.988, 192.0, 0.0, 0.0, 0.0, 0.0, 0.0, 0.0, 0.0, 0.0, 0.0, 1.645921874225162E9, 0.0, 2022-02-27 11:31:14.225
16.0, -766.3966138835685, -4030.935946814531, -1719.273831757764, -9939.552538341588, -418.7822841146331, 345.2226931122176, -5249.1507231176765, -1391.9772376987025, -1216.270174535534, -5428.7693415605245, -4009.902955282087, -2786.4355190319443, -3414.1842620592433, -2217.58362264438, -9243.563919492235, -14506.371558472105, 0.012, -0.108, 0.988, 192.0, 0.0, 0.0, 0.0, 0.0, 0.0, 0.0, 0.0, 0.0, 0.0, 1.645921874232626E9, 0.0, 2022-02-27 11:31:14.232
18.0, -317.48417824318153, -3708.2214603688076, -1434.8478835639817, -9628.505662501533, -17.43436067513951, 560.2911782611822, -5188.152812499144, -1390.5914295424736, -2831.094304453648, -5489.834307412423, -3648.542302673138, -2746.872931346051, -2958.8345240157278, -1915.2092236529857, -9311.93790578102, -14855.349344652814, 0.012, -0.108, 0.986, 192.0, 0.0, 48.0, 126.0, 80.0, 15.0, 104.0, 0.0, 0.0, 0.0, 1.645921874240696E9, 0.0, 2022-02-27 11:31:14.240
20.0, -1081.9361903591384, -4289.143298762238, -1977.3470732387393, -10218.904640544015, -702.1129968301054, 111.4010943652504, -5467.057879812465, -1671.888133512513, -2999.537050668842, -6131.7987599132975, -4081.942627661542, -2959.058041460281, -3388.032721046534, -2331.242243199616, -9553.98494648754, -15365.393801378466, 0.012, -0.108, 0.986, 192.0, 0.0, 0.0, 0.0, 0.0, 0.0, 0.0, 0.0, 0.0, 0.0, 1.645921874248628E9, 0.0, 2022-02-27 11:31:14.248
22.0, -377.40920512785976, -3748.7004695773685, -1423.6273078474173, -9623.990610121562, -38.55675918540468, 588.9461146528857, -5091.570924707762, -1224.3838577728102, -1303.844309311427, -5126.126721635666, -3768.325301209128, -2708.7855587942076, -3151.975947854036, -1989.4170152446052, -9129.346505325617, -14272.214683558308, 0.012, -0.108, 0.986, 192.0, 0.0, 0.0, 0.0, 0.0, 0.0, 0.0, 0.0, 0.0, 0.0, 1.645921874255312E9, 0.0, 2022-02-27 11:31:14.255
24.0, -830.1437890701043, -4101.992142437952, -1815.587498615682, -10047.824388483095, -470.43716555084774, 225.84202597642255, -5477.563199706459, -1708.0756077856552, -4042.871778353665, -6144.203978085992, -3815.465130265371, -2912.9687443934376, -3051.1919321050564, -2103.612077666769, -9574.347385686326, -15565.821893909204, 0.012, -0.108, 0.986, 192.0, 0.0, 0.0, 0.0, 0.0, 0.0, 0.0, 0.0, 0.0, 0.0, 1.645921874263253E9, 0.0, 2022-02-27 11:31:14.263
26.0, -826.5004547238892, -4085.161278863106, -1740.2174163123866, -9967.156942743892, -426.51598769616936, 328.14596034836296, -5257.0408889104, -1396.7158075232278, -1280.1514601888014, -5451.41165869375, -4032.7017346265, -2831.2060631759246, -3415.1006835819107, -2204.574907371391, -9247.721343960922, -14531.316105284228, 0.012, -0.108, 0.986, 192.0, 0.0, 0.0, 0.0, 0.0, 0.0, 0.0, 0.0, 0.0, 0.0, 1.645921874271276E9, 0.0, 2022-02-27 11:31:14.271
28.0, -358.74549850767835, -3750.9579957673545, -1436.3007469535764, -9628.326848545892, -7.6442966037150155, 564.1356783074949, -5194.277190479897, -1374.9228566793033, -2801.6570570060085, -5488.8955341453, -3659.1370295449533, -2748.348146480101, -2955.5488175807977, -1926.3850958806393, -9304.986513255419, -14829.108396662283, 0.01, -0.108, 0.988, 192.0, 0.0, 40.0, 126.0, 80.0, 15.0, 112.0, 0.0, 0.0, 0.0, 1.645921874285088E9, 0.0, 2022-02-27 11:31:14.285
30.0, -1124.7621327355066, -4338.339488308369, -1985.3937012426497, -10223.442044668442, -693.9546101039184, 102.48274832758288, -5466.789658879002, -1671.239932923309, -3044.5534640018304, -6144.695716464009, -4085.831831196765, -2979.3981289146104, -3376.610979629872, -2336.8748828023536, -9551.570958086368, -15366.42198162341, 0.01, -0.108, 0.988, 192.0, 0.0, 0.0, 0.0, 0.0, 0.0, 0.0, 0.0, 0.0, 0.0, 1.645921874292904E9, 0.0, 2022-02-27 11:31:14.292
32.0, -457.2272845777613, -3829.434970549938, -1441.8886830674032, -9632.216052081116, -35.56162542839353, 593.3717600550366, -5087.502907216895, -1221.8357589049053, -1298.97162902017, -5134.73214325096, -3786.564324684659, -2708.4279308829227, -3154.4122879996644, -2000.5705357278034, -9122.976258155853, -14253.77449438268, 0.01, -0.108, 0.988, 192.0, 0.0, 0.0, 0.0, 0.0, 0.0, 0.0, 0.0, 0.0, 0.0, 1.645921874300831E9, 0.0, 2022-02-27 11:31:14.300
34.0, -926.211586739014, -4211.649800735689, -1832.9995075463662, -10058.79909501065, -470.6606829954008, 228.74775275561248, -5473.003443837577, -1704.43227343944, -4068.799801921821, -6155.335146824736, -3828.943232171921, -2931.9006719470826, -3040.55250174433, -2092.860888583766, -9570.234664706548, -15546.64409716655, 0.01, -0.108, 0.988, 192.0, 0.0, 0.0, 0.0, 0.0, 0.0, 0.0, 0.0, 0.0, 0.0, 1.645921874307509E9, 0.0, 2022-02-27 11:31:14.307
36.0, -960.8791423891953, -4236.8402167368195, -1743.0113843693, -9964.385326431433, -407.3158392090606, 340.88645468788803, -5231.157568831154, -1367.904408920337, -1300.3127336874884, -5482.905266631278, -4056.3722320046704, -2859.2351507228796, -3405.4000264883075, -2232.7381053850777, -9238.758294434345, -14509.925485840498, 0.01, -0.108, 0.988, 192.0, 0.0, 0.0, 0.0, 0.0, 0.0, 0.0, 0.0, 0.0, 0.0, 1.64592187431547E9, 0.0, 2022-02-27 11:31:14.315
38.0, -553.1609717799391, -3955.454105788959, -1447.8565988369703, -9638.698057973153, 14.886261807234504, 580.5865622266009, -5172.372480913697, -1358.8296006714822, -2878.0776712987035, -5556.755430311612, -3702.0300271546876, -2812.9446879559387, -2949.983233211426, -1922.1606161785862, -9295.799946284289, -14824.973323938051, 0.01, -0.108, 0.992, 192.0, 0.0, 40.0, 126.0, 80.0, 15.5, 0.0, 0.0, 0.0, 0.0, 1.645921874323533E9, 0.0, 2022-02-27 11:31:14.323
40.0, -1369.647844987851, -4573.14456381137, -2001.933992139577, -10240.809350110216, -678.129575029561, 120.98999273657714, -5450.741106360091, -1670.7034910563816, -3132.2170057555445, -6210.387493418157, -4141.174750468105, -3038.0714581097914, -3370.330139437931, -2329.1188274763617, -9545.737152783531, -15369.640632824974, 0.01, -0.108, 0.992, 192.0, 0.0, 0.0, 0.0, 0.0, 0.0, 0.0, 0.0, 0.0, 0.0, 1.645921874330547E9, 0.0, 2022-02-27 11:31:14.330
42.0, -683.51634544329, -4038.580243418246, -1461.66997691035, -9649.382191822791, -22.08352352184338, 604.1676526269499, -5070.359119219675, -1204.423749974221, -1374.5875805124738, -5179.525039139395, -3848.7021742704123, -2797.767853470785, -3152.9370728656145, -1989.9758088559877, -9113.342656295617, -14251.740485637247, 0.01, -0.108, 0.992, 192.0, 0.0, 0.0, 0.0, 0.0, 0.0, 0.0, 0.0, 0.0, 0.0, 1.645921874337131E9, 0.0, 2022-02-27 11:31:14.337
44.0, -1121.8564059563168, -4395.470547136134, -1852.043193822288, -10061.3248421341, -444.5761972160575, 253.93816875674355, -5451.79163834949, -1690.0601017546776, -4146.025079014907, -6192.79667053183, -3882.319197931194, -2998.821794846272, -3045.8275134357827, -2086.736510603012, -9557.404763389202, -15537.569288917697, 0.01, -0.108, 0.992, 192.0, 0.0, 0.0, 0.0, 0.0, 0.0, 0.0, 0.0, 0.0, 0.0, 1.645921874345183E9, 0.0, 2022-02-27 11:31:14.345
46.0, -1080.97506534756, -4345.067363389417, -1764.5361142797608, -9966.754611343697, -407.22643223123936, 360.24306538618396, -5242.266385825442, -1371.2348188441777, -1370.1395833658676, -5522.847833972912, -4097.588848780257, -2911.962915892949, -3409.713913168182, -2231.218186762117, -9232.857433898143, -14514.105262053641, 0.01, -0.108, 0.992, 192.0, 0.0, 0.0, 0.0, 0.0, 0.0, 0.0, 0.0, 0.0, 0.0, 1.645921874353237E9, 0.0, 2022-02-27 11:31:14.353
48.0, -574.9986261127742, -3955.252940088861, -1457.6243111639394, -9619.766130419508, 17.18849148613113, 603.7876729712096, -5197.406434703641, -1354.3816035248763, -2873.897895085561, -5538.672869047269, -3715.172852894408, -2819.963135714905, -2952.508980334876, -1914.3822091081393, -9286.635731057613, -14807.606018496279, 0.012, -0.106, 0.99, 192.0, 0.0, 48.0, 126.0, 88.0, 15.0, 120.0, 0.0, 0.0, 0.0, 1.645921874360405E9, 0.0, 2022-02-27 11:31:14.360
50.0, -1336.1202283048904, -4544.579034397488, -2015.4344457905825, -10227.822986581683, -686.2432582668374, 121.05704796994306, -5448.394173192283, -1658.0524036946779, -3170.7961166854047, -6195.858859522207, -4134.357468409236, -3037.5797197317747, -3366.9773777696346, -2321.832158783932, -9543.546681826912, -15377.441391639877, 0.012, -0.106, 0.99, 192.0, 0.0, 0.0, 0.0, 0.0, 0.0, 0.0, 0.0, 0.0, 0.0, 1.645921874367682E9, 0.0, 2022-02-27 11:31:14.367
52.0, -614.4941585653017, -3993.3403126407047, -1470.76713690366, -9638.094560872862, -28.811398602890804, 606.3804753280253, -5077.779898378837, -1193.7396161245842, -1340.322356262488, -5181.402585673641, -3831.3348688286387, -2760.5521989526987, -3155.239302544511, -2000.4811287499822, -9101.809156156678, -14241.637497143449, 0.012, -0.106, 0.99, 192.0, 0.0, 0.0, 0.0, 0.0, 0.0, 0.0, 0.0, 0.0, 0.0, 1.645921874375836E9, 0.0, 2022-02-27 11:31:14.375
54.0, -1013.4280936036222, -4301.101482045828, -1849.0257083208214, -10051.08774317357, -446.2078745612949, 249.62428207686926, -5440.369896932829, -1680.8288312946358, -4109.614087297212, -6175.541123812333, -3844.1871218904403, -2962.9695967399593, -3032.9305568850705, -2092.6820746281237, -9550.207501674593, -15530.081454525169, 0.012, -0.106, 0.99, 192.0, 0.0, 0.0, 0.0, 0.0, 0.0, 0.0, 0.0, 0.0, 0.0, 1.645921874383811E9, 0.0, 2022-02-27 11:31:14.383
56.0, -982.2474100884689, -4255.570978590367, -1763.9996724128334, -9973.661300380385, -413.50727242318067, 360.1536584083627, -5203.150833028654, -1369.6254932433956, -1341.641109185351, -5513.773025724056, -4067.7269181879665, -2883.7773661348065, -3410.809148646492, -2245.2327305355943, -9228.25297454035, -14524.677637181001, 0.012, -0.10500000000000001, 0.99, 192.0, 0.0, 48.0, 126.0, 96.0, 15.0, 120.0, 0.0, 0.0, 0.0, 1.645921874390334E9, 0.0, 2022-02-27 11:31:14.390
58.0, -469.16311611689525, -3871.903285015021, -1447.5213226701408, -9626.181081078183, 15.780331585446786, 592.1424141099947, -5162.78358254237, -1341.350536507432, -2823.8076357612176, -5511.80607221199, -3685.4450327688496, -2797.6560947485086, -2958.119268193158, -1919.4784068439494, -9281.7406990219, -14805.147326606195, 0.012, -0.10500000000000001, 0.99, 192.0, 0.0, 0.0, 0.0, 0.0, 0.0, 0.0, 0.0, 0.0, 0.0, 1.645921874405541E9, 0.0, 2022-02-27 11:31:14.405
60.0, -1218.4829972366092, -4426.561823673466, -2003.2527450624402, -10230.348733705132, -690.4453862244352, 125.10271371635363, -5463.392193721795, -1677.0290347372336, -3138.4531424585753, -6176.926931968562, -4093.319665589293, -2998.084187279247, -3360.249502688587, -2329.2305861986383, -9544.776027771954, -15390.539513890686, 0.012, -0.10500000000000001, 0.99, 192.0, 0.0, 0.0, 0.0, 0.0, 0.0, 0.0, 0.0, 0.0, 0.0, 1.64592187441247E9, 0.0, 2022-02-27 11:31:14.412
62.0, -503.47304385579156, -3874.518439116292, -1456.7749448746379, -9638.295726572958, -41.037802819943764, 610.8508242190867, -5061.463124926463, -1208.8270436319165, -1286.8793352698488, -5129.837111215247, -3790.3417694976056, -2733.8195125841517, -3147.5726541963404, -1996.4131112591162, -9107.441795759416, -14250.399380969928, 0.012, -0.10500000000000001, 0.99, 192.0, 0.0, 0.0, 0.0, 0.0, 0.0, 0.0, 0.0, 0.0, 0.0, 1.645921874420018E9, 0.0, 2022-02-27 11:31:14.420
64.0, -889.2641531543915, -4181.8996288656745, -1821.8012835742575, -10024.064484127102, -437.4236389903592, 258.38616590334965, -5445.2649289685405, -1705.7063228733925, -4069.6715199555783, -6130.412951757068, -3807.8431854061114, -2925.9104044330606, -3021.1064840682134, -2074.644216852691, -9549.022859218461, -15532.964829559904, 0.012, -0.10500000000000001, 0.99, 192.0, 0.0, 0.0, 0.0, 0.0, 0.0, 0.0, 0.0, 0.0, 0.0, 1.645921874428138E9, 0.0, 2022-02-27 11:31:14.428
66.0, -898.2942579143355, -4167.549808925368, -1764.849038702135, -9973.191913746825, -426.3371737405269, 332.43749528378197, -5234.040943865889, -1390.7478917536607, -1338.6012719394294, -5501.211345340174, -4036.2109585059834, -2836.257557422824, -3396.2581630060868, -2248.8760648818093, -9242.133407847095, -14549.30925957075, 0.012, -0.10350000000000001, 0.988, 192.0, 0.0, 48.0, 126.0, 104.0, 15.0, 104.0, 0.0, 0.0, 0.0, 1.645921874436051E9, 0.0, 2022-02-27 11:31:14.436
68.0, -378.68325456181225, -3784.2173915168514, -1439.1170667549452, -9614.37936000578, 14.014543773477529, 610.2026236298829, -5166.315158166309, -1356.8179436705045, -2742.1120097770704, -5465.895589100789, -3657.304186499618, -2776.0196061157712, -2941.4225150850434, -1922.9652789789773, -9274.968120451942, -14782.6391199397, 0.012, -0.10350000000000001, 0.988, 192.0, 0.0, 0.0, 0.0, 0.0, 0.0, 0.0, 0.0, 0.0, 0.0, 1.645921874442601E9, 0.0, 2022-02-27 11:31:14.442
70.0, -1143.649356800241, -4351.728183237098, -2000.1235008386973, -10222.056236512213, -689.3054472572145, 120.31944040291792, -5472.757574648568, -1691.0882819996218, -3172.785421941927, -6190.717958297487, -4072.0408048678405, -2992.987989543437, -3343.396287369286, -2324.2237954406496, -9553.448504620614, -15409.76201412225, 0.012, -0.10350000000000001, 0.988, 192.0, 0.0, 0.0, 0.0, 0.0, 0.0, 0.0, 0.0, 0.0, 0.0, 1.645921874450675E9, 0.0, 2022-02-27 11:31:14.450
72.0, -442.00574660369716, -3800.601220202592, -1458.026642564135, -9632.976011392595, -35.29340449492985, 609.8226439741426, -5078.584561179228, -1226.9990118740811, -1240.2982998249888, -5114.749683707915, -3789.827679375134, -2727.002230525283, -3153.495866476997, -2009.220660832007, -9116.293086563717, -14244.699686133825, 0.012, -0.10350000000000001, 0.988, 192.0, 0.0, 0.0, 0.0, 0.0, 0.0, 0.0, 0.0, 0.0, 0.0, 1.645921874457821E9, 0.0, 2022-02-27 11:31:14.457
74.0, -831.6413559486099, -4118.688895546066, -1816.816844560724, -10021.002295136726, -452.5334182421468, 268.73502358615684, -5455.524379673527, -1682.4828603843284, -4025.7056386119893, -6089.5986663816775, -3778.495344936293, -2897.0095988523485, -3015.0044578319144, -2072.8113738073557, -9550.408667374692, -15518.25738170831, 0.012, -0.10350000000000001, 0.988, 192.0, 0.0, 0.0, 0.0, 0.0, 0.0, 0.0, 0.0, 0.0, 0.0, 1.645921874465843E9, 0.0, 2022-02-27 11:31:14.465
76.0, -839.1738938300483, -4105.166090150606, -1755.5954164976379, -9957.053954250092, -441.60341520350164, 340.7299924767009, -5251.27413884093, -1395.1735371558116, -1308.6499343693179, -5472.13172580382, -4016.9884582744194, -2816.2303943908687, -3397.4651572066737, -2227.753666371544, -9248.995393394875, -14536.032323364298, 0.011, -0.10375000000000001, 0.989, 192.0, 0.0, 40.0, 126.0, 96.0, 15.0, 120.0, 0.0, 0.0, 0.0, 1.645921874472284E9, 0.0, 2022-02-27 11:31:14.472
78.0, -327.83303592598867, -3723.7782745097015, -1428.4329329053085, -9603.628170922777, 9.566546626871423, 603.2065276153717, -5176.194629215554, -1349.8665511449042, -2718.5979746100875, -5446.762495847046, -3639.1322182574536, -2738.356916708579, -2939.276747617334, -1900.5688310347596, -9283.931169978521, -14786.26010254146, 0.011, -0.10375000000000001, 0.989, 192.0, 0.0, 0.0, 0.0, 0.0, 0.0, 0.0, 0.0, 0.0, 0.0, 1.645921874480377E9, 0.0, 2022-02-27 11:31:14.480
80.0, -1100.1975655791243, -4312.590278695855, -1992.747425168446, -10228.180614492967, -692.7029124144212, 127.78492305099047, -5469.203647280175, -1676.2690754257533, -3153.7417356660053, -6138.6160419721655, -4058.428592494559, -2975.978312012948, -3339.842360000892, -2314.657248813778, -9553.292042409426, -15407.057453043159, 0.011, -0.10375000000000001, 0.989, 192.0, 0.0, 0.0, 0.0, 0.0, 0.0, 0.0, 0.0, 0.0, 0.0, 1.645921874488371E9, 0.0, 2022-02-27 11:31:14.488
82.0, -412.5908509005131, -3782.004568815776, -1453.2657209951547, -9638.966278906617, -52.39248900323975, 595.6739897339332, -5075.567075677762, -1214.303221023467, -1220.7405234265952, -5107.932401649046, -3779.456469947871, -2711.7806925512186, -3145.940976851103, -1997.3295327817839, -9107.486499248327, -14243.224470999774, 0.011, -0.10375000000000001, 0.989, 192.0, 0.0, 0.0, 0.0, 0.0, 0.0, 0.0, 0.0, 0.0, 0.0, 1.645921874495337E9, 0.0, 2022-02-27 11:31:14.495
84.0, -792.056416518261, -4088.022302153385, -1800.142443197065, -10013.380350277466, -433.9591185997866, 266.65631135181326, -5452.171618005231, -1695.7150931018703, -4013.970972772953, -6113.380922482124, -3775.74608036829, -2893.1650988060355, -3004.2309170044564, -2082.2661617119506, -9544.820731260865, -15519.866707309093, 0.011, -0.10375000000000001, 0.989, 192.0, 0.0, 0.0, 0.0, 0.0, 0.0, 0.0, 0.0, 0.0, 0.0, 1.645921874502864E9, 0.0, 2022-02-27 11:31:14.502
86.0, -826.0087163458725, -4078.098127615229, -1756.042451386744, -9967.291053210623, -440.4187727473704, 342.8310564554997, -5252.101153385777, -1404.2483454046662, -1321.457483942209, -5471.260007770063, -4020.2071094759835, -2818.2420513918464, -3392.167793770766, -2244.2045502906503, -9248.771875950322, -14559.456951553459, 0.0095, -0.10287500000000001, 0.9915, 192.0, 0.0, 32.0, 126.0, 104.0, 15.5, 8.0, 0.0, 0.0, 0.0, 1.645921874510965E9, 0.0, 2022-02-27 11:31:14.510
88.0, -301.2791635130839, -3693.178736350386, -1416.5194531106297, -9595.38037721877, 22.888186322234432, 604.8829084495197, -5174.630007103683, -1361.7129757062169, -2675.4367560668893, -5424.857786280845, -3633.3654681879843, -2724.25296595728, -2935.6781167600298, -1907.2072991379857, -9275.906893719066, -14779.196951293583, 0.0095, -0.10287500000000001, 0.9915, 192.0, 0.0, 0.0, 0.0, 0.0, 0.0, 0.0, 0.0, 0.0, 0.0, 1.645921874519101E9, 0.0, 2022-02-27 11:31:14.519
90.0, -1068.8380681083283, -4272.580656120856, -1981.7280151519794, -10212.534393374252, -690.9818280913626, 123.87336777131173, -5492.717682447157, -1691.8035378221916, -3144.666927417151, -6152.228254345448, -4038.3790777181484, -2939.053230172781, -3330.968717452135, -2290.3161991019488, -9556.778914544453, -15417.495717703787, 0.0095, -0.10287500000000001, 0.9915, 192.0, 0.0, 0.0, 0.0, 0.0, 0.0, 0.0, 0.0, 0.0, 0.0, 1.645921874532886E9, 0.0, 2022-02-27 11:31:14.532
92.0, -388.45096688878147, -3757.7976295706785, -1444.7497063576825, -9627.723351445598, -43.29532900992978, 602.5136235372572, -5070.537933175317, -1211.5986599443747, -1188.911639322238, -5098.656427700094, -3756.4565249033603, -2691.5970673080765, -3146.2539012734774, -1993.1721083130967, -9109.364045782571, -14243.939726822344, 0.0095, -0.10287500000000001, 0.9915, 192.0, 0.0, 0.0, 0.0, 0.0, 0.0, 0.0, 0.0, 0.0, 0.0, 1.645921874540629E9, 0.0, 2022-02-27 11:31:14.540
94.0, -769.7940790407753, -4052.773601147366, -1795.78385302828, -10003.098547828025, -427.0077260741861, 261.3589479159055, -5452.819818594435, -1686.0591394971777, -4001.677513322534, -6038.949613445951, -3762.5138476507486, -2890.795813893773, -3002.8898123371378, -2052.828914264311, -9542.384391115236, -15516.066910751691, 0.0095, -0.10287500000000001, 0.9915, 192.0, 0.0, 0.0, 0.0, 0.0, 0.0, 0.0, 0.0, 0.0, 0.0, 1.64592187454772E9, 0.0, 2022-02-27 11:31:14.547
96.0, -808.3731899706353, -4077.964017148497, -1747.1688088379872, -9962.932463041838, -437.80361864609944, 334.8961871738657, -5252.279967341419, -1398.5039470796523, -1308.2699547135776, -5460.262949498052, -4015.155615229084, -2794.8397749471396, -3391.6984071372044, -2231.3299454843936, -9247.028439882808, -14563.614376022146, 0.01075, -0.1044375, 0.99175, 192.0, 0.0, 48.0, 126.0, 88.0, 15.5, 0.0, 0.0, 0.0, 0.0, 1.645921874555147E9, 0.0, 2022-02-27 11:31:14.555
98.0, -303.76020714762296, -3708.8026057246457, -1417.3911711443868, -9594.978045818574, 5.9902675140222925, 594.3552368110701, -5172.037204746867, -1351.230007556678, -2675.548514789166, -5448.12595225882, -3630.1691687308753, -2727.941003792406, -2937.376849338633, -1896.4784617994383, -9272.800001239777, -14782.437954239602, 0.01075, -0.1044375, 0.99175, 192.0, 0.0, 0.0, 0.0, 0.0, 0.0, 0.0, 0.0, 0.0, 0.0, 1.645921874563307E9, 0.0, 2022-02-27 11:31:14.563
100.0, -1087.7476439175182, -4305.460072214612, -1989.327608266784, -10215.261306197799, -709.8019969227311, 108.94240247516662, -5497.813880182967, -1698.374950692052, -3195.58420128634, -6169.908484209595, -4044.5928626767236, -2942.696564518996, -3332.578043052917, -2304.308391130971, -9558.656461078699, -15436.58410746862, 0.01075, -0.1044375, 0.99175, 192.0, 0.0, 0.0, 0.0, 0.0, 0.0, 0.0, 0.0, 0.0, 0.0, 1.645921874571283E9, 0.0, 2022-02-27 11:31:14.571
102.0, -428.01355457467497, -3787.883077607522, -1454.6291774069284, -9645.29182258747, -73.20196309113064, 576.7644139247434, -5097.695302688516, -1220.8969856377823, -1182.4072816857436, -5107.775939437859, -3786.8101938736672, -2701.4094831239563, -3175.042948131913, -2000.7046461945351, -9114.572002240659, -14245.593755912038, 0.01075, -0.1044375, 0.99175, 192.0, 0.0, 0.0, 0.0, 0.0, 0.0, 0.0, 0.0, 0.0, 0.0, 1.645921874577823E9, 0.0, 2022-02-27 11:31:14.577
104.0, -779.3829774121019, -4081.1379648611505, -1790.2629721478193, -10007.814765908095, -441.8269326480547, 257.2685786805843, -5461.157019276264, -1707.3156484741746, -3996.9836469869197, -6076.053509241761, -3770.8734000770332, -2877.2059532649464, -3010.8023298743165, -2041.8542077367554, -9541.64678354821, -15509.696663581928, 0.01075, -0.1044375, 0.99175, 192.0, 0.0, 0.0, 0.0, 0.0, 0.0, 0.0, 0.0, 0.0, 0.0, 1.645921874584806E9, 0.0, 2022-02-27 11:31:14.584
106.0, -844.7394781994199, -4110.597564053245, -1755.1036781196212, -9969.861503822984, -459.6189212344791, 322.2227480677066, -5262.964101191056, -1410.484482107697, -1330.2864230020552, -5488.448499256194, -4019.4918536534137, -2808.541394298243, -3410.518575968573, -2232.603994918346, -9255.030364397808, -14572.152742404074, 0.011375, -0.10521875, 0.990875, 192.0, 0.0, 48.0, 126.0, 88.0, 15.0, 120.0, 0.0, 0.0, 0.0, 1.64592187459284E9, 0.0, 2022-02-27 11:31:14.592
108.0, -332.5716057505138, -3735.5576438376484, -1409.6351158183952, -9593.301664984425, 6.549061125404969, 601.9101264369639, -5182.050786262845, -1357.3320337929767, -2659.187037847881, -5430.64688809477, -3641.1662270028864, -2728.3433351926014, -2953.604215813186, -1896.4561100549831, -9272.97881519542, -14763.617785408234, 0.011375, -0.10521875, 0.990875, 192.0, 0.0, 0.0, 0.0, 0.0, 0.0, 0.0, 0.0, 0.0, 0.0, 1.645921874600809E9, 0.0, 2022-02-27 11:31:14.600
110.0, -1160.6813860751852, -4359.819514729919, -1987.7182826660019, -10218.97169577738, -707.611525966111, 114.12800718879787, -5502.999484896599, -1714.110578788588, -3210.11283518229, -6178.245684891425, -4060.5073047289025, -2961.606140328186, -3339.9541187231684, -2297.1558329052727, -9562.232740191548, -15436.092369090602, 0.011375, -0.10521875, 0.990875, 192.0, 0.0, 0.0, 0.0, 0.0, 0.0, 0.0, 0.0, 0.0, 0.0, 1.645921874607453E9, 0.0, 2022-02-27 11:31:14.607
112.0, -514.8277300390876, -3875.077232727675, -1455.47854369623, -9644.017773153517, -72.41965203519489, 590.2648675757489, -5143.15875091061, -1238.2195875906455, -1226.90960489626, -5119.711770976994, -3807.3514470280943, -2713.166500707448, -3165.0964218493014, -1989.0817390777754, -9115.197851085408, -14245.549052423126, 0.011375, -0.10521875, 0.990875, 192.0, 0.0, 0.0, 0.0, 0.0, 0.0, 0.0, 0.0, 0.0, 0.0, 1.645921874616591E9, 0.0, 2022-02-27 11:31:14.616
114.0, -945.6352526706759, -4227.3854288322245, -1798.8013385297465, -10016.241373567746, -432.34979299900453, 267.59508461893614, -5425.9306700147, -1699.7160553593703, -4048.32560400076, -6100.372207209135, -3809.273697051251, -2913.3710757936333, -3011.6740479080736, -2052.0242514639203, -9544.373696371758, -15514.278771195266, 0.011375, -0.10521875, 0.990875, 192.0, 0.0, 0.0, 0.0, 0.0, 0.0, 0.0, 0.0, 0.0, 0.0, 1.645921874623447E9, 0.0, 2022-02-27 11:31:14.623
116.0, -1064.8594575952839, -4318.7817119099755, -1773.2309428728752, -9993.64375992343, -456.3779182884596, 327.2965940590613, -5256.638557510204, -1407.2658309061326, -1421.481540379708, -5556.017822744587, -4099.712264503511, -2878.122374787614, -3423.996677875123, -2244.629233435301, -9253.912777175043, -14579.260597140861, 0.0126875, -0.104609375, 0.9904375, 192.0, 0.0, 56.0, 126.0, 96.0, 15.0, 120.0, 0.0, 0.0, 0.0, 1.645921874630815E9, 0.0, 2022-02-27 11:31:14.630
118.0, -561.3640619950369, -3954.0235941438195, -1426.8683107934369, -9615.80987165092, 12.18170072814235, 603.4300450599247, -5163.096506964745, -1356.4379640147645, -2730.533806149221, -5502.7312639631355, -3719.754960507746, -2808.049655920226, -2962.4778583619427, -1906.134415404131, -9272.911759962053, -14761.53907317389, 0.0126875, -0.104609375, 0.9904375, 192.0, 0.0, 0.0, 0.0, 0.0, 0.0, 0.0, 0.0, 0.0, 0.0, 1.645921874638787E9, 0.0, 2022-02-27 11:31:14.638
120.0, -1355.1415628363566, -4565.924950352305, -2005.9796578859875, -10244.542091434252, -710.0031626228289, 117.19019617917493, -5484.0675573429535, -1717.0163055677779, -3323.0561999149563, -6264.5234184889105, -4125.372067138203, -3038.630251721174, -3346.9502147376797, -2307.214117910161, -9566.79249606043, -15444.273107561245, 0.0126875, -0.104609375, 0.9904375, 192.0, 0.0, 0.0, 0.0, 0.0, 0.0, 0.0, 0.0, 0.0, 0.0, 1.645921874652583E9, 0.0, 2022-02-27 11:31:14.652
122.0, -668.0712900246727, -4018.195452475006, -1472.5329247156292, -9662.189741395681, -77.64996023773674, 592.6118007435562, -5105.0490266143115, -1243.6287097488296, -1253.038794164514, -5185.381196186686, -3859.498066842326, -2781.004045129305, -3184.453032547597, -2000.548183983348, -9116.04721737471, -14241.838662843546, 0.0126875, -0.104609375, 0.9904375, 192.0, 0.0, 0.0, 0.0, 0.0, 0.0, 0.0, 0.0, 0.0, 0.0, 1.645921874660443E9, 0.0, 2022-02-27 11:31:14.660
124.0, -1004.9344307106055, -4289.344464462336, -1795.1133006946209, -10009.804071164617, -418.3799527144376, 275.6417126228467, -5454.607958150859, -1676.8949242705019, -4076.6005607367233, -6125.83084414373, -3834.464113052382, -2944.8646837311608, -3017.9325363555595, -2043.2847193818952, -9542.518501581968, -15493.670462807473, 0.0126875, -0.104609375, 0.9904375, 192.0, 0.0, 0.0, 0.0, 0.0, 0.0, 0.0, 0.0, 0.0, 0.0, 1.645921874668504E9, 0.0, 2022-02-27 11:31:14.668
126.0, -1058.5562656588872, -4320.681610188676, -1774.1250126510874, -9997.689425669842, -457.07082236657413, 325.2178818247178, -5275.548133319394, -1419.5592903565516, -1441.2628342226546, -5568.892427550844, -4095.912467946109, -2871.1709822620132, -3419.839253406436, -2238.8848351102874, -9261.042983656285, -14583.820353009743, 0.018000000000000002, -0.108, 0.996, 192.0, 0.0, 72.0, 126.0, 80.0, 15.5, 16.0, 0.0, 0.0, 0.0, 1.645921874675092E9, 0.0, 2022-02-27 11:31:14.675
128.0, -486.57512504757943, -3884.7331863323675, -1414.3736856429202, -9605.885697112763, 16.383828685740077, 612.7507224977878, -5164.348204654241, -1343.6974696752393, -2676.107308400549, -5472.154077548275, -3700.8006812096455, -2785.1391178535364, -2956.6887565480183, -1894.846784454201, -9260.97592842292, -14738.986163018486, 0.018000000000000002, -0.108, 0.996, 192.0, 0.0, 0.0, 0.0, 0.0, 0.0, 0.0, 0.0, 0.0, 0.0, 1.64592187468305E9, 0.0, 2022-02-27 11:31:14.683
130.0, -1265.2204948926562, -4479.714271988186, -1998.2012508155408, -10237.993030308848, -705.9798486208736, 112.20575716564146, -5492.829441169434, -1716.1892910229317, -3297.46345251363, -6235.913185586118, -4096.828889468777, -3010.511757196398, -3336.3107843769535, -2314.0313999690297, -9561.025745990963, -15446.329468051134, 0.018000000000000002, -0.108, 0.996, 192.0, 0.0, 0.0, 0.0, 0.0, 0.0, 0.0, 0.0, 0.0, 0.0, 1.64592187469109E9, 0.0, 2022-02-27 11:31:14.691
132.0, -568.9860068542965, -3933.1917683114734, -1464.0169100781573, -9662.793238495975, -77.09116662635405, 581.9947221272853, -5117.051913386812, -1252.8152767199608, -1212.6715436782295, -5155.698079550038, -3825.56811875917, -2745.196550511903, -3168.4044800286865, -2003.163338084619, -9110.258115560784, -14238.910584319901, 0.018000000000000002, -0.108, 0.996, 192.0, 0.0, 0.0, 0.0, 0.0, 0.0, 0.0, 0.0, 0.0, 0.0, 1.645921874697746E9, 0.0, 2022-02-27 11:31:14.697
134.0, -888.8394700097407, -4186.347626012281, -1779.6011900426377, -10006.45130949632, -405.86297581946565, 277.94394230174333, -5440.995745777577, -1696.9891425358228, -4021.8834903101315, -6093.800794339275, -3794.1192143105527, -2921.1047793751695, -2996.184289000546, -2047.2186264060292, -9535.500053823002, -15498.431384376454, 0.018000000000000002, -0.108, 0.996, 192.0, 0.0, 0.0, 0.0, 0.0, 0.0, 0.0, 0.0, 0.0, 0.0, 1.645921874704784E9, 0.0, 2022-02-27 11:31:14.704
136.0, -975.3630727962343, -4229.061809666373, -1779.8470592316462, -10004.752576917717, -457.0484706221188, 301.99441933565373, -5251.564711518849, -1412.0491042195683, -1417.6593920778505, -5561.6057588584135, -4069.1127263441954, -2871.6850723844855, -3413.223137047665, -2240.53886419998, -9260.171265622528, -14594.303321159283, 0.016, -0.106, 0.992, 192.0, 0.0, 64.0, 126.0, 88.0, 15.5, 0.0, 0.0, 0.0, 0.0, 1.645921874712922E9, 0.0, 2022-02-27 11:31:14.712
138.0, -406.0417897751081, -3806.7032464388903, -1413.904299009359, -9597.369682475291, 17.05438101939929, 616.6846295219218, -5174.026510003389, -1366.742118208661, -2618.126883283482, -5445.130818501809, -3677.44310825385, -2763.5696844541653, -2960.533256594331, -1903.0275229248434, -9258.271367343828, -14726.893869268164, 0.016, -0.106, 0.992, 192.0, 0.0, 0.0, 0.0, 0.0, 0.0, 0.0, 0.0, 0.0, 0.0, 1.645921874720766E9, 0.0, 2022-02-27 11:31:14.720
140.0, -1197.0923777928804, -4410.736788599109, -2001.6210677172028, -10233.902661073525, -715.3452295476473, 107.2883733854739, -5496.472775515649, -1710.400189209007, -3300.9503246486574, -6220.579888889777, -4074.8124211802988, -2987.109480751691, -3332.622746541828, -2305.7389027761105, -9568.13360072775, -15454.644316988508, 0.016, -0.106, 0.992, 192.0, 0.0, 0.0, 0.0, 0.0, 0.0, 0.0, 0.0, 0.0, 0.0, 1.645921874727408E9, 0.0, 2022-02-27 11:31:14.727
142.0, -510.67030557040044, -3868.036433224253, -1470.7894886481154, -9660.20043613916, -88.6246667652925, 571.5341057222016, -5111.352218550708, -1254.6928232542066, -1189.783357355995, -5134.285108361853, -3810.1230633405526, -2724.9235182909392, -3184.9671226700693, -2004.5714979853033, -9115.220202829863, -14238.217680241785, 0.016, -0.106, 0.992, 192.0, 0.0, 0.0, 0.0, 0.0, 0.0, 0.0, 0.0, 0.0, 0.0, 1.645921874735402E9, 0.0, 2022-02-27 11:31:14.735
144.0, -831.9095768820736, -4123.29335490386, -1784.0491871892439, -9994.157850045902, -436.3731070009598, 277.4745556681819, -5466.052051311976, -1698.9113925589793, -3996.4472051199923, -6072.499581873368, -3776.3495774685834, -2895.623790696119, -3010.1094257962022, -2048.000937461965, -9538.472835835557, -15489.200113916411, 0.016, -0.106, 0.992, 192.0, 0.0, 0.0, 0.0, 0.0, 0.0, 0.0, 0.0, 0.0, 0.0, 1.645921874743399E9, 0.0, 2022-02-27 11:31:14.743
146.0, -915.6392116116539, -4163.884122834697, -1780.0258731872887, -9997.398852991922, -498.5109565867134, 295.82533786598896, -5296.1117382182765, -1455.0091570626685, -1406.3941128723757, -5540.908043492799, -4054.807609892799, -2849.310976184723, -3430.925718656268, -2251.602977705357, -9276.666853030545, -14601.545286362802, 0.018000000000000002, -0.11, 0.988, 192.0, 0.0, 72.0, 126.0, 72.0, 15.0, 112.0, 0.0, 0.0, 0.0, 1.645921874750532E9, 0.0, 2022-02-27 11:31:14.750
148.0, -344.68625124529024, -3742.2855189186957, -1405.2318221606997, -9596.408557463714, 5.431473902639616, 606.5145857947572, -5181.871972307203, -1358.6507867158398, -2578.296074664125, -5408.250440150552, -3652.9679480752884, -2749.5327889362325, -2966.344710152711, -1912.392903851617, -9265.759201736355, -14729.732540813988, 0.018000000000000002, -0.11, 0.988, 192.0, 0.0, 0.0, 0.0, 0.0, 0.0, 0.0, 0.0, 0.0, 0.0, 1.645921874758223E9, 0.0, 2022-02-27 11:31:14.758
150.0, -1137.9943654530484, -4348.978918669095, -1994.9602478695213, -10231.868652328092, -726.09641863065, 121.83935902587879, -5516.0529036584985, -1726.5828521946494, -3281.9736936061017, -6184.817097761285, -4045.3081184992934, -2974.413689901077, -3333.5391680644952, -2304.889536486809, -9569.050022250418, -15464.412029315476, 0.018000000000000002, -0.11, 0.988, 192.0, 0.0, 0.0, 0.0, 0.0, 0.0, 0.0, 0.0, 0.0, 0.0, 1.645921874766187E9, 0.0, 2022-02-27 11:31:14.766
152.0, -470.19129636183936, -3828.9655839163765, -1468.0625758245678, -9661.429782084202, -93.09501565635392, 563.6439399294782, -5115.196718597022, -1252.0106139195698, -1156.7251273065958, -5126.551404780317, -3794.432138732927, -2723.4035996679786, -3196.590029786829, -2012.2157945890183, -9111.442758016916, -14235.91545056289, 0.018000000000000002, -0.11, 0.988, 192.0, 0.0, 0.0, 0.0, 0.0, 0.0, 0.0, 0.0, 0.0, 0.0, 1.645921874780464E9, 0.0, 2022-02-27 11:31:14.780
154.0, -764.0049772268507, -4066.7210896874776, -1759.4175647994955, -9977.952835315804, -401.81731007305507, 287.0634540395086, -5480.8936096303005, -1697.7043983583926, -3963.746602981878, -6059.5802735782, -3749.8627602890447, -2892.248677283368, -3000.5205274248756, -2032.0194401764204, -9531.141463654216, -15484.081564436146, 0.018000000000000002, -0.11, 0.988, 192.0, 0.0, 0.0, 0.0, 0.0, 0.0, 0.0, 0.0, 0.0, 0.0, 1.64592187478769E9, 0.0, 2022-02-27 11:31:14.787
156.0, -870.7792604898525, -4118.934764735075, -1771.1298788940762, -9993.777870390162, -477.8355929655544, 314.8466723974553, -5292.893087016712, -1450.1141250269563, -1405.6788570498059, -5540.975098726166, -4033.193473004517, -2839.543263857754, -3419.571032472972, -2245.1209718133177, -9274.02934718482, -14620.052530771796, 0.018000000000000002, -0.108, 0.988, 192.0, 0.0, 72.0, 126.0, 80.0, 15.0, 112.0, 0.0, 0.0, 0.0, 1.645921874795708E9, 0.0, 2022-02-27 11:31:14.795
158.0, -295.3112477435169, -3693.335198561573, -1390.4349673312865, -9573.6097781193, 11.600555372304365, 622.9654697138632, -5182.184896729576, -1347.519617977097, -2521.232071069726, -5386.3904340732615, -3633.857206566001, -2727.6951346033975, -2950.7208407784515, -1890.9352291745222, -9243.563919492235, -14704.408014346125, 0.018000000000000002, -0.108, 0.988, 192.0, 0.0, 0.0, 0.0, 0.0, 0.0, 0.0, 0.0, 0.0, 0.0, 1.645921874802905E9, 0.0, 2022-02-27 11:31:14.802
160.0, -1090.2286875520572, -4295.513545932001, -1982.2197535299963, -10210.50038462882, -716.1945958369489, 109.23297515308562, -5502.105415118386, -1735.5235499767723, -3284.9464756186576, -6170.4896295654335, -4026.934984557031, -2947.949224465993, -3321.5362812919952, -2273.373576804826, -9567.463048394091, -15454.085523377124, 0.018000000000000002, -0.108, 0.988, 192.0, 0.0, 0.0, 0.0, 0.0, 0.0, 0.0, 0.0, 0.0, 0.0, 1.645921874810353E9, 0.0, 2022-02-27 11:31:14.810
162.0, -436.86484537897655, -3791.5040602092818, -1460.060651309568, -9653.76313373603, -95.33019010188463, 568.7848411541988, -5100.221049811966, -1250.7589162300726, -1131.333545605367, -5100.444567256519, -3783.9044670944772, -2705.097520959082, -3183.9836459140356, -1996.2566490479292, -9099.573981711148, -14224.516060890683, 0.018000000000000002, -0.108, 0.988, 192.0, 0.0, 0.0, 0.0, 0.0, 0.0, 0.0, 0.0, 0.0, 0.0, 1.645921874818392E9, 0.0, 2022-02-27 11:31:14.818
164.0, -727.5269302757896, -4031.22651949245, -1750.0298321282664, -9971.582588146042, -405.55005139709135, 290.68443664126835, -5462.27460649903, -1705.7063228733925, -3940.165512581529, -6030.344191830658, -3739.044515972676, -2877.317711987223, -2987.8470883187165, -2036.6462512786688, -9528.258088619481, -15472.928043952948, 0.018000000000000002, -0.108, 0.988, 192.0, 0.0, 0.0, 0.0, 0.0, 0.0, 0.0, 0.0, 0.0, 0.0, 1.64592187482629E9, 0.0, 2022-02-27 11:31:14.826
166.0, -851.2885393248248, -4111.62574429819, -1771.7333759943697, -9995.431899479854, -489.234982637761, 306.6659339268129, -5293.47423237255, -1451.5893401610065, -1400.5603075695406, -5542.472665604671, -4033.484045682436, -2844.2371301933686, -3416.620602204872, -2248.183160803695, -9278.83497224271, -14620.410158683082, 0.018000000000000002, -0.098, 0.988, 192.0, 0.0, 72.0, 126.0, 120.0, 15.0, 112.0, 0.0, 0.0, 0.0, 1.645921874832441E9, 0.0, 2022-02-27 11:31:14.832
168.0, -281.5872766479584, -3677.1301838314753, -1390.5914295424736, -9579.510638655502, 20.585956643337806, 619.970335956852, -5162.425954631085, -1350.067716845002, -2509.9220883753405, -5396.515774311516, -3641.993241547733, -2738.5580824086765, -2962.2543409173895, -1896.0761303992429, -9254.7844952088, -14701.681101522578, 0.018000000000000002, -0.098, 0.988, 192.0, 0.0, 0.0, 0.0, 0.0, 0.0, 0.0, 0.0, 0.0, 0.0, 1.645921874841078E9, 0.0, 2022-02-27 11:31:14.841
170.0, -1074.8730391112613, -4280.046138768928, -1975.8942098491443, -10216.44594865393, -709.5114242448121, 117.30195490145147, -5515.09177864692, -1734.5847767096493, -3321.3798190808084, -6192.819022276285, -4026.9796880459417, -2956.532294336831, -3317.624726012317, -2280.9284664307197, -9574.392089175235, -15474.82794223165, 0.018000000000000002, -0.098, 0.988, 192.0, 0.0, 0.0, 0.0, 0.0, 0.0, 0.0, 0.0, 0.0, 0.0, 1.64592187484784E9, 0.0, 2022-02-27 11:31:14.847
172.0, -431.1427987984179, -3781.1552025264746, -1459.412450720364, -9659.127552405305, -94.52552730149357, 580.2512860597714, -5118.907108176602, -1251.4965237970978, -1112.200452351624, -5100.757491678893, -3782.8762868495332, -2701.6777040574198, -3186.3082273373875, -1998.8270996602894, -9108.537031237725, -14230.618087126983, 0.018000000000000002, -0.098, 0.988, 192.0, 0.0, 0.0, 0.0, 0.0, 0.0, 0.0, 0.0, 0.0, 0.0, 1.645921874855909E9, 0.0, 2022-02-27 11:31:14.855
174.0, -706.449235254435, -4010.998190760397, -1733.4224859979734, -9952.516550125665, -374.90580974886535, 323.38503877938257, -5451.054030782465, -1689.2330872098312, -3931.940070621976, -6020.531776014778, -3727.68982978938, -2867.7735171048066, -2980.7168818374735, -2019.5471667703591, -9525.240603118016, -15460.232253102335, 0.018000000000000002, -0.098, 0.988, 192.0, 0.0, 0.0, 0.0, 0.0, 0.0, 0.0, 0.0, 0.0, 0.0, 1.645921874862482E9, 0.0, 2022-02-27 11:31:14.862
176.0, -871.7403855014308, -4123.226299670494, -1784.3174081227075, -10007.88182114146, -489.74907276023305, 304.6542769258353, -5304.292476688919, -1463.6592821668723, -1469.6495496808948, -5573.5192386530925, -4032.388810204126, -2846.405249405533, -3410.965610857679, -2237.1637507872288, -9288.870905503143, -14650.674420675567, 0.02, -0.10200000000000001, 0.988, 192.0, 0.0, 80.0, 126.0, 104.0, 15.0, 112.0, 0.0, 0.0, 0.0, 1.645921874870631E9, 0.0, 2022-02-27 11:31:14.870
178.0, -284.96239006070977, -3679.365358277006, -1388.1774411413005, -9576.13552524275, 35.472218450572306, 628.0840191941285, -5158.201474929032, -1344.3680220088986, -2453.595692347967, -5369.648977476237, -3631.800846076113, -2737.1946259969027, -2952.307814634778, -1901.261735112874, -9241.999297380364, -14673.696717464534, 0.02, -0.10200000000000001, 0.988, 192.0, 0.0, 0.0, 0.0, 0.0, 0.0, 0.0, 0.0, 0.0, 0.0, 1.645921874878582E9, 0.0, 2022-02-27 11:31:14.878
180.0, -1077.4434897236217, -4286.796365594431, -1979.2469715174404, -10218.748178332828, -698.7825869062647, 125.9297282612, -5497.0986243603975, -1726.8957766170236, -3345.318537392442, -6197.758757800908, -4019.804778075788, -2975.955960268493, -3302.7608159495376, -2289.578591534924, -9567.820676305375, -15473.620948031063, 0.02, -0.10200000000000001, 0.988, 192.0, 0.0, 0.0, 0.0, 0.0, 0.0, 0.0, 0.0, 0.0, 0.0, 1.645921874885771E9, 0.0, 2022-02-27 11:31:14.885
182.0, -431.075743565052, -3781.4681269488487, -1462.7875641331154, -9664.983709452596, -94.83845172386786, 581.3688732825367, -5104.177308580555, -1248.523741784542, -1100.9575248906046, -5114.570869752272, -3789.6488654194914, -2719.5590996216656, -3184.005997658491, -2004.0127043739205, -9101.65269394549, -14220.269229444175, 0.02, -0.10200000000000001, 0.988, 192.0, 0.0, 0.0, 0.0, 0.0, 0.0, 0.0, 0.0, 0.0, 0.0, 1.645921874900265E9, 0.0, 2022-02-27 11:31:14.900
184.0, -706.2033660654266, -4010.8193768047545, -1737.2222825553756, -9960.518474640665, -381.09724296298543, 312.5444427185587, -5442.873292311823, -1688.1602034759765, -3920.2277565273953, -6021.850528937642, -3725.1640826659304, -2879.6869968994856, -2970.0998032212024, -2002.4927857509597, -9509.97436165504, -15444.541328494708, 0.02, -0.10200000000000001, 0.988, 192.0, 0.0, 0.0, 0.0, 0.0, 0.0, 0.0, 0.0, 0.0, 0.0, 1.645921874908179E9, 0.0, 2022-02-27 11:31:14.908
186.0, -855.1106876266823, -4114.084436188274, -1778.3718440975958, -10004.12672807297, -487.9162297148979, 325.17317833580717, -5300.939715020623, -1447.3648604589534, -1438.9159010548474, -5549.066430218987, -4023.314001955271, -2845.175903460491, -3401.5108229530842, -2254.061669595441, -9272.375318095126, -14632.837728600232, 0.014, -0.106, 0.984, 192.0, 0.0, 56.0, 126.0, 88.0, 15.0, 96.0, 0.0, 0.0, 0.0, 1.645921874914829E9, 0.0, 2022-02-27 11:31:14.914
188.0, -272.5795236324696, -3673.0845180850647, -1387.9762754412027, -9579.153010744216, 32.61119516029301, 635.7059640533881, -5166.471620377496, -1339.6518039288287, -2473.0193582796287, -5376.578018257382, -3625.676468095359, -2751.3656319815677, -2944.887035475616, -1901.1276246461423, -9235.114960088129, -14678.457639033513, 0.014, -0.106, 0.984, 192.0, 0.0, 0.0, 0.0, 0.0, 0.0, 0.0, 0.0, 0.0, 0.0, 1.645921874922851E9, 0.0, 2022-02-27 11:31:14.922
190.0, -1075.789460633929, -4289.7244441180765, -1982.3985674856388, -10223.285582457254, -697.1062060721167, 116.20671942314142, -5524.703028762702, -1747.884064660557, -3359.7577643105706, -6206.967676516495, -4011.489929138414, -2981.789765571328, -3296.3458652908644, -2292.3278561029265, -9569.385298417246, -15477.912482966482, 0.014, -0.106, 0.984, 192.0, 0.0, 0.0, 0.0, 0.0, 0.0, 0.0, 0.0, 0.0, 0.0, 1.645921874930917E9, 0.0, 2022-02-27 11:31:14.930
192.0, -436.2613482786833, -3791.2805427647286, -1468.219038035755, -9672.471543845122, -97.27479186949634, 569.231876043305, -5101.897430646113, -1249.5742737739413, -1104.2208795810795, -5104.490233002929, -3780.1940775148964, -2719.3132304326573, -3180.0944423788123, -2023.6375360056802, -9102.256191045784, -14227.62295336997, 0.014, -0.106, 0.984, 192.0, 0.0, 0.0, 0.0, 0.0, 0.0, 0.0, 0.0, 0.0, 0.0, 1.645921874938927E9, 0.0, 2022-02-27 11:31:14.938
194.0, -685.1256710440721, -3990.6581033060675, -1729.5109307182945, -9947.174483200846, -373.3635393814492, 318.3782480213938, -5436.324231186418, -1674.1009562135885, -3919.423093727004, -6015.86026142362, -3713.3176581046177, -2873.3167497297227, -2972.402032900099, -2034.9251669556104, -9508.789719198909, -15442.797892427194, 0.014, -0.106, 0.984, 192.0, 0.0, 56.0, 126.0, 88.0, 15.0, 96.0, 0.0, 0.0, 0.0, 1.645921874945511E9, 0.0, 2022-02-27 11:31:14.945
196.0, -861.5032865409001, -4116.2078519115275, -1788.8324605026796, -10019.772949191683, -502.44486361084745, 304.274297270095, -5320.229270485553, -1479.9760556192466, -1494.4376342818302, -5586.371491714895, -4017.457844907981, -2847.478133139388, -3408.506918967595, -2246.9091113697423, -9287.619207813646, -14662.453790003514, 0.014, -0.106, 0.984, 192.0, 0.0, 0.0, 0.0, 0.0, 0.0, 0.0, 0.0, 0.0, 0.0, 1.64592187495249E9, 0.0, 2022-02-27 11:31:14.952
198.0, -277.8321835794668, -3675.051471597132, -1392.3125138655323, -9579.46593516659, 31.493607937527653, 628.4639988498686, -5161.35307089723, -1344.6362429423623, -2417.3635145859143, -5364.306910551419, -3615.4170173903726, -2737.1052190190817, -2952.598387312697, -1885.8613831831674, -9230.622259452613, -14656.910557378598, 0.014, -0.106, 0.984, 192.0, 0.0, 0.0, 0.0, 0.0, 0.0, 0.0, 0.0, 0.0, 0.0, 1.645921874960606E9, 0.0, 2022-02-27 11:31:14.960
200.0, -1091.9944753640266, -4301.727330890576, -1991.8310036457783, -10227.73357960386, -707.7232846883875, 110.68583854268057, -5511.470796045161, -1740.9997273683225, -3406.539965455528, -6196.350597900224, -4012.6522198500898, -2986.3495214402105, -3305.331266561898, -2297.3569986053703, -9571.5087141405, -15484.997985958815, 0.014, -0.106, 0.984, 192.0, 0.0, 0.0, 0.0, 0.0, 0.0, 0.0, 0.0, 0.0, 0.0, 1.645921874967634E9, 0.0, 2022-02-27 11:31:14.967
202.0, -446.2749297946608, -3794.0968625660976, -1475.0139683501684, -9668.761154265541, -98.01239943652146, 585.0792628621176, -5123.757436723404, -1254.7598784875727, -1107.7301034605628, -5117.476596531463, -3785.826717117634, -2724.342372935101, -3193.6619512631837, -2022.1399691271747, -9106.883002148033, -14220.895078288922, 0.014, -0.106, 0.984, 192.0, 0.0, 0.0, 0.0, 0.0, 0.0, 0.0, 0.0, 0.0, 0.0, 1.645921874975199E9, 0.0, 2022-02-27 11:31:14.975
204.0, -693.7534444038206, -4003.733873812422, -1727.789846395236, -9953.723544326253, -366.8591817449548, 325.06141961353063, -5438.022963765021, -1683.0640057401665, -3915.9809250808867, -6011.345209043648, -3707.528556290693, -2884.559677190742, -2968.4904776204203, -2007.5442799978591, -9511.136652366717, -15433.276049289234, 0.014, -0.107, 0.986, 192.0, 0.0, 56.0, 126.0, 80.0, 15.0, 112.0, 0.0, 0.0, 0.0, 1.645921874983042E9, 0.0, 2022-02-27 11:31:14.983
206.0, -852.4508300365007, -4108.429444841081, -1779.78000399828, -10004.21613505079, -493.459462339814, 305.3471810039498, -5322.442093186628, -1469.157811302878, -1478.0538055960901, -5547.032421473554, -4015.155615229084, -2856.575293132698, -3405.4447299772182, -2237.566082187424, -9278.83497224271, -14648.349839252216, 0.014, -0.107, 0.986, 192.0, 0.0, 0.0, 0.0, 0.0, 0.0, 0.0, 0.0, 0.0, 0.0, 1.645921874991139E9, 0.0, 2022-02-27 11:31:14.991
208.0, -265.1587444733077, -3668.211837793808, -1382.1201183939122, -9571.41930716268, 41.39543073122868, 627.2793563937374, -5135.022715928879, -1342.2222545411892, -2432.428590348791, -5350.270015033486, -3610.723151054758, -2723.358896179068, -2954.341823380211, -1900.3453135902064, -9235.49493974387, -14658.922214379576, 0.014, -0.107, 0.986, 192.0, 0.0, 0.0, 0.0, 0.0, 0.0, 0.0, 0.0, 0.0, 0.0, 1.645921874997668E9, 0.0, 2022-02-27 11:31:14.997
210.0, -1066.4464314516106, -4279.129717246261, -1983.8961343641442, -10217.1612044765, -703.387046264058, 111.57990832089286, -5509.727359977646, -1754.6789949749702, -3416.575898715961, -6209.962810273506, -3999.576449343735, -2964.668329318563, -3300.659751970739, -2291.9702281916416, -9573.408612419202, -15492.508172095797, 0.014, -0.107, 0.986, 192.0, 0.0, 0.0, 0.0, 0.0, 0.0, 0.0, 0.0, 0.0, 0.0, 1.645921875005709E9, 0.0, 2022-02-27 11:31:15.005
212.0, -433.9591185997866, -3784.6420746615026, -1479.7748899191488, -9666.10129667536, -111.91518448772246, 584.1628413394501, -5121.3658000666865, -1253.776401731539, -1082.1820595481468, -5096.577715465751, -3778.1600687694636, -2700.6718755569314, -3196.165346642178, -2013.2216230895071, -9111.018074872265, -14221.140947477932, 0.014, -0.107, 0.986, 192.0, 0.0, 0.0, 0.0, 0.0, 0.0, 0.0, 0.0, 0.0, 0.0, 1.645921875013773E9, 0.0, 2022-02-27 11:31:15.013
214.0, -660.8293248211534, -3963.5007337928696, -1722.693648659426, -9922.989895700204, -356.175047895318, 338.0030796531534, -5434.200815463164, -1676.6043515925828, -3899.3065237172277, -5987.89822911003, -3698.721968975302, -2854.18365647598, -2973.787841056328, -2004.5044427519374, -9513.528289023434, -15420.133223549514, 0.014, -0.1075, 0.987, 192.0, 0.0, 56.0, 126.0, 80.0, 15.0, 112.0, 0.0, 0.0, 0.0, 1.645921875027232E9, 0.0, 2022-02-27 11:31:15.027
216.0, -874.8696297251737, -4107.602430296234, -1806.847966533657, -10021.918716659393, -513.1960526938501, 289.276276740584, -5312.853194815301, -1470.7894886481154, -1539.7893237816481, -5593.34523598495, -4019.357743186682, -2844.2594819378237, -3417.291154538531, -2255.179256818206, -9301.83491728722, -14674.456676776013, 0.014, -0.1075, 0.987, 192.0, 0.0, 0.0, 0.0, 0.0, 0.0, 0.0, 0.0, 0.0, 0.0, 1.645921875035441E9, 0.0, 2022-02-27 11:31:15.035
218.0, -266.67866309626856, -3657.8406283665454, -1390.2785051200992, -9573.877999052764, 41.19426503113092, 626.8323215046313, -5150.311309136308, -1329.5041119461193, -2372.861191375398, -5325.906613577201, -3619.373276158962, -2737.976937052839, -2961.7849542838285, -1898.356008333684, -9230.644611197069, -14629.440263443026, 0.014, -0.1075, 0.987, 192.0, 0.0, 0.0, 0.0, 0.0, 0.0, 0.0, 0.0, 0.0, 0.0, 1.645921875043788E9, 0.0, 2022-02-27 11:31:15.043
220.0, -1076.1470885452138, -4292.719577875087, -1991.3616170122168, -10223.129120246067, -690.6689036689883, 110.1270449312979, -5512.342514078917, -1751.4379920289507, -3441.699259483726, -6216.645981865643, -4001.9904377449084, -2974.950131768004, -3292.814289666926, -2272.1665826042395, -9575.934359542653, -15496.129154697557, 0.014, -0.1075, 0.987, 192.0, 0.0, 0.0, 0.0, 0.0, 0.0, 0.0, 0.0, 0.0, 0.0, 1.64592187504997E9, 0.0, 2022-02-27 11:31:15.049
222.0, -461.0717846240741, -3798.611914946069, -1494.9740761487576, -9677.545389836478, -122.50991135953801, 561.1628962949391, -5128.652468759116, -1268.4614978386758, -1079.7680711469736, -5126.171425124577, -3799.8412608911112, -2718.128587976526, -3202.6697042786723, -2021.0894371377751, -9111.666275461468, -14225.432482413351, 0.014, -0.1075, 0.987, 192.0, 0.0, 0.0, 0.0, 0.0, 0.0, 0.0, 0.0, 0.0, 0.0, 1.64592187505803E9, 0.0, 2022-02-27 11:31:15.058
224.0, -708.3938370220467, -4008.673609337045, -1743.5478262362274, -9939.798407530596, -372.4918213476922, 328.12360860390766, -5439.36406843234, -1670.6364358230157, -3901.206421995929, -5990.558086700212, -3716.692771517369, -2874.6578543970413, -2977.654692847096, -2004.4597392630267, -9511.516632022456, -15414.746453135784, 0.012, -0.10875, 0.9835, 192.0, 0.0, 40.0, 126.0, 72.0, 15.0, 80.0, 0.0, 0.0, 0.0, 1.645921875065965E9, 0.0, 2022-02-27 11:31:15.065
226.0, -910.2524411979248, -4154.049355274362, -1808.6584578345369, -10022.142234103947, -501.2155176658056, 295.6018204214359, -5296.290552173919, -1467.6155409354617, -1516.990544437235, -5593.322884240495, -4034.1993015050057, -2844.5277028712876, -3420.576860973461, -2252.452343994659, -9293.676530561033, -14665.270109804882, 0.012, -0.10875, 0.9835, 192.0, 0.0, 0.0, 0.0, 0.0, 0.0, 0.0, 0.0, 0.0, 0.0, 1.645921875073101E9, 0.0, 2022-02-27 11:31:15.073
228.0, -325.6649167138239, -3722.2583558867404, -1392.960714454736, -9566.79249606043, 43.45179122111693, 630.9226907399525, -5145.30451837832, -1328.7218008901837, -2409.2274796041825, -5357.109648836809, -3632.8066745766014, -2729.4385706709113, -2963.7966112848057, -1889.5941245072038, -9231.941012375477, -14639.811472870288, 0.012, -0.10875, 0.9835, 192.0, 0.0, 0.0, 0.0, 0.0, 0.0, 0.0, 0.0, 0.0, 0.0, 1.645921875079603E9, 0.0, 2022-02-27 11:31:15.079
230.0, -1158.8261912853948, -4363.865180476329, -1991.518079223404, -10220.290448700243, -690.6242001800777, 114.46328335562747, -5516.365828080872, -1743.1007913471212, -3465.503867328628, -6233.968583818506, -4009.254754692883, -2976.4924021354204, -3285.7287866745937, -2274.245294838583, -9582.192847990138, -15504.131079212557, 0.012, -0.10875, 0.9835, 192.0, 0.0, 0.0, 0.0, 0.0, 0.0, 0.0, 0.0, 0.0, 0.0, 1.64592187508758E9, 0.0, 2022-02-27 11:31:15.087
232.0, -576.2503238022714, -3912.494052945859, -1492.2918668141208, -9683.267436417036, -106.43900709617223, 568.7401376652882, -5110.256983072399, -1251.6753377527402, -1105.8972604152275, -5133.7486664949265, -3815.1298540985413, -2737.1946259969027, -3194.7348349970384, -2017.513158024926, -9107.262981803773, -14218.838717799035, 0.012, -0.10875, 0.9835, 192.0, 0.0, 0.0, 0.0, 0.0, 0.0, 0.0, 0.0, 0.0, 0.0, 1.645921875095752E9, 0.0, 2022-02-27 11:31:15.095
234.0, -828.0650768357608, -4125.8414537717645, -1736.8423028996353, -9943.084113965526, -338.6736319868126, 330.96228014973167, -5416.78880653248, -1667.1272119435325, -3936.164550324029, -6031.595889520156, -3747.4487718878713, -2904.072750100225, -2970.0998032212024, -2020.3965330596607, -9504.967570897052, -15413.38299672401, 0.013000000000000001, -0.109375, 0.98275, 192.0, 0.0, 56.0, 126.0, 72.0, 15.0, 88.0, 0.0, 0.0, 0.0, 1.645921875102739E9, 0.0, 2022-02-27 11:31:15.102
236.0, -1047.6709661091527, -4273.944112532629, -1825.712838853936, -10040.98475467977, -488.05034018162974, 284.2247824936846, -5306.706465090092, -1482.345340531509, -1600.9436966113683, -5654.1196291589295, -4080.1544881051173, -2896.1378808185914, -3428.5117302550952, -2279.5873617634015, -9304.427719644036, -14691.511057795413, 0.013000000000000001, -0.109375, 0.98275, 192.0, 0.0, 0.0, 0.0, 0.0, 0.0, 0.0, 0.0, 0.0, 0.0, 1.645921875110292E9, 0.0, 2022-02-27 11:31:15.110
238.0, -437.13306631244023, -3820.337810556628, -1407.4669966062304, -9578.974196788573, 48.4362302346504, 658.840019564631, -5148.59022481325, -1317.9482600627257, -2423.3090786110256, -5383.819983460901, -3675.0961750860424, -2783.283923063746, -2976.693567835518, -1906.939078204522, -9231.851605397655, -14631.451920444004, 0.013000000000000001, -0.109375, 0.98275, 192.0, 0.0, 0.0, 0.0, 0.0, 0.0, 0.0, 0.0, 0.0, 0.0, 1.64592187511828E9, 0.0, 2022-02-27 11:31:15.118
240.0, -1241.5947010033967, -4445.516102971566, -2008.7289224539904, -10233.142701762044, -693.9546101039184, 110.39526586476158, -5507.738054721124, -1743.2349018138532, -3517.7175423762255, -6278.649720984665, -4049.577301690257, -3012.9033938531156, -3304.5713072504172, -2304.308391130971, -9590.84297309434, -15503.102898967612, 0.013000000000000001, -0.109375, 0.98275, 192.0, 0.0, 0.0, 0.0, 0.0, 0.0, 0.0, 0.0, 0.0, 0.0, 1.645921875126291E9, 0.0, 2022-02-27 11:31:15.126
242.0, -620.260908634771, -3956.25876858935, -1500.9196401738693, -9697.4384424017, -118.28543165748498, 565.230913785805, -5120.158805866099, -1245.7968289609944, -1129.0313159264704, -5167.253931433432, -3842.466037567382, -2757.7135274068746, -3212.3033061389096, -2036.3780303452052, -9112.269772561762, -14214.413072396885, 0.013000000000000001, -0.109375, 0.98275, 192.0, 0.0, 0.0, 0.0, 0.0, 0.0, 0.0, 0.0, 0.0, 0.0, 1.645921875132935E9, 0.0, 2022-02-27 11:31:15.132
244.0, -829.316774525258, -4131.071761974306, -1725.6440789275264, -9942.435913376321, -347.77079198012257, 332.25868132813946, -5427.160015959742, -1663.9756159753342, -3946.200483584462, -6039.307241357236, -3755.048365002676, -2904.2515640558677, -2980.1357364816354, -2026.2079866180406, -9512.522460522945, -15409.359682722055, 0.015500000000000002, -0.10868749999999999, 0.982375, 192.0, 0.0, 72.0, 126.0, 80.0, 15.0, 88.0, 0.0, 0.0, 0.0, 1.645921875147878E9, 0.0, 2022-02-27 11:31:15.147
246.0, -1036.2715764369461, -4262.164743204683, -1824.6623068645367, -10049.724286761795, -508.5468898471463, 296.16061403281856, -5300.403273153695, -1466.7214711572494, -1621.9990398882676, -5672.582170079014, -4080.802688694321, -2894.95323836246, -3439.39702980483, -2285.8011467219767, -9312.407292414582, -14704.072738179297, 0.015500000000000002, -0.10868749999999999, 0.982375, 192.0, 0.0, 0.0, 0.0, 0.0, 0.0, 0.0, 0.0, 0.0, 0.0, 1.645921875155244E9, 0.0, 2022-02-27 11:31:15.155
248.0, -403.3372286960159, -3789.0900718081084, -1401.1191011809233, -9571.575769373867, 52.5265994699716, 646.2783391807484, -5151.138323681155, -1301.3185621879772, -2389.0215026165847, -5385.138736383765, -3666.960140104311, -2766.408355999989, -2980.605123115197, -1914.7398370194242, -9229.996410607864, -14611.380053923138, 0.015500000000000002, -0.10868749999999999, 0.982375, 192.0, 0.0, 0.0, 0.0, 0.0, 0.0, 0.0, 0.0, 0.0, 0.0, 1.64592187516253E9, 0.0, 2022-02-27 11:31:15.162
250.0, -1203.9990668295702, -4404.902983296273, -2004.1468148406525, -10228.404131937521, -686.1762030334716, 123.56044334893744, -5488.739071934113, -1743.7489919363252, -3556.319005050541, -6267.697366201564, -4027.806702590788, -2992.608009887697, -3291.294371043965, -2278.849754196376, -9590.440641694146, -15513.764681072795, 0.015500000000000002, -0.10868749999999999, 0.982375, 192.0, 0.0, 0.0, 0.0, 0.0, 0.0, 0.0, 0.0, 0.0, 0.0, 1.645921875170675E9, 0.0, 2022-02-27 11:31:15.170
