%OpenBCI Raw EEG Data
%Number of channels = 16
%Sample Rate = 125 Hz
%Board = OpenBCI_GUI$BoardCytonSerialDaisy
Sample Index, EXG Channel 0, EXG Channel 1, EXG Channel 2, EXG Channel 3, EXG Channel 4, EXG Channel 5, EXG Channel 6, EXG Channel 7, EXG Channel 8, EXG Channel 9, EXG Channel 10, EXG Channel 11, EXG Channel 12, EXG Channel 13, EXG Channel 14, EXG Channel 15, Accel Channel 0, Accel Channel 1, Accel Channel 2, Other, Other, Other, Other, Other, Other, Other, Analog Channel 0, Analog Channel 1, Analog Channel 2, Timestamp, Other, Timestamp (Formatted)
26.0, -1969.2333900014628, -5028.807226277259, -2128.5342727344364, -10661.245663314541, -1053.4153644341666, 99.77818724849072, -5321.9950582975225, -1694.597505879105, -1937.2703954303738, -6822.3335531155535, -4642.412619878366, -3275.1564115472333, -4353.046936159961, -3053.2706443394, -10105.983627555803, -14581.853399497677, 0.0, 0.0, 0.0, 192.0, 0.0, 0.0, 0.0, 0.0, 0.0, 0.0, 0.0, 0.0, 0.0, 1.645921365765943E9, 0.0, 2022-02-27 11:22:45.765
28.0, -1523.8748817294695, -4689.731262890251, -1870.0586998532654, -10387.012110592379, -684.8350983661531, 345.6250245124131, -5290.881430015735, -1667.462488110362, -3652.856189353012, -6906.532574478695, -4286.684606872154, -3232.1069517263118, -3933.2141200559286, -2769.515248479277, -10244.36327747861, -14996.902942288274, 0.007, -0.049, 0.495, 192.0, 0.0, 56.0, 126.0, 120.0, 15.0, 120.0, 0.0, 0.0, 0.0, 1.645921365765946E9, 0.0, 2022-02-27 11:22:45.765
0.0, -676.3637872175917, -2275.854620439365, -856.3623853161795, -5150.177198669577, -289.8127186075114, 211.7827787140344, -2654.9849098902837, -810.8095301162637, -1226.4625700071538, -3583.8116507305685, -2394.497680008135, -1678.7948225492028, -2247.378498003304, -1608.1186065815218, -5131.692306005038, -7476.7032237891235, 0.012, -0.10200000000000001, 0.986, 192.0, 0.0, 48.0, 126.0, 104.0, 15.0, 104.0, 0.0, 0.0, 0.0, 1.6459213658641E9, 0.0, 2022-02-27 11:22:45.864
2.0, -2152.9200259351765, -5161.174256941588, -2282.4930885425915, -10919.58712572898, -1303.8890128003375, -124.00747823804359, -5668.760021777156, -2047.9562339730544, -4544.847255330951, -7616.289867912516, -4599.452567035266, -3392.123090281855, -4240.260033638481, -3112.592174123785, -10498.882591591191, -15684.219084288967, 0.012, -0.10200000000000001, 0.986, 192.0, 0.0, 0.0, 0.0, 0.0, 0.0, 0.0, 0.0, 0.0, 0.0, 1.645921365870209E9, 0.0, 2022-02-27 11:22:45.870
4.0, -1717.6868579014372, -4816.353895229566, -1914.4716160859605, -10521.99429535798, -891.2087549220032, 227.85368297740018, -5315.088369260832, -1608.9456211263682, -1807.8537950341458, -6592.222343948168, -4538.7228773501965, -3162.682433448128, -4294.977104065073, -2975.73244282394, -10017.35896079051, -14408.225048568851, 0.012, -0.10200000000000001, 0.986, 192.0, 0.0, 0.0, 0.0, 0.0, 0.0, 0.0, 0.0, 0.0, 0.0, 1.645921365876698E9, 0.0, 2022-02-27 11:22:45.876
6.0, -1668.5577235886722, -4799.992418288281, -1951.0614217592981, -10565.870769723746, -867.6500162661096, 184.8042231564788, -5495.310484803973, -1859.3745660036286, -4317.485310731568, -7219.144072430619, -4351.661128003732, -3273.390623735264, -3996.916591753554, -2867.862924082628, -10356.300813710788, -15347.735923258773, 0.012, -0.10200000000000001, 0.986, 192.0, 0.0, 0.0, 0.0, 0.0, 0.0, 0.0, 0.0, 0.0, 0.0, 1.645921365884761E9, 0.0, 2022-02-27 11:22:45.884
8.0, -2114.2962115164055, -5127.713695491993, -2204.0831689933743, -10840.529005590559, -1248.7025557401844, -54.962939615600064, -5516.432883314238, -1868.851705652679, -2826.735714284863, -7217.1994706630085, -4731.149045365935, -3320.7316184916044, -4449.315899528969, -3196.232401875544, -10273.733469692883, -15055.68803020573, 0.012, -0.106, 0.978, 192.0, 0.0, 48.0, 126.0, 88.0, 15.0, 72.0, 0.0, 0.0, 0.0, 1.64592136589265E9, 0.0, 2022-02-27 11:22:45.892
10.0, -1433.5514823855738, -4611.075474152026, -1745.5818349816604, -10343.76148507136, -641.1597897004831, 380.85137377397706, -5274.721118774548, -1585.9680278263127, -2697.5649830776433, -6649.398106264843, -4354.455096060646, -3159.061450846368, -4066.542275731835, -2831.6530980650305, -10085.196505212369, -14617.325617948249, 0.012, -0.106, 0.978, 192.0, 0.0, 0.0, 0.0, 0.0, 0.0, 0.0, 0.0, 0.0, 0.0, 1.645921365899908E9, 0.0, 2022-02-27 11:22:45.899
12.0, -2135.3739065377604, -5151.272434147887, -2269.953759903164, -10915.58616347148, -1281.7831375340388, -115.22324266710791, -5665.988405464698, -2074.9794930195208, -4586.24268606218, -7628.650382596301, -4593.551706499065, -3402.583706686939, -4220.657553751177, -3102.3550751632542, -10502.213001515032, -15705.63205547715, 0.012, -0.106, 0.978, 192.0, 0.0, 0.0, 0.0, 0.0, 0.0, 0.0, 0.0, 0.0, 0.0, 1.645921365907986E9, 0.0, 2022-02-27 11:22:45.907
14.0, -1724.9958783383227, -4825.920441856438, -1922.4958923454158, -10536.210004831553, -888.6383043096429, 219.0023921730986, -5324.2302327430525, -1622.2002055883654, -1814.492263137372, -6621.279611740067, -4554.816133358018, -3175.355872554287, -4295.46884244309, -2968.021090986859, -10025.115016116502, -14433.57192678117, 0.012, -0.106, 0.978, 192.0, 0.0, 0.0, 0.0, 0.0, 0.0, 0.0, 0.0, 0.0, 0.0, 1.645921365915361E9, 0.0, 2022-02-27 11:22:45.915
16.0, -1654.4537728373734, -4780.322883167611, -1940.779619309857, -10551.967984672545, -853.0543271367941, 209.39114205731656, -5476.8479438838895, -1841.9849088173996, -4252.687603555632, -7178.665063222059, -4345.983784912084, -3258.5267136724847, -3979.683396778512, -2846.092324983159, -10347.203653717477, -15318.902172911427, 0.013000000000000001, -0.106, 0.98, 192.0, 0.0, 56.0, 126.0, 88.0, 15.0, 88.0, 0.0, 0.0, 0.0, 1.645921365929389E9, 0.0, 2022-02-27 11:22:45.929
18.0, -2121.582880208836, -5124.8303204572585, -2210.855747563332, -10844.753485292613, -1249.1719423737459, -59.65680595121455, -5517.215194370174, -1864.1131358281536, -2869.2040287499462, -7224.754360288902, -4738.569824525097, -3332.645098286283, -4441.2245680361475, -3183.9612941695805, -10282.98709189738, -15070.037850146038, 0.013000000000000001, -0.106, 0.98, 192.0, 0.0, 0.0, 0.0, 0.0, 0.0, 0.0, 0.0, 0.0, 0.0, 1.645921365937117E9, 0.0, 2022-02-27 11:22:45.937
20.0, -1436.3007469535764, -4610.404921818366, -1745.760648937303, -10337.95003151298, -640.4221821334579, 377.38685338340446, -5274.832877496824, -1588.31496099412, -2658.0247471362054, -6647.922891130793, -4359.014851929528, -3155.9545583670806, -4069.448002511025, -2823.315897383201, -10086.33644417959, -14600.360643906672, 0.013000000000000001, -0.106, 0.98, 192.0, 0.0, 0.0, 0.0, 0.0, 0.0, 0.0, 0.0, 0.0, 0.0, 1.64592136594494E9, 0.0, 2022-02-27 11:22:45.944
22.0, -2134.23396757054, -5143.4940270774405, -2274.1558878607616, -10910.244096546663, -1293.4954516286198, -129.61776609632565, -5673.319777646038, -2055.131143943208, -4591.987084387193, -7615.082873711929, -4584.320436039024, -3390.357302469886, -4220.657553751177, -3099.426996639609, -10514.79703364337, -15707.06256712229, 0.013000000000000001, -0.106, 0.98, 192.0, 0.0, 0.0, 0.0, 0.0, 0.0, 0.0, 0.0, 0.0, 0.0, 1.645921365952141E9, 0.0, 2022-02-27 11:22:45.952
24.0, -1742.0949628466324, -4831.57543320363, -1930.453113371505, -10544.055467135366, -911.6382493541539, 198.97522914114347, -5342.290442262941, -1625.2176910898318, -1810.1113212241319, -6619.1785477612675, -4559.755868882641, -3177.1440121107116, -4313.931383363174, -2985.3213411952665, -10035.285059843667, -14427.469900544871, 0.013000000000000001, -0.106, 0.98, 192.0, 0.0, 0.0, 0.0, 0.0, 0.0, 0.0, 0.0, 0.0, 0.0, 1.645921365959762E9, 0.0, 2022-02-27 11:22:45.959
26.0, -1655.1690286599433, -4787.050758248658, -1937.873892530667, -10556.483037052518, -860.4304028070454, 180.6467986877917, -5484.626350954336, -1852.266711266841, -4250.050097709906, -7199.2957233543075, -4355.5279797945, -3280.9902168500685, -3998.771786543344, -2861.604435635142, -10350.467008407952, -15324.691274725352, 0.013500000000000002, -0.10500000000000001, 0.985, 192.0, 0.0, 56.0, 126.0, 96.0, 15.0, 120.0, 0.0, 0.0, 0.0, 1.645921365967642E9, 0.0, 2022-02-27 11:22:45.967
28.0, -2124.287441287928, -5130.217090870988, -2212.398017930748, -10856.62226159838, -1255.005747676581, -86.63536150877017, -5534.537796323037, -1884.5426302603043, -2917.8861281736054, -7260.315985717295, -4740.1791501258795, -3336.7354675216043, -4458.323652544457, -3203.58612580134, -10293.537115280285, -15106.270027908091, 0.013500000000000002, -0.10500000000000001, 0.985, 192.0, 0.0, 0.0, 0.0, 0.0, 0.0, 0.0, 0.0, 0.0, 0.0, 1.645921365975539E9, 0.0, 2022-02-27 11:22:45.975
30.0, -1432.322136440532, -4603.319418826034, -1742.2290733133643, -10343.739133326904, -646.390097903025, 371.5753998250246, -5275.346967619296, -1584.4481092033518, -2614.550604170633, -6645.7100684297175, -4358.299596106958, -3158.681471190628, -4082.926104417575, -2824.1429119280474, -10079.899141776461, -14596.98553049392, 0.013500000000000002, -0.10500000000000001, 0.985, 192.0, 0.0, 0.0, 0.0, 0.0, 0.0, 0.0, 0.0, 0.0, 0.0, 1.645921365981544E9, 0.0, 2022-02-27 11:22:45.981
32.0, -2108.4400544691152, -5123.533919278851, -2256.118030085329, -10900.49873596415, -1272.0377769515248, -119.98416423608832, -5654.566664048036, -2052.136010186197, -4615.277602109623, -7618.659152824778, -4571.423479488311, -3392.525421682051, -4208.855832678775, -3091.603886080252, -10508.180917284599, -15716.718520726983, 0.013500000000000002, -0.10500000000000001, 0.985, 192.0, 0.0, 0.0, 0.0, 0.0, 0.0, 0.0, 0.0, 0.0, 0.0, 1.645921365989423E9, 0.0, 2022-02-27 11:22:45.989
34.0, -1755.3271955641742, -4840.7843519192165, -1940.9807850099546, -10555.141932385199, -927.1950634950475, 181.78673765501233, -5334.422628214673, -1637.1311708845105, -1810.714818324425, -6651.298004543544, -4561.56636018352, -3173.075994619846, -4319.13933982126, -2999.2241262464677, -10034.435693554366, -14452.168578167984, 0.013500000000000002, -0.10500000000000001, 0.985, 192.0, 0.0, 0.0, 0.0, 0.0, 0.0, 0.0, 0.0, 0.0, 0.0, 1.645921365997352E9, 0.0, 2022-02-27 11:22:45.997
36.0, -1617.5510427416616, -4758.351118368044, -1916.9526597204997, -10529.660943706149, -839.8220944192523, 213.16858687026345, -5478.837249140412, -1833.8712255801233, -4182.614884688244, -7161.565978713749, -4342.1392848657715, -3253.0505362809345, -3995.0166934748527, -2862.5208571578096, -10335.625450089628, -15292.817687132085, 0.01575, -0.10550000000000001, 0.9864999999999999, 192.0, 0.0, 72.0, 126.0, 88.0, 15.0, 112.0, 0.0, 0.0, 0.0, 1.645921366005208E9, 0.0, 2022-02-27 11:22:46.005
38.0, -2137.4079152831932, -5143.762248010904, -2230.569986172913, -10870.837971071956, -1286.611114336385, -89.71990224360255, -5551.458066875704, -1902.4016740800946, -3021.5088154684086, -7290.088509331765, -4738.435714058365, -3339.685897789705, -4441.805713391986, -3216.1925096741334, -10318.883993492604, -15157.611984921932, 0.01575, -0.10550000000000001, 0.9864999999999999, 192.0, 0.0, 0.0, 0.0, 0.0, 0.0, 0.0, 0.0, 0.0, 0.0, 1.645921366011913E9, 0.0, 2022-02-27 11:22:46.011
40.0, -1437.9547760432692, -4612.48363405271, -1751.2591780733082, -10345.348458927687, -659.6893858539327, 367.7979550120777, -5278.923246732145, -1580.178926012388, -2525.9259374053404, -6615.624620392874, -4374.705776537154, -3153.518218221452, -4091.732691732966, -2833.731810299374, -10076.2781591747, -14569.716402258446, 0.01575, -0.10550000000000001, 0.9864999999999999, 192.0, 0.0, 0.0, 0.0, 0.0, 0.0, 0.0, 0.0, 0.0, 0.0, 1.645921366019862E9, 0.0, 2022-02-27 11:22:46.019
42.0, -2103.768539877956, -5122.39398031163, -2259.5154952425355, -10900.342273752962, -1275.7481665311059, -132.38938240878375, -5671.26341715615, -2083.808432079367, -4631.974355217738, -7613.160623688773, -4572.786935900085, -3391.966628070668, -4206.531251255423, -3088.8099180233385, -10516.94280111108, -15719.356026572708, 0.01575, -0.10550000000000001, 0.9864999999999999, 192.0, 0.0, 0.0, 0.0, 0.0, 0.0, 0.0, 0.0, 0.0, 0.0, 1.645921366027862E9, 0.0, 2022-02-27 11:22:46.027
44.0, -1762.5468090232384, -4858.889264928015, -1950.1450002366305, -10569.692918025603, -948.3174620053128, 168.84507761538956, -5348.034840587955, -1623.6530689779604, -1814.0228765038105, -6663.166780849312, -4573.14456381137, -3189.169250627667, -4329.443494015157, -3012.0316758193585, -10045.589214037564, -14462.29391840624, 0.01575, -0.10550000000000001, 0.9864999999999999, 192.0, 0.0, 0.0, 0.0, 0.0, 0.0, 0.0, 0.0, 0.0, 0.0, 1.645921366035027E9, 0.0, 2022-02-27 11:22:46.035
46.0, -1609.1244350820107, -4753.523141565698, -1916.4385695980275, -10526.732865182503, -841.0290886198388, 209.860528690878, -5486.593304466403, -1818.493225394872, -4152.171808740117, -7141.807036615257, -4342.899244177252, -3267.3333009878756, -3996.223687675439, -2852.060240752726, -10337.234775690411, -15281.552407926609, 0.018875, -0.10575000000000001, 0.98725, 192.0, 0.0, 88.0, 126.0, 88.0, 15.0, 112.0, 0.0, 0.0, 0.0, 1.645921366049577E9, 0.0, 2022-02-27 11:22:46.049
48.0, -2130.7470954355117, -5133.6369077726495, -2226.7478378710557, -10860.779686067068, -1280.3973293778097, -85.36131207481768, -5556.777782056068, -1905.1509386480975, -3012.210489775001, -7287.428651741583, -4735.12765587898, -3342.099886190878, -4445.426695993745, -3208.4141026036864, -10319.554545826262, -15160.137732045381, 0.018875, -0.10575000000000001, 0.98725, 192.0, 0.0, 0.0, 0.0, 0.0, 0.0, 0.0, 0.0, 0.0, 0.0, 1.645921366057546E9, 0.0, 2022-02-27 11:22:46.057
50.0, -1443.766229601649, -4608.057988650559, -1751.7062129624146, -10342.353325170676, -662.7068713553991, 379.30910340656084, -5280.286703143919, -1559.6823763468715, -2533.3467165645025, -6600.9842277746475, -4367.597921800366, -3152.4229827431423, -4091.8220987107875, -2834.5141213553097, -10077.976891753304, -14572.085687170707, 0.018875, -0.10575000000000001, 0.98725, 192.0, 0.0, 0.0, 0.0, 0.0, 0.0, 0.0, 0.0, 0.0, 0.0, 1.645921366064595E9, 0.0, 2022-02-27 11:22:46.064
52.0, -2093.553792661881, -5113.274468573865, -2252.1617713167398, -10890.418099214805, -1276.5304775870416, -105.9919722070661, -5676.918408503343, -2057.7239463000233, -4656.047183996104, -7603.236449150616, -4562.460429961733, -3387.876258835347, -4198.238754062504, -3083.557258076341, -10521.413150002141, -15720.428910306564, 0.018875, -0.10575000000000001, 0.98725, 192.0, 0.0, 0.0, 0.0, 0.0, 0.0, 0.0, 0.0, 0.0, 0.0, 1.645921366072267E9, 0.0, 2022-02-27 11:22:46.072
54.0, -1760.244579344342, -4854.687136970418, -1946.680479846058, -10568.66473778066, -954.2853777748797, 179.30569402047325, -5339.541177694939, -1641.3556505865636, -1805.3727513996068, -6656.729478446184, -4566.059060819038, -3179.6027040007957, -4327.342430036358, -3006.1308152831575, -10045.544510548652, -14464.52909285177, 0.018875, -0.10575000000000001, 0.98725, 192.0, 0.0, 0.0, 0.0, 0.0, 0.0, 0.0, 0.0, 0.0, 0.0, 1.645921366080134E9, 0.0, 2022-02-27 11:22:46.080
56.0, -1585.2304202592875, -4729.070333131592, -1893.8856594426227, -10514.12648130971, -823.4606174779675, 230.84881673441134, -5465.761478634057, -1812.88293753659, -4103.333247105271, -7128.820673086724, -4328.0576858589275, -3257.6102921498173, -3990.814565517255, -2850.965005274416, -10321.923830738526, -15257.881910548438, 0.018437500000000002, -0.10387500000000001, 0.988625, 192.0, 0.0, 72.0, 126.0, 104.0, 15.0, 120.0, 0.0, 0.0, 0.0, 1.645921366087261E9, 0.0, 2022-02-27 11:22:46.087
58.0, -2137.5867292388357, -5143.918710222091, -2232.827512362899, -10872.313186206005, -1294.9483150182148, -87.44002430916123, -5545.914834250789, -1906.8273194822455, -3074.102470171746, -7316.552974766848, -4727.706876719818, -3342.2787001465204, -4439.525835457544, -3204.256678134999, -10324.94131623999, -15188.971482392728, 0.018437500000000002, -0.10387500000000001, 0.988625, 192.0, 0.0, 0.0, 0.0, 0.0, 0.0, 0.0, 0.0, 0.0, 0.0, 1.645921366094719E9, 0.0, 2022-02-27 11:22:46.094
60.0, -1442.6933458677943, -4612.237764863702, -1756.5118380203055, -10345.057886249768, -664.3385487006365, 379.9126005068541, -5268.999072193989, -1551.9263210208799, -2476.7297478592095, -6597.586762617441, -4372.24708464707, -3155.820447900349, -4106.283677373371, -2825.640478806553, -10065.66108055843, -14549.756294459856, 0.018437500000000002, -0.10387500000000001, 0.988625, 192.0, 0.0, 0.0, 0.0, 0.0, 0.0, 0.0, 0.0, 0.0, 0.0, 1.645921366101793E9, 0.0, 2022-02-27 11:22:46.101
62.0, -2089.3963681931937, -5115.330829063753, -2255.7156986851332, -10880.739793865658, -1278.743300288117, -96.62659128029243, -5671.93396948981, -2053.387707875694, -4669.59234113602, -7600.062501437963, -4556.872493847906, -3385.8422500899137, -4199.378693029725, -3089.972208735014, -10517.903926122657, -15713.946904414524, 0.018437500000000002, -0.10387500000000001, 0.988625, 192.0, 0.0, 0.0, 0.0, 0.0, 0.0, 0.0, 0.0, 0.0, 0.0, 1.64592136610975E9, 0.0, 2022-02-27 11:22:46.109
64.0, -1764.3573003241183, -4853.547198003197, -1958.5939596407368, -10569.000013947489, -965.1036220912483, 166.07346130293146, -5344.078581819365, -1653.4479443368846, -1808.7031613234476, -6646.98411786367, -4577.0561190910485, -3170.5502474963964, -4343.703906977643, -3008.991838573437, -10049.120789661501, -14464.618499829592, 0.018437500000000002, -0.10387500000000001, 0.988625, 192.0, 0.0, 0.0, 0.0, 0.0, 0.0, 0.0, 0.0, 0.0, 0.0, 1.64592136611692E9, 0.0, 2022-02-27 11:22:46.116
66.0, -1570.9029520634356, -4714.832271913561, -1890.197621607497, -10501.497745692463, -819.5267104538334, 218.9800404286433, -5454.987937806599, -1825.9587080429446, -4068.0845460992514, -7102.825594285202, -4322.447398000646, -3244.422762921186, -3991.0157312173524, -2824.344077628145, -10319.107510937156, -15241.63219232943, 0.01721875, -0.10293750000000002, 0.9893125, 192.0, 0.0, 64.0, 126.0, 104.0, 15.0, 120.0, 0.0, 0.0, 0.0, 1.645921366124487E9, 0.0, 2022-02-27 11:22:46.124
68.0, -2135.798589682411, -5135.82737872927, -2225.5855471593795, -10875.48713391866, -1300.648009854318, -103.53328031698231, -5549.736982552646, -1940.354936165206, -3107.3842176656985, -7305.667675217113, -4723.303583062123, -3338.8588832448586, -4443.169169803759, -3201.708579267094, -10329.657534320062, -15205.44471805629, 0.01721875, -0.10293750000000002, 0.9893125, 192.0, 0.0, 0.0, 0.0, 0.0, 0.0, 0.0, 0.0, 0.0, 0.0, 1.645921366132285E9, 0.0, 2022-02-27 11:22:46.132
70.0, -1454.830343107026, -4627.369895859944, -1742.497294246828, -10350.422304919042, -679.7836041192537, 363.0817369320079, -5279.191467665609, -1558.2071612128213, -2453.394526647869, -6608.807338334005, -4370.704814279654, -3170.080860862835, -4101.388645337659, -2844.795923804751, -10059.156722921934, -14545.420056035526, 0.01721875, -0.10293750000000002, 0.9893125, 192.0, 0.0, 0.0, 0.0, 0.0, 0.0, 0.0, 0.0, 0.0, 0.0, 1.645921366140672E9, 0.0, 2022-02-27 11:22:46.140
72.0, -2103.1203392887523, -5142.242329387943, -2236.6273089203014, -10882.751450866634, -1257.2409221221117, -107.19896640765268, -5656.243044882184, -2057.031042221909, -4692.793451880629, -7628.628030851845, -4556.090182791971, -3415.4583114931957, -4180.223248031527, -3084.0936999432683, -10502.592981170772, -15716.383244560153, 0.01721875, -0.10293750000000002, 0.9893125, 192.0, 0.0, 0.0, 0.0, 0.0, 0.0, 0.0, 0.0, 0.0, 0.0, 1.645921366147092E9, 0.0, 2022-02-27 11:22:46.147
74.0, -1823.008277774844, -4926.056257016213, -1961.9020178201222, -10580.734679786525, -961.9743778675054, 165.96170258065493, -5348.638337688249, -1650.8327902356136, -1828.6632691220368, -6696.4261765988085, -4594.959866399749, -3190.4209483171644, -4336.931328407684, -3016.345562499233, -10042.728190747284, -14471.480485377371, 0.01721875, -0.10293750000000002, 0.9893125, 192.0, 0.0, 0.0, 0.0, 0.0, 0.0, 0.0, 0.0, 0.0, 0.0, 1.645921366155098E9, 0.0, 2022-02-27 11:22:46.155
76.0, -1637.8687784515357, -4797.869002565027, -1885.5708105052486, -10497.116803779221, -801.2876869783029, 239.11896218287495, -5444.348507445873, -1785.0773674341879, -4052.32656625826, -7131.838158588191, -4344.732087222586, -3267.6685771547054, -3983.997283458386, -2861.537380401776, -10302.477813062407, -15218.140508906903, 0.017609375000000003, -0.10246875000000001, 0.98965625, 192.0, 0.0, 72.0, 126.0, 104.0, 15.0, 120.0, 0.0, 0.0, 0.0, 1.645921366163087E9, 0.0, 2022-02-27 11:22:46.163
78.0, -2262.801201677466, -5262.695880257593, -2252.3182335279266, -10886.238323001662, -1303.3078674444996, -82.96967541809981, -5581.409404445816, -1897.7748629778462, -3221.0651899653903, -7379.897818553188, -4752.249092131745, -3373.5040871505844, -4443.772666904052, -3205.3742653577647, -10345.147293227588, -15231.685666046818, 0.017609375000000003, -0.10246875000000001, 0.98965625, 192.0, 0.0, 0.0, 0.0, 0.0, 0.0, 0.0, 0.0, 0.0, 0.0, 1.645921366176921E9, 0.0, 2022-02-27 11:22:46.176
80.0, -1615.9640688853347, -4779.942903511871, -1757.2941490762412, -10357.820732333748, -664.3161969561812, 392.3401704240049, -5232.901004898668, -1552.1274867209777, -2424.381962344881, -6637.417571236798, -4417.665829380254, -3181.7261197240496, -4108.295334374348, -2840.2361679358683, -10045.969193693303, -14511.713625396924, 0.017609375000000003, -0.10246875000000001, 0.98965625, 192.0, 0.0, 0.0, 0.0, 0.0, 0.0, 0.0, 0.0, 0.0, 0.0, 1.645921366184697E9, 0.0, 2022-02-27 11:22:46.184
82.0, -2270.1772773477173, -5299.5762586088495, -2242.7516869010556, -10885.67952939028, -1241.326480069933, -87.44002430916123, -5624.861195666933, -2049.923187485121, -4743.062525160614, -7650.823313095965, -4593.261133821146, -3444.090896140444, -4164.44291644608, -3046.5204175138974, -10494.166373511121, -15708.224857833966, 0.017609375000000003, -0.10246875000000001, 0.98965625, 192.0, 0.0, 0.0, 0.0, 0.0, 0.0, 0.0, 0.0, 0.0, 0.0, 1.645921366192718E9, 0.0, 2022-02-27 11:22:46.192
84.0, -2017.2449370914624, -5100.86925040117, -1985.3937012426497, -10605.52276438746, -964.5224767354104, 174.76828989604593, -5322.844424586824, -1612.1642723279326, -1889.392958807106, -6750.316232480554, -4655.041355495615, -3261.320681729398, -4337.601880741344, -3020.8382631347495, -10033.720437731796, -14476.800200557733, 0.017609375000000003, -0.10246875000000001, 0.98965625, 192.0, 0.0, 0.0, 0.0, 0.0, 0.0, 0.0, 0.0, 0.0, 0.0, 1.645921366201407E9, 0.0, 2022-02-27 11:22:46.201
86.0, -1774.1697161399982, -4920.468320902386, -1884.654388982581, -10500.804841614348, -783.9427332809846, 251.6806425667575, -5412.743140786069, -1759.9093031775121, -4070.7220519449775, -7151.261824519852, -4397.72807332612, -3317.4682638011295, -3990.9039724950762, -2854.541284387265, -10290.631388501095, -15187.920950403328, 0.02, -0.10400000000000001, 0.992, 192.0, 0.0, 80.0, 126.0, 96.0, 15.5, 0.0, 0.0, 0.0, 0.0, 1.64592136620745E9, 0.0, 2022-02-27 11:22:46.207
88.0, -2351.0682405314733, -5345.263224275497, -2256.9450446301753, -10900.275218519595, -1304.8948413008263, -109.27767864199623, -5562.43277340326, -1925.5357295913375, -3320.3516388358644, -7428.892842399221, -4789.151822227457, -3426.388314531841, -4434.407285977279, -3234.8562162943144, -10343.113284482157, -15258.396000670911, 0.02, -0.10400000000000001, 0.992, 192.0, 0.0, 0.0, 0.0, 0.0, 0.0, 0.0, 0.0, 0.0, 0.0, 1.64592136621554E9, 0.0, 2022-02-27 11:22:46.215
90.0, -1622.9601648998457, -4780.524048867708, -1757.6741287319815, -10354.803246832282, -667.1772202464605, 378.5267923506251, -5258.270234855442, -1547.0759924740782, -2390.8096421730093, -6648.436981253265, -4427.96998357415, -3197.193526887122, -4109.055293685829, -2830.379048631078, -10037.453179055832, -14498.05670953473, 0.02, -0.10400000000000001, 0.992, 192.0, 0.0, 0.0, 0.0, 0.0, 0.0, 0.0, 0.0, 0.0, 0.0, 1.645921366222508E9, 0.0, 2022-02-27 11:22:46.222
92.0, -2214.052047020441, -5237.9972026344785, -2236.4261432202034, -10869.161590237807, -1226.7084391961623, -71.1679543456977, -5630.270317825118, -2023.704591239046, -4742.459028060321, -7642.575519391957, -4563.980348584694, -3429.1822825887543, -4144.438105158581, -3060.624368265196, -10490.992425798468, -15695.43966000553, 0.02, -0.10400000000000001, 0.992, 192.0, 0.0, 0.0, 0.0, 0.0, 0.0, 0.0, 0.0, 0.0, 0.0, 1.645921366229034E9, 0.0, 2022-02-27 11:22:46.229
94.0, -1965.7912213553454, -5029.723647799927, -2000.9281636390883, -10616.251601726008, -973.6196367287204, 156.43985944269414, -5328.365305467285, -1631.140903370488, -1898.7583397338797, -6759.011061073668, -4642.725544300741, -3249.4519054236303, -4346.296709334459, -3030.3601062727103, -10044.426923325887, -14487.909017552021, 0.02, -0.10400000000000001, 0.992, 192.0, 0.0, 0.0, 0.0, 0.0, 0.0, 0.0, 0.0, 0.0, 0.0, 1.64592136623696E9, 0.0, 2022-02-27 11:22:46.236
96.0, -1688.8084040651804, -4832.491854726298, -1876.5407057453044, -10480.084774504277, -749.3869363530799, 275.954637045221, -5392.984198687577, -1744.754820436814, -3982.1867921575063, -7080.652663785537, -4361.272378119514, -3294.1106908453335, -3973.648425775579, -2853.870732053606, -10272.079440603191, -15150.124150529404, 0.014, -0.108, 0.994, 192.0, 0.0, 56.0, 126.0, 80.0, 15.5, 8.0, 0.0, 0.0, 0.0, 1.645921366244944E9, 0.0, 2022-02-27 11:22:46.244
98.0, -2283.2530478540716, -5274.117621674254, -2263.270588311027, -10900.722253408701, -1286.2758381695555, -93.63145752328128, -5546.361869139894, -1912.3482003627064, -3336.266080888043, -7414.744188159012, -4753.031403187681, -3408.2610497785868, -4401.304352438969, -3217.1759864301666, -10341.861586792658, -15260.966451283271, 0.014, -0.108, 0.994, 192.0, 0.0, 0.0, 0.0, 0.0, 0.0, 0.0, 0.0, 0.0, 0.0, 1.64592136625227E9, 0.0, 2022-02-27 11:22:46.252
100.0, -1575.5074114212289, -4729.919699420893, -1771.2416376163528, -10354.937357299013, -655.5990166186115, 382.3489406524826, -5229.615298463738, -1540.9069110044136, -2352.498752176613, -6609.969629045681, -4404.120672240338, -3185.8835441927367, -4095.6889505015556, -2862.029118779793, -10030.70295223033, -14481.181142470974, 0.014, -0.108, 0.994, 192.0, 0.0, 0.0, 0.0, 0.0, 0.0, 0.0, 0.0, 0.0, 0.0, 1.645921366259636E9, 0.0, 2022-02-27 11:22:46.259
102.0, -2166.3087208639054, -5183.034263018878, -2242.8187421344214, -10863.774819824079, -1213.1856338007015, -69.17864908917537, -5625.487044511681, -2016.7531987134457, -4743.978946683282, -7618.010952235574, -4540.108685506426, -3417.0452853495226, -4128.836587528776, -3052.309519327822, -10487.326739707798, -15689.047061091313, 0.014, -0.108, 0.994, 192.0, 0.0, 0.0, 0.0, 0.0, 0.0, 0.0, 0.0, 0.0, 0.0, 1.645921366267724E9, 0.0, 2022-02-27 11:22:46.267
104.0, -1935.6610698295917, -5000.353455585654, -2018.3848760586832, -10615.335180203341, -976.1230321077147, 150.0696122729316, -5315.334238449841, -1602.5530222121504, -1896.5455170328044, -6747.902244079381, -4632.53314882912, -3251.7541351025266, -4347.324889579402, -3054.120010628702, -10047.80203673864, -14487.417279174004, 0.014, -0.108, 0.994, 192.0, 0.0, 0.0, 0.0, 0.0, 0.0, 0.0, 0.0, 0.0, 0.0, 1.645921366275817E9, 0.0, 2022-02-27 11:22:46.275
106.0, -1636.1923976173875, -4776.053699976647, -1884.4755750269385, -10476.016757013413, -746.2800438737922, 280.1567650028187, -5378.097936880343, -1721.2631370142863, -3963.299568092772, -7074.885913716068, -4350.0070989140395, -3282.2419145395656, -3978.45405083347, -2844.6394615935637, -10268.860789401626, -15140.557603902533, 0.016, -0.10400000000000001, 0.988, 192.0, 0.0, 64.0, 126.0, 96.0, 15.0, 112.0, 0.0, 0.0, 0.0, 1.645921366282348E9, 0.0, 2022-02-27 11:22:46.282
108.0, -2243.601053190357, -5226.8436821512805, -2280.570838519435, -10905.930209866789, -1300.4021406653096, -100.3369808598734, -5552.016860487087, -1900.747644990402, -3355.71209856416, -7400.37201647425, -4741.229682115279, -3408.775139901059, -4405.841756563396, -3214.739646284538, -10353.640956120606, -15274.109277022992, 0.016, -0.10400000000000001, 0.988, 192.0, 0.0, 0.0, 0.0, 0.0, 0.0, 0.0, 0.0, 0.0, 0.0, 1.645921366297329E9, 0.0, 2022-02-27 11:22:46.297
110.0, -1542.4491813718298, -4714.74286493574, -1786.9996174573444, -10362.738116113916, -666.5513714017119, 360.08660317499675, -5236.7678566894365, -1539.0517162146232, -2340.026478770552, -6601.16304173029, -4391.760157556553, -3178.842744689315, -4096.1359853906615, -2856.9105692995277, -10036.112074388513, -14480.220017459396, 0.016, -0.10400000000000001, 0.988, 192.0, 0.0, 0.0, 0.0, 0.0, 0.0, 0.0, 0.0, 0.0, 0.0, 1.645921366304539E9, 0.0, 2022-02-27 11:22:46.304
112.0, -2108.3953509802045, -5149.908977736113, -2247.177332303206, -10859.416229655293, -1207.0612558199473, -74.63247473627028, -5626.314059056528, -2021.7152859825237, -4755.020708444204, -7618.614449335868, -4523.099007975938, -3405.847061377414, -4126.221433427505, -3055.2823013403777, -10496.334492723287, -15697.048985606312, 0.016, -0.10400000000000001, 0.988, 192.0, 0.0, 0.0, 0.0, 0.0, 0.0, 0.0, 0.0, 0.0, 0.0, 1.645921366313463E9, 0.0, 2022-02-27 11:22:46.313
114.0, -1891.002284407888, -4954.867655619104, -2022.519948782915, -10621.370151206274, -977.888819919684, 143.56525463643726, -5333.81913111438, -1642.7638104872478, -1899.2053746229858, -6752.819627859549, -4617.490424810699, -3239.170102974189, -4337.020735385506, -3057.5174757859086, -10060.028440955692, -14510.886610852076, 0.016, -0.10400000000000001, 0.988, 192.0, 0.0, 0.0, 0.0, 0.0, 0.0, 0.0, 0.0, 0.0, 0.0, 1.645921366319914E9, 0.0, 2022-02-27 11:22:46.319
116.0, -1577.8766963334915, -4730.657306987919, -1872.3385777877068, -10460.30348066133, -734.7241919903985, 293.7019221427348, -5389.944361441656, -1729.3768202515628, -3901.6534568850348, -7025.041523580733, -4328.638831214766, -3265.612216664817, -3958.6057017571575, -2840.8173132917063, -10272.772344681305, -15125.537231628567, 0.016, -0.10400000000000001, 0.99, 192.0, 0.0, 64.0, 126.0, 96.0, 15.0, 120.0, 0.0, 0.0, 0.0, 1.645921366328011E9, 0.0, 2022-02-27 11:22:46.328
118.0, -2211.0345615189744, -5208.425844720107, -2280.7496524750773, -10905.505526722138, -1294.8589080403935, -106.349600118351, -5541.153912681808, -1912.3705521071618, -3399.2980002520085, -7429.943374388621, -4727.393952297443, -3389.8879158363243, -4392.765986057042, -3221.288707409943, -10363.565130658762, -15294.02468133267, 0.016, -0.10400000000000001, 0.99, 192.0, 0.0, 0.0, 0.0, 0.0, 0.0, 0.0, 0.0, 0.0, 0.0, 1.645921366334719E9, 0.0, 2022-02-27 11:22:46.334
120.0, -1503.7359599752378, -4679.583570907542, -1778.818878986702, -10372.796401118803, -665.8808190680527, 363.52877182111405, -5234.979717133012, -1541.8009807826259, -2294.5183270595467, -6599.039626007036, -4380.517230095534, -3164.3811660267315, -4094.6831220010667, -2860.9338833014826, -10029.048923140637, -14472.128685966574, 0.016, -0.10400000000000001, 0.99, 192.0, 0.0, 0.0, 0.0, 0.0, 0.0, 0.0, 0.0, 0.0, 0.0, 1.645921366342586E9, 0.0, 2022-02-27 11:22:46.342
122.0, -2056.382841632705, -5109.29585806082, -2223.573890158402, -10858.320994176984, -1193.5384504244864, -60.90850364071174, -5614.802910662045, -2019.8600911927333, -4735.239414601257, -7592.373501345337, -4490.420757582278, -3403.589535187428, -4101.500404059935, -3027.7449521714393, -10493.518172921917, -15696.624302461662, 0.016, -0.10400000000000001, 0.99, 192.0, 0.0, 0.0, 0.0, 0.0, 0.0, 0.0, 0.0, 0.0, 0.0, 1.645921366349671E9, 0.0, 2022-02-27 11:22:46.349
124.0, -1871.8915428986006, -4939.646117645039, -2017.1331783691858, -10625.0581890414, -993.9373724385945, 136.85973129984515, -5332.656840402704, -1668.8259445221358, -1889.7952902073016, -6741.464941676252, -4600.547802513576, -3233.872739538281, -4335.5678719959105, -3064.8711997117043, -10064.789362524672, -14528.633895949592, 0.016, -0.10400000000000001, 0.99, 192.0, 0.0, 0.0, 0.0, 0.0, 0.0, 0.0, 0.0, 0.0, 0.0, 1.645921366357813E9, 0.0, 2022-02-27 11:22:46.357
126.0, -1547.9030070189247, -4709.870184644483, -1856.5582462022599, -10446.892433988147, -738.3004711032476, 293.277238998084, -5381.651864248737, -1708.634401397038, -3836.743990986823, -7007.048369294211, -4307.181156537671, -3237.7619430735044, -3957.555169767758, -2823.6511735500308, -10269.08430684618, -15105.353606385424, 0.012, -0.106, 0.99, 192.0, 0.0, 48.0, 126.0, 88.0, 15.0, 120.0, 0.0, 0.0, 0.0, 1.645921366364199E9, 0.0, 2022-02-27 11:22:46.364
128.0, -2193.3766833992822, -5190.142117755666, -2279.7214722301333, -10909.260619790628, -1313.5002629161195, -108.8753472418007, -5566.456087405216, -1917.8914329876225, -3435.3290123139636, -7436.134807602741, -4711.054827100615, -3375.672206362749, -4386.641608076287, -3200.233364133044, -10384.039328579824, -15323.12665261348, 0.012, -0.106, 0.99, 192.0, 0.0, 0.0, 0.0, 0.0, 0.0, 0.0, 0.0, 0.0, 0.0, 1.64592136637234E9, 0.0, 2022-02-27 11:22:46.372
130.0, -1490.5037272576963, -4652.2473874387015, -1779.042396431255, -10370.38241271763, -675.1120895280945, 355.8621234729437, -5242.020516636434, -1546.8524750295253, -2241.052954322452, -6564.841456990416, -4376.62802656031, -3147.7291164075277, -4098.929953447575, -2838.626842335086, -10037.27436510019, -14465.624328330081, 0.012, -0.106, 0.99, 192.0, 0.0, 0.0, 0.0, 0.0, 0.0, 0.0, 0.0, 0.0, 0.0, 1.645921366380241E9, 0.0, 2022-02-27 11:22:46.380
132.0, -2010.226489332496, -5052.723592844438, -2199.2551921910276, -10833.443502598227, -1181.0885287628805, -59.634454206759244, -5616.479291496193, -1999.1847275715743, -4731.909004677415, -7559.203512573661, -4474.416908552278, -3373.8170115729586, -4091.6656364996, -3017.59726018873, -10499.374329969207, -15691.036366347835, 0.012, -0.106, 0.99, 192.0, 0.0, 0.0, 0.0, 0.0, 0.0, 0.0, 0.0, 0.0, 0.0, 1.645921366387503E9, 0.0, 2022-02-27 11:22:46.387
134.0, -1882.709787214969, -4945.926957836981, -2036.4003820896605, -10659.658689458214, -1028.984907744516, 100.00170469304379, -5361.065907605399, -1664.467354353351, -1924.328735390751, -6777.093622338012, -4604.459357793255, -3236.5996523618287, -4344.352107566847, -3060.5796647762854, -10083.56482786713, -14568.777628991322, 0.012, -0.106, 0.99, 192.0, 0.0, 0.0, 0.0, 0.0, 0.0, 0.0, 0.0, 0.0, 0.0, 1.645921366394855E9, 0.0, 2022-02-27 11:22:46.394
136.0, -1517.9069659599027, -4673.772117349162, -1839.7273826274138, -10440.522186818383, -737.5852152806777, 287.3540267174276, -5373.1805531001755, -1712.501253187806, -3744.297175919673, -6981.120345726054, -4296.497022688034, -3244.9592047881133, -3953.9565389104537, -2810.664810021497, -10250.55471069273, -15073.681184492254, 0.014, -0.106, 0.992, 192.0, 0.0, 56.0, 126.0, 88.0, 15.5, 0.0, 0.0, 0.0, 0.0, 1.6459213664029E9, 0.0, 2022-02-27 11:22:46.402
138.0, -2187.028787973975, -5180.329701939786, -2282.537792031502, -10920.838823418479, -1326.6877921447508, -130.86946378582286, -5575.217971231696, -1946.8592938017005, -3545.8136851565464, -7452.540988032936, -4697.532021705154, -3365.032776002023, -4372.67176779172, -3183.760128469483, -10397.226857808455, -15375.18386544989, 0.014, -0.106, 0.992, 192.0, 0.0, 0.0, 0.0, 0.0, 0.0, 0.0, 0.0, 0.0, 0.0, 1.645921366410818E9, 0.0, 2022-02-27 11:22:46.410
140.0, -1481.4065672643862, -4634.902433741383, -1778.7071202644254, -10376.618549420662, -697.9108688725078, 347.5025710466589, -5250.692993485092, -1547.5900825965505, -2159.938473694143, -6538.600508999885, -4385.747538298076, -3137.8943488471928, -4116.140796678162, -2842.3372319146674, -10032.781664464674, -14446.67004903198, 0.014, -0.106, 0.992, 192.0, 0.0, 0.0, 0.0, 0.0, 0.0, 0.0, 0.0, 0.0, 0.0, 1.645921366424632E9, 0.0, 2022-02-27 11:22:46.424
142.0, -1989.327608266784, -5027.287307654298, -2196.371817156293, -10836.349229377418, -1190.9456480676708, -72.82198343539041, -5639.054553396053, -2034.9251669556104, -4712.574745723575, -7503.793538068955, -4459.508295000589, -3371.671244105249, -4089.452813798525, -3004.0968065377247, -10499.307274735842, -15683.593235444217, 0.014, -0.106, 0.992, 192.0, 0.0, 0.0, 0.0, 0.0, 0.0, 0.0, 0.0, 0.0, 0.0, 1.645921366432696E9, 0.0, 2022-02-27 11:22:46.432
144.0, -1855.5300659573159, -4924.581041882163, -2027.1467598851634, -10644.459503228605, -1032.8964630241946, 93.25147786754107, -5374.92398916769, -1683.5110406292727, -1905.5309183038378, -6777.563008971573, -4600.659561235852, -3217.5783178303623, -4348.4201250577125, -3066.3911183346654, -10088.079880247102, -14566.654213268068, 0.014, -0.106, 0.992, 192.0, 0.0, 0.0, 0.0, 0.0, 0.0, 0.0, 0.0, 0.0, 0.0, 1.64592136643977E9, 0.0, 2022-02-27 11:22:46.439
146.0, -1491.4201487803637, -4654.035526995126, -1831.233719734397, -10437.839977483747, -741.4520670714459, 288.404558706827, -5399.153280157242, -1731.0084975968002, -3736.0270304712094, -6982.304988182186, -4295.826470354375, -3224.5744138448736, -3971.5026583078693, -2819.4266938479777, -10265.999766111347, -15075.782248471052, 0.014, -0.10200000000000001, 0.986, 192.0, 0.0, 56.0, 126.0, 104.0, 15.0, 104.0, 0.0, 0.0, 0.0, 1.645921366447219E9, 0.0, 2022-02-27 11:22:46.447
148.0, -2168.1639156536958, -5151.071268447789, -2281.5990187643793, -10920.078864106998, -1338.0424783280466, -131.40590565275022, -5599.089634309964, -1942.9924420109323, -3530.5250919491164, -7445.634298996246, -4690.893553601927, -3373.9511220396903, -4382.506535352056, -3192.320846595865, -10412.515451015885, -15376.56967360612, 0.014, -0.10200000000000001, 0.986, 192.0, 0.0, 0.0, 0.0, 0.0, 0.0, 0.0, 0.0, 0.0, 0.0, 1.645921366455127E9, 0.0, 2022-02-27 11:22:46.455
150.0, -1473.2034770492885, -4626.878157481928, -1779.8470592316462, -10377.423212221052, -709.578479478178, 344.37332682291594, -5259.387822078207, -1541.8680360159917, -2162.3971655842265, -6544.434314302721, -4375.108107937349, -3138.7437151364943, -4116.990162967463, -2843.499522626343, -10042.907004702927, -14451.72154327888, 0.014, -0.10200000000000001, 0.986, 192.0, 0.0, 0.0, 0.0, 0.0, 0.0, 0.0, 0.0, 0.0, 0.0, 1.645921366463104E9, 0.0, 2022-02-27 11:22:46.463
152.0, -1952.6707473600802, -4999.727606740905, -2183.8771920057766, -10816.255011112096, -1168.683310590185, -44.14469529923145, -5621.709599698735, -2014.2050998455406, -4725.628164485474, -7529.296878492461, -4454.948539131706, -3357.5002381205845, -4084.200153851528, -2995.826661089261, -10505.051673060856, -15682.050965076802, 0.014, -0.10200000000000001, 0.986, 192.0, 0.0, 0.0, 0.0, 0.0, 0.0, 0.0, 0.0, 0.0, 0.0, 1.645921366469797E9, 0.0, 2022-02-27 11:22:46.469
154.0, -1850.8809031106118, -4903.346884649621, -2036.422733834116, -10661.938567392655, -1045.3463846858008, 98.57119304790415, -5398.572134801404, -1699.8948693150128, -1943.7971048113234, -6783.285055552132, -4605.375779315922, -3206.0448176914238, -4362.904055464752, -3055.84109495176, -10104.575467655119, -14591.755222291378, 0.014, -0.10300000000000001, 0.985, 192.0, 0.0, 56.0, 126.0, 96.0, 15.0, 96.0, 0.0, 0.0, 0.0, 1.645921366478325E9, 0.0, 2022-02-27 11:22:46.478
156.0, -1461.9381978438137, -4613.400055575377, -1816.7274375829027, -10425.658276755605, -716.6863342149657, 301.6367914243688, -5410.239745407074, -1735.0094598543, -3653.280872497663, -6921.932926408402, -4280.783746335954, -3197.9981896875133, -3968.865152462143, -2806.2615163638015, -10260.255367786332, -15039.483015475633, 0.014, -0.10300000000000001, 0.985, 192.0, 0.0, 0.0, 0.0, 0.0, 0.0, 0.0, 0.0, 0.0, 0.0, 1.645921366484771E9, 0.0, 2022-02-27 11:22:46.484
158.0, -2176.6799302911677, -5159.609634829716, -2281.755480975566, -10924.660971720336, -1348.2348737996667, -147.05212677146517, -5594.48517495217, -1964.5395236658483, -3577.2625896051636, -7447.802418208411, -4693.195783280824, -3363.781078312526, -4386.999235987572, -3203.2508496345104, -10421.523204031373, -15397.580313394108, 0.014, -0.10300000000000001, 0.985, 192.0, 0.0, 0.0, 0.0, 0.0, 0.0, 0.0, 0.0, 0.0, 0.0, 1.645921366492798E9, 0.0, 2022-02-27 11:22:46.492
160.0, -1489.833174924037, -4633.2260529072355, -1787.6701697910037, -10383.234665779431, -727.3034128312365, 343.85923670044383, -5272.463592584561, -1548.3723936524862, -2150.059002644897, -6549.44110506071, -4399.180936715715, -3135.681526146117, -4141.420619657114, -2846.382897661078, -10038.302545345134, -14438.891641961533, 0.014, -0.10300000000000001, 0.985, 192.0, 0.0, 0.0, 0.0, 0.0, 0.0, 0.0, 0.0, 0.0, 0.0, 1.645921366499645E9, 0.0, 2022-02-27 11:22:46.499
162.0, -1945.6970030900245, -4976.302978551743, -2172.120174422285, -10807.448423796704, -1168.3033309344448, -25.6374508902372, -5649.425762823315, -2042.8153327483337, -4727.595117997542, -7526.7264278801, -4462.212856079681, -3344.7820955255147, -4088.6928544870443, -2977.073547491258, -10502.45887070404, -15673.87022660616, 0.014, -0.10300000000000001, 0.985, 192.0, 0.0, 0.0, 0.0, 0.0, 0.0, 0.0, 0.0, 0.0, 0.0, 1.645921366507402E9, 0.0, 2022-02-27 11:22:46.507
164.0, -1871.6903771985028, -4914.701570832917, -2039.9096059691437, -10673.740288465058, -1058.3550999587894, 80.73450097256911, -5389.9220096972, -1700.4089594374848, -1956.1129160061976, -6776.0207386041575, -4620.776131245629, -3200.68039902215, -4365.72037526612, -3058.74682173095, -10106.877697334015, -14601.142954962606, 0.011, -0.10450000000000001, 0.9844999999999999, 192.0, 0.0, 32.0, 126.0, 88.0, 15.0, 96.0, 0.0, 0.0, 0.0, 1.645921366515374E9, 0.0, 2022-02-27 11:22:46.515
166.0, -1471.6835584263276, -4633.58368081852, -1817.1297689830983, -10425.881794200159, -723.5483197627449, 295.9818000771761, -5386.144564884254, -1700.8336425821356, -3642.216758992286, -6951.481932578317, -4308.768130393998, -3205.4636723355857, -3979.9516177119754, -2818.0408856917484, -10248.543053691752, -15026.049617057994, 0.011, -0.10450000000000001, 0.9844999999999999, 192.0, 0.0, 0.0, 0.0, 0.0, 0.0, 0.0, 0.0, 0.0, 0.0, 1.645921366522432E9, 0.0, 2022-02-27 11:22:46.522
168.0, -2174.4000523567265, -5156.681556306071, -2291.187917135706, -10932.998172402165, -1335.2038067822227, -156.68572863170252, -5620.748474687157, -1974.6201604151918, -3691.055320627132, -7497.356235665827, -4701.197707795824, -3369.480773148629, -4378.259703905547, -3205.0166374464798, -10429.838052968747, -15437.254659802278, 0.011, -0.10450000000000001, 0.9844999999999999, 192.0, 0.0, 0.0, 0.0, 0.0, 0.0, 0.0, 0.0, 0.0, 0.0, 1.645921366530092E9, 0.0, 2022-02-27 11:22:46.530
170.0, -1497.7009889723051, -4635.125951185936, -1799.4048356300398, -10394.365834518176, -729.0915523876611, 326.9613178922317, -5281.448993855595, -1568.444260173352, -2097.51005143047, -6534.443084531198, -4414.044846778494, -3133.7592761229607, -4161.1125065222395, -2872.087403784681, -10045.343344848556, -14438.399903583517, 0.011, -0.10450000000000001, 0.9844999999999999, 192.0, 0.0, 0.0, 0.0, 0.0, 0.0, 0.0, 0.0, 0.0, 0.0, 1.645921366545056E9, 0.0, 2022-02-27 11:22:46.545
172.0, -1935.6610698295917, -4983.969626899913, -2174.310645378905, -10791.109298599875, -1137.592034052853, -24.564567156382463, -5645.6036145214575, -2006.1137683527195, -4729.450312787332, -7507.660389859723, -4460.603530478898, -3344.625633314328, -4090.7492149769328, -2990.4175389310767, -10506.728053895004, -15668.461104447975, 0.011, -0.10450000000000001, 0.9844999999999999, 192.0, 0.0, 0.0, 0.0, 0.0, 0.0, 0.0, 0.0, 0.0, 0.0, 1.645921366552994E9, 0.0, 2022-02-27 11:22:46.552
174.0, -1900.747644990402, -4935.846321087637, -2076.7899843204004, -10689.520620050505, -1082.629094437253, 66.71995719909158, -5396.560477800426, -1694.3739884345518, -2029.6501552641578, -6833.9564602323135, -4648.693460070308, -3214.337314884343, -4395.738768069597, -3079.533944074386, -10135.018543603248, -14635.072903045762, 0.0095, -0.10425000000000001, 0.98625, 192.0, 0.0, 32.0, 126.0, 96.0, 15.0, 112.0, 0.0, 0.0, 0.0, 1.645921366559622E9, 0.0, 2022-02-27 11:22:46.559
176.0, -1468.2413897802103, -4619.233860878213, -1825.556376642749, -10410.727311459459, -714.6970289584433, 302.44145422475987, -5359.769506426991, -1678.5489533601944, -3574.580380270527, -6915.115644349533, -4312.746740907042, -3192.946695440614, -3982.589123557702, -2810.4636443213994, -10238.373009964587, -14986.218808438636, 0.0095, -0.10425000000000001, 0.98625, 192.0, 0.0, 0.0, 0.0, 0.0, 0.0, 0.0, 0.0, 0.0, 0.0, 1.645921366567641E9, 0.0, 2022-02-27 11:22:46.567
178.0, -2177.797517513933, -5164.012928487412, -2296.172356149239, -10931.478253779203, -1345.5750162094853, -154.83053384191203, -5604.007018090131, -1967.3334917227617, -3693.2681433282073, -7490.762471051511, -4703.611696196997, -3362.0152905005566, -4383.557067341455, -3202.5355938119405, -10436.409465838608, -15431.53261322172, 0.0095, -0.10425000000000001, 0.98625, 192.0, 0.0, 0.0, 0.0, 0.0, 0.0, 0.0, 0.0, 0.0, 0.0, 1.645921366574684E9, 0.0, 2022-02-27 11:22:46.574
180.0, -1515.5153293031847, -4653.990823506216, -1803.8081292877353, -10397.450375253007, -722.0731046286946, 321.37338177840496, -5267.277987870931, -1557.2907396901537, -2101.7792346214337, -6542.534416024019, -4407.2946199529915, -3128.148988264679, -4161.87246583372, -2885.7443196468735, -10045.74567624875, -14435.024790170764, 0.0095, -0.10425000000000001, 0.98625, 192.0, 0.0, 0.0, 0.0, 0.0, 0.0, 0.0, 0.0, 0.0, 0.0, 1.64592136658227E9, 0.0, 2022-02-27 11:22:46.582
182.0, -1953.810686327301, -4994.65376074955, -2175.8752674907764, -10802.955723161189, -1149.684327803174, -31.18068351515335, -5622.044875865564, -2008.4607015205268, -4738.100437891536, -7524.401846456748, -4456.580216476943, -3344.335060636409, -4090.0786626432737, -2991.5798296427524, -10502.12359453721, -15668.394049214608, 0.0095, -0.10425000000000001, 0.98625, 192.0, 0.0, 0.0, 0.0, 0.0, 0.0, 0.0, 0.0, 0.0, 0.0, 1.645921366590373E9, 0.0, 2022-02-27 11:22:46.590
184.0, -1916.4832730869382, -4954.621786430095, -2073.034891251909, -10686.54783803795, -1081.69032117013, 54.605311704315156, -5407.266963394519, -1720.9278608474567, -2021.06708539332, -6838.1809399343665, -4651.934463016327, -3224.552062100418, -4398.242163448592, -3089.1004907012575, -10131.2410987903, -14633.888260589632, 0.01175, -0.105125, 0.9881249999999999, 192.0, 0.0, 56.0, 126.0, 88.0, 15.0, 120.0, 0.0, 0.0, 0.0, 1.64592136659735E9, 0.0, 2022-02-27 11:22:46.597
186.0, -1472.1752968043443, -4634.187177918813, -1816.0121817603329, -10410.414387037086, -709.7796451782758, 300.8097768795225, -5369.939550154156, -1696.43034892444, -3569.998272657189, -6934.785179470204, -4318.513490976512, -3208.7270270260606, -3993.7202922964448, -2826.154568929025, -10244.810312367716, -14997.908770788763, 0.01175, -0.105125, 0.9881249999999999, 192.0, 0.0, 0.0, 0.0, 0.0, 0.0, 0.0, 0.0, 0.0, 0.0, 1.645921366604545E9, 0.0, 2022-02-27 11:22:46.604
188.0, -2188.7498722970336, -5164.6834808210715, -2300.7991672514877, -10933.40050380236, -1345.55266446503, -158.71973737713546, -5604.789329146067, -1982.1526982966302, -3761.3739086835276, -7520.3785324547935, -4701.287114773645, -3374.3981569287967, -4377.455041105156, -3202.8932217232255, -10447.183006666066, -15464.367325826566, 0.01175, -0.105125, 0.9881249999999999, 192.0, 0.0, 0.0, 0.0, 0.0, 0.0, 0.0, 0.0, 0.0, 0.0, 1.645921366612035E9, 0.0, 2022-02-27 11:22:46.612
190.0, -1520.119788660978, -4658.662338097374, -1801.751768797847, -10402.635979966639, -737.4958083028565, 320.3228497890055, -5256.8397232103025, -1557.536608879162, -2067.536362115903, -6533.616069986352, -4410.356808943368, -3121.8010928393714, -4162.207742000549, -2880.7375288888848, -10037.989620922759, -14428.498080789816, 0.01175, -0.105125, 0.9881249999999999, 192.0, 0.0, 0.0, 0.0, 0.0, 0.0, 0.0, 0.0, 0.0, 0.0, 1.645921366619955E9, 0.0, 2022-02-27 11:22:46.619
192.0, -1931.0566104717984, -4981.309769309732, -2156.697470748123, -10789.075289854443, -1138.7990282534395, -13.522805395460773, -5612.701846683246, -2001.576364228292, -4723.84002492905, -7498.7196920776005, -4440.777533147041, -3336.646060543783, -4075.1476973471285, -2977.1853062135347, -10496.781527612393, -15655.76531359736, 0.01175, -0.105125, 0.9881249999999999, 192.0, 0.0, 0.0, 0.0, 0.0, 0.0, 0.0, 0.0, 0.0, 0.0, 1.645921366627936E9, 0.0, 2022-02-27 11:22:46.627
194.0, -1924.6416598131252, -4961.975510355891, -2072.40904240716, -10688.984178183578, -1090.0945770853255, 69.37981478927313, -5396.739291756069, -1700.9454013044121, -2034.9922221889763, -6854.095381986544, -4646.078305969037, -3225.9602220011025, -4397.750425070575, -3088.0946622007687, -10132.962183113359, -14648.014563085386, 0.012875000000000001, -0.1065625, 0.9890625, 192.0, 0.0, 56.0, 126.0, 80.0, 15.0, 120.0, 0.0, 0.0, 0.0, 1.64592136663467E9, 0.0, 2022-02-27 11:22:46.634
196.0, -1470.8788956259366, -4632.331983129023, -1813.1958619589643, -10402.188945077532, -709.645534711544, 322.33450678998315, -5358.786029670958, -1676.917276014957, -3527.328792492008, -6909.952391380357, -4316.18890955316, -3201.5744688003624, -3999.6882080660116, -2805.434501818955, -10235.042600040746, -14969.522055330523, 0.012875000000000001, -0.1065625, 0.9890625, 192.0, 0.0, 0.0, 0.0, 0.0, 0.0, 0.0, 0.0, 0.0, 0.0, 1.645921366642636E9, 0.0, 2022-02-27 11:22:46.642
198.0, -2195.8800787782766, -5177.155754227132, -2310.432769111725, -10934.026352647108, -1364.0599088740241, -150.5837023954037, -5626.470521267715, -1997.1730705705966, -3806.3456185276054, -7515.595259141357, -4704.21519329729, -3382.7577093550813, -4381.746576040576, -3192.946695440614, -10458.761210293915, -15477.823075988661, 0.012875000000000001, -0.1065625, 0.9890625, 192.0, 0.0, 0.0, 0.0, 0.0, 0.0, 0.0, 0.0, 0.0, 0.0, 1.645921366650561E9, 0.0, 2022-02-27 11:22:46.650
200.0, -1528.7699137651819, -4665.814896323072, -1812.681771836492, -10401.384282277142, -759.0205382133172, 319.51818698861445, -5290.724967804547, -1563.2363037152654, -2054.5723503318254, -6555.386669085821, -4422.694971882698, -3130.5629766658517, -4172.958931083552, -2861.112697257125, -10043.354039592034, -14420.719673719368, 0.012875000000000001, -0.1065625, 0.9890625, 192.0, 0.0, 0.0, 0.0, 0.0, 0.0, 0.0, 0.0, 0.0, 0.0, 1.645921366657148E9, 0.0, 2022-02-27 11:22:46.657
202.0, -1928.933194748544, -4981.6673972210165, -2157.770354481978, -10781.721565928647, -1134.8651212293055, -10.28180244944125, -5616.859271151933, -1995.5637449698145, -4719.369676037989, -7508.621514871302, -4440.397553491301, -3341.6975547906823, -4079.2380665824494, -2962.2990444063003, -10498.927295080102, -15644.90236579208, 0.012875000000000001, -0.1065625, 0.9890625, 192.0, 0.0, 0.0, 0.0, 0.0, 0.0, 0.0, 0.0, 0.0, 0.0, 1.645921366672201E9, 0.0, 2022-02-27 11:22:46.672
204.0, -1932.196549439019, -4970.871504649103, -2085.350702446783, -10700.897657978256, -1108.467711027588, 58.67332919518104, -5408.585716317381, -1724.3923812380292, -2072.1855249626074, -6888.002978325246, -4658.751745075196, -3231.8834342817586, -4412.390817688802, -3100.142252462179, -10141.165273328457, -14665.113647593696, 0.0144375, -0.10528125, 0.99153125, 192.0, 0.0, 64.0, 126.0, 96.0, 15.5, 8.0, 0.0, 0.0, 0.0, 1.645921366680207E9, 0.0, 2022-02-27 11:22:46.680
206.0, -1458.317215242054, -4621.893718468395, -1801.5058996088387, -10402.524221244363, -700.0789880846725, 328.0342016260864, -5354.941529624645, -1689.0319215097336, -3477.3502918899408, -6894.864963873025, -4309.483386216568, -3200.590992044329, -3999.6882080660116, -2804.160452385003, -10229.387608693554, -14955.462808068134, 0.0144375, -0.10528125, 0.99153125, 192.0, 0.0, 0.0, 0.0, 0.0, 0.0, 0.0, 0.0, 0.0, 0.0, 1.645921366686728E9, 0.0, 2022-02-27 11:22:46.686
208.0, -2206.921840539198, -5182.5872281297725, -2313.047923212996, -10948.175006887319, -1354.9627488807141, -155.34462396438408, -5639.076905140509, -1996.189593814563, -3856.1229534295744, -7541.880910620798, -4698.068463572081, -3391.4748896926512, -4380.316064395436, -3196.880602464748, -10463.991518496458, -15500.73361405535, 0.0144375, -0.10528125, 0.99153125, 192.0, 0.0, 0.0, 0.0, 0.0, 0.0, 0.0, 0.0, 0.0, 0.0, 1.645921366694902E9, 0.0, 2022-02-27 11:22:46.694
210.0, -1541.5551115936175, -4671.0899080145255, -1825.042286520277, -10411.82254693777, -771.0234249858171, 322.1556928343407, -5281.247828155498, -1564.6221118714943, -2042.9717949595208, -6553.218549873656, -4440.598719191399, -3131.457046444064, -4195.310675538859, -2881.698653900463, -10044.18105413688, -14418.551554507203, 0.0144375, -0.10528125, 0.99153125, 192.0, 0.0, 0.0, 0.0, 0.0, 0.0, 0.0, 0.0, 0.0, 0.0, 1.645921366702863E9, 0.0, 2022-02-27 11:22:46.702
212.0, -1900.2782583568405, -4963.562484212218, -2140.3583455512935, -10767.461152966162, -1126.9079002032163, -3.6880378351256655, -5622.201338076751, -1998.424768260094, -4711.5912689675415, -7486.359177393816, -4435.837797622418, -3323.5926417818837, -4076.086470614251, -2961.0026432278923, -10490.41128044263, -15635.112301720656, 0.0144375, -0.10528125, 0.99153125, 192.0, 0.0, 0.0, 0.0, 0.0, 0.0, 0.0, 0.0, 0.0, 0.0, 1.645921366710021E9, 0.0, 2022-02-27 11:22:46.710
214.0, -1930.2072441824967, -4969.485696492875, -2081.550905889381, -10706.396187114262, -1121.5434815339424, 52.14661981423138, -5426.489463626082, -1732.595471453127, -2092.5926676503027, -6892.026292327201, -4654.102582228492, -3228.083637724357, -4408.345151942391, -3098.6670373281286, -10145.367401286054, -14685.543142025846, 0.01421875, -0.105640625, 0.990765625, 192.0, 0.0, 56.0, 126.0, 88.0, 15.0, 120.0, 0.0, 0.0, 0.0, 1.645921366717578E9, 0.0, 2022-02-27 11:22:46.717
216.0, -1451.5893401610065, -4616.752817243674, -1789.8606407476236, -10390.990721105423, -699.6096014511111, 340.372364565416, -5361.043555860943, -1665.8978659984907, -3433.295003568531, -6870.590969394561, -4305.549479192434, -3188.744567483016, -3999.8893737661097, -2795.7561964698075, -10214.724864330872, -14927.14314784326, 0.01421875, -0.105640625, 0.990765625, 192.0, 0.0, 0.0, 0.0, 0.0, 0.0, 0.0, 0.0, 0.0, 0.0, 1.645921366726139E9, 0.0, 2022-02-27 11:22:46.726
218.0, -2193.3319799103715, -5172.283073935875, -2300.4862428291135, -10940.508358539148, -1358.4719727601973, -151.2319029846076, -5635.075942883008, -1996.9495531260436, -3904.2462592418506, -7543.937271110687, -4689.530097190153, -3379.2037819866878, -4360.601825785855, -3183.3130935803765, -10459.901149261135, -15509.383739159553, 0.01421875, -0.105640625, 0.990765625, 192.0, 0.0, 0.0, 0.0, 0.0, 0.0, 0.0, 0.0, 0.0, 0.0, 1.645921366732773E9, 0.0, 2022-02-27 11:22:46.732
220.0, -1544.214969183799, -4671.402832436899, -1818.5379288837826, -10414.34829406122, -758.1488201795603, 319.7193526887122, -5278.900894987691, -1559.3694519244973, -2006.2031753305407, -6545.753067225584, -4431.076876053438, -3120.61645038324, -4185.677073678622, -2870.4333746949883, -10028.691295229351, -14403.777051422245, 0.01421875, -0.105640625, 0.990765625, 192.0, 0.0, 0.0, 0.0, 0.0, 0.0, 0.0, 0.0, 0.0, 0.0, 1.645921366739896E9, 0.0, 2022-02-27 11:22:46.739
222.0, -1880.1169848581535, -4937.679164132973, -2123.259261042984, -10743.880062565811, -1100.1528620902136, 24.72102936756961, -5611.2042798047405, -1983.8514308752337, -4699.2084025393015, -7459.872360214277, -4424.594870161399, -3315.8142347114367, -4065.670557698078, -2943.9035587195826, -10477.514323891917, -15617.968513723436, 0.01421875, -0.105640625, 0.990765625, 192.0, 0.0, 0.0, 0.0, 0.0, 0.0, 0.0, 0.0, 0.0, 0.0, 1.645921366747872E9, 0.0, 2022-02-27 11:22:46.747
224.0, -1956.805820084312, -4983.455536777441, -2097.6888653861124, -10721.148338454765, -1146.6444905572523, 28.61023290279304, -5445.55550164646, -1768.6041317706267, -2156.5633602813914, -6917.41787402843, -4661.590416621019, -3220.2828789094547, -4420.906832326274, -3108.300639188366, -10157.303232825188, -14720.098938953752, 0.016, -0.10200000000000001, 0.994, 192.0, 0.0, 64.0, 126.0, 104.0, 15.5, 8.0, 0.0, 0.0, 0.0, 1.645921366754585E9, 0.0, 2022-02-27 11:22:46.754
226.0, -1445.4426104357972, -4605.711055482752, -1785.2785331342857, -10383.324072757254, -703.4093980085132, 333.4433237842708, -5357.9813668705665, -1684.6062761075827, -3356.226188686632, -6837.800960278626, -4303.716636147098, -3167.0857271058235, -4006.1478622135955, -2803.22167911788, -10200.799727535215, -14899.650502163233, 0.016, -0.10200000000000001, 0.994, 192.0, 0.0, 0.0, 0.0, 0.0, 0.0, 0.0, 0.0, 0.0, 0.0, 1.645921366762497E9, 0.0, 2022-02-27 11:22:46.762
228.0, -2197.154128212229, -5175.16644897061, -2309.6951615447, -10947.750323742668, -1371.7265572221945, -163.86063860185607, -5659.55110306157, -2026.8338354627892, -3951.363736553638, -7555.336660782893, -4681.706986630797, -3378.9132093087687, -4362.725241509109, -3168.0468521174016, -10468.081887731778, -15532.78601560426, 0.016, -0.10200000000000001, 0.994, 192.0, 0.0, 0.0, 0.0, 0.0, 0.0, 0.0, 0.0, 0.0, 0.0, 1.645921366770471E9, 0.0, 2022-02-27 11:22:46.770
230.0, -1572.0652427751115, -4697.040283327136, -1840.1520657720646, -10432.788483236847, -794.3362944527024, 295.244192510151, -5301.565563865372, -1580.9165335794132, -1987.4053582436275, -6545.261328847567, -4444.711440171175, -3127.076104530824, -4205.950105899586, -2893.053340083759, -10035.03919065466, -14409.633208469537, 0.016, -0.10200000000000001, 0.994, 192.0, 0.0, 0.0, 0.0, 0.0, 0.0, 0.0, 0.0, 0.0, 0.0, 1.645921366777645E9, 0.0, 2022-02-27 11:22:46.777
232.0, -1895.2714675988518, -4951.514893950808, -2138.5255025059587, -10751.390248702795, -1116.5143390314984, 4.447997146606106, -5623.497739255159, -1995.0496548473425, -4702.73997816324, -7464.007432938509, -4437.089495311916, -3327.258327872554, -4079.0816043712625, -2954.475933846943, -10484.309254206331, -15614.056958443756, 0.016, -0.10200000000000001, 0.994, 192.0, 0.0, 0.0, 0.0, 0.0, 0.0, 0.0, 0.0, 0.0, 0.0, 1.645921366792001E9, 0.0, 2022-02-27 11:22:46.792
234.0, -1980.3422069957505, -5005.472005065919, -2116.41962723966, -10731.877175793312, -1155.5628365949199, 21.524729910460703, -5457.468981441139, -1771.331044594174, -2183.6536745612234, -6934.18168236991, -4686.669073899874, -3244.400411176731, -4445.292585527013, -3129.6465551431843, -10173.664709766474, -14731.163052459127, 0.016, -0.106, 0.996, 192.0, 0.0, 64.0, 126.0, 88.0, 15.5, 16.0, 0.0, 0.0, 0.0, 1.645921366800114E9, 0.0, 2022-02-27 11:22:46.800
236.0, -1461.1782385323334, -4621.513738812654, -1801.103568208643, -10387.1015175702, -710.1149213451054, 317.3947712653603, -5367.369099541796, -1671.7987265346917, -3359.2436741880983, -6859.392745422452, -4329.66701145971, -3186.1517651262006, -4032.165292759573, -2807.5355657977543, -10215.976562020369, -14898.465859707101, 0.016, -0.106, 0.996, 192.0, 0.0, 0.0, 0.0, 0.0, 0.0, 0.0, 0.0, 0.0, 0.0, 1.645921366807169E9, 0.0, 2022-02-27 11:22:46.807
238.0, -2208.084131250874, -5186.945818298557, -2322.6815250732334, -10954.12057091243, -1385.2717143621105, -182.68080743322463, -5668.134172932408, -2039.5072745689483, -4016.228498962939, -7582.874009951832, -4699.923658361871, -3396.9734188286566, -4376.873895749319, -3186.5317447819407, -10487.237332729976, -15558.110542072123, 0.016, -0.106, 0.996, 192.0, 0.0, 0.0, 0.0, 0.0, 0.0, 0.0, 0.0, 0.0, 0.0, 1.645921366814772E9, 0.0, 2022-02-27 11:22:46.814
240.0, -1572.1322980084776, -4694.939219348338, -1844.8012286187684, -10437.169425150089, -802.6734951345319, 274.7699945890897, -5317.927040806656, -1576.3344259660753, -1969.7251283794797, -6552.235073117623, -4461.2964345570135, -3131.1664737661454, -4220.657553751177, -2888.3371220036893, -10040.09068490156, -14413.522412004759, 0.016, -0.106, 0.996, 192.0, 0.0, 0.0, 0.0, 0.0, 0.0, 0.0, 0.0, 0.0, 0.0, 1.645921366822734E9, 0.0, 2022-02-27 11:22:46.822
242.0, -1867.9352841300113, -4935.578100154174, -2115.682019672635, -10738.537995640992, -1089.6475421962193, 5.967915769566986, -5607.2703727806065, -1975.4248232155828, -4678.197762751313, -7447.042458896931, -4429.892233597307, -3319.7257899911156, -4072.353729290215, -2952.7995530127946, -10476.866123302714, -15604.42335658352, 0.016, -0.106, 0.996, 192.0, 0.0, 0.0, 0.0, 0.0, 0.0, 0.0, 0.0, 0.0, 0.0, 1.645921366830366E9, 0.0, 2022-02-27 11:22:46.830
244.0, -1993.8426606467558, -5018.436016849997, -2130.0094878684868, -10750.965565558145, -1173.9806740260929, -0.9164215226675896, -5461.0005570650765, -1765.430184057973, -2233.319250740916, -6975.778278801236, -4696.2132687822905, -3250.7036031131274, -4446.723097172153, -3131.4123429551537, -10178.939721457926, -14761.87434934072, 0.01, -0.10400000000000001, 0.99, 192.0, 0.0, 40.0, 126.0, 96.0, 15.0, 120.0, 0.0, 0.0, 0.0, 1.645921366837307E9, 0.0, 2022-02-27 11:22:46.837
246.0, -1448.6836133818167, -4613.847090464484, -1795.269762905808, -10382.832334379236, -707.2538980548261, 327.07307661450824, -5358.58486397086, -1661.6510345519823, -3284.9017721297473, -6840.5278731021735, -4339.814703442419, -3182.8884104357257, -4038.4908364404246, -2808.7202082538856, -10196.128212944057, -14861.27255693347, 0.01, -0.10400000000000001, 0.99, 192.0, 0.0, 0.0, 0.0, 0.0, 0.0, 0.0, 0.0, 0.0, 0.0, 1.645921366844379E9, 0.0, 2022-02-27 11:22:46.844
248.0, -2195.3659886558044, -5179.189762972565, -2324.112036718373, -10949.337297598995, -1381.4942695491636, -165.4923159470935, -5677.7901265371, -2031.0806669092974, -4076.019415380885, -7586.7408617426, -4690.759443135195, -3387.8539070908914, -4362.524075809011, -3173.590084742318, -10489.964245553523, -15572.594472479163, 0.01, -0.10400000000000001, 0.99, 192.0, 0.0, 0.0, 0.0, 0.0, 0.0, 0.0, 0.0, 0.0, 0.0, 1.645921366852539E9, 0.0, 2022-02-27 11:22:46.852
250.0, -1581.1624027684215, -4704.572821208575, -1853.65251942307, -10442.064457185801, -819.4820069649228, 285.3870732053606, -5304.337180177829, -1578.3907864559635, -1927.3685726366728, -6558.471209820654, -4472.941693418228, -3135.4803604460194, -4230.961707945074, -2895.579087207209, -10033.519272031697, -14400.960731620877, 0.01, -0.10400000000000001, 0.99, 192.0, 0.0, 0.0, 0.0, 0.0, 0.0, 0.0, 0.0, 0.0, 0.0, 1.645921366859486E9, 0.0, 2022-02-27 11:22:46.859
252.0, -1833.1336180130982, -4906.945515506925, -2102.1592142771738, -10716.40976863024, -1073.174306532658, 42.937701098644865, -5594.529878441082, -1980.6551314181247, -4637.696401798296, -7419.5945167058135, -4414.335419456413, -3310.2486503420655, -4057.869798883176, -2933.062962658759, -10460.504646361429, -15571.163960834023, 0.01, -0.10400000000000001, 0.99, 192.0, 0.0, 0.0, 0.0, 0.0, 0.0, 0.0, 0.0, 0.0, 0.0, 1.645921366867027E9, 0.0, 2022-02-27 11:22:46.867
254.0, -1994.9155443806108, -5017.430188349508, -2140.6489182292125, -10758.520455184038, -1191.4150347012323, 6.973744270055803, -5468.421336224239, -1777.2766086192858, -2269.1938005916836, -6985.14365972801, -4691.027664068659, -3250.3906786907532, -4440.643422680309, -3116.4143224256427, -10187.455736095399, -14783.242617039994, 0.014, -0.10200000000000001, 0.986, 192.0, 0.0, 56.0, 126.0, 104.0, 15.0, 104.0, 0.0, 0.0, 0.0, 1.645921366875094E9, 0.0, 2022-02-27 11:22:46.875
0.0, -1433.1715027298335, -4596.546840256076, -1793.3922163715622, -10376.462087209475, -711.0536946122282, 330.89522491636575, -5356.997890114533, -1639.5451592856837, -3217.712428297094, -6812.185861132844, -4330.2258050710925, -3179.133317367234, -4033.8640253381764, -2801.165318627992, -10187.500439584308, -14834.517518820468, 0.014, -0.10200000000000001, 0.986, 192.0, 0.0, 0.0, 0.0, 0.0, 0.0, 0.0, 0.0, 0.0, 0.0, 1.645921366883291E9, 0.0, 2022-02-27 11:22:46.883
2.0, -2183.9442472391424, -5171.567818113305, -2326.9060047752864, -10944.039934163087, -1391.4407958317752, -180.1103568208643, -5682.483992872714, -2014.7862452013787, -4085.9212381745865, -7579.141268627795, -4678.220114495768, -3389.5302879250394, -4357.539636795478, -3167.0857271058235, -10496.736824123482, -15575.120219602612, 0.014, -0.10200000000000001, 0.986, 192.0, 0.0, 0.0, 0.0, 0.0, 0.0, 0.0, 0.0, 0.0, 0.0, 1.645921366889593E9, 0.0, 2022-02-27 11:22:46.889
4.0, -1582.1682312689104, -4702.114129318492, -1865.1413160730979, -10441.93034671907, -826.4333994905234, 266.1645729737965, -5300.492680131517, -1576.3567777105307, -1915.4327410975388, -6532.1855583412125, -4462.659890968787, -3126.5843661528074, -4234.806207991387, -2924.345782321189, -10036.313240088612, -14394.434022239928, 0.014, -0.10200000000000001, 0.986, 192.0, 0.0, 0.0, 0.0, 0.0, 0.0, 0.0, 0.0, 0.0, 0.0, 1.645921366897694E9, 0.0, 2022-02-27 11:22:46.897
6.0, -1829.26676622233, -4903.860974772093, -2108.5965166803026, -10714.442815118173, -1079.008111835493, 36.3886399732399, -5615.048779851053, -1970.1498115241304, -4632.689611040308, -7430.926851144654, -4409.149814742782, -3312.9532114211574, -4063.1671623190837, -2929.754904479373, -10468.126591220689, -15564.391382264064, 0.014, -0.10200000000000001, 0.986, 192.0, 0.0, 0.0, 0.0, 0.0, 0.0, 0.0, 0.0, 0.0, 0.0, 1.645921366905712E9, 0.0, 2022-02-27 11:22:46.905
8.0, -1980.2080965290186, -5002.074539908712, -2142.8170374413776, -10759.280414495519, -1184.7765665980062, -4.9397355246228605, -5472.019967081544, -1778.170678397498, -2261.1248208433176, -7000.722825613359, -4681.349358719512, -3256.69387062715, -4438.609413934876, -3139.883654103715, -10191.16612567498, -14787.914131631152, 0.012, -0.10200000000000001, 0.992, 192.0, 0.0, 48.0, 126.0, 104.0, 15.5, 0.0, 0.0, 0.0, 0.0, 1.645921366919236E9, 0.0, 2022-02-27 11:22:46.919
10.0, -1409.836281518493, -4572.138735310881, -1789.368902369607, -10368.281348738832, -690.1101100576055, 353.1799141383069, -5348.906558621712, -1650.8104384911585, -3187.358759326787, -6800.138270871434, -4308.768130393998, -3175.311169065377, -4026.7114671124777, -2799.9806761718605, -10186.092279683624, -14830.628315285245, 0.012, -0.10200000000000001, 0.992, 192.0, 0.0, 0.0, 0.0, 0.0, 0.0, 0.0, 0.0, 0.0, 0.0, 1.645921366927282E9, 0.0, 2022-02-27 11:22:46.927
12.0, -2170.28733137695, -5163.990576742956, -2326.5483768640015, -10949.002021432165, -1375.03461540158, -175.43884222970513, -5666.16721942034, -2037.9873559459872, -4153.088230262784, -7605.270457896049, -4652.001518249693, -3387.1162995238665, -4328.3482585368465, -3165.565808482863, -10492.26647523242, -15602.2328856269, 0.012, -0.10200000000000001, 0.992, 192.0, 0.0, 0.0, 0.0, 0.0, 0.0, 0.0, 0.0, 0.0, 0.0, 1.645921366935488E9, 0.0, 2022-02-27 11:22:46.935
14.0, -1592.8747168630025, -4712.954725379315, -1873.7020341994805, -10453.0168119689, -824.3099837672692, 268.1315264858635, -5309.992171525022, -1569.606550885028, -1885.5708105052486, -6571.591683815919, -4467.085536370938, -3136.4414854575975, -4235.767333002965, -2924.0999131321805, -10029.406551051921, -14397.362100763572, 0.012, -0.10200000000000001, 0.992, 192.0, 0.0, 0.0, 0.0, 0.0, 0.0, 0.0, 0.0, 0.0, 0.0, 1.645921366941886E9, 0.0, 2022-02-27 11:22:46.941
16.0, -1802.5117281093274, -4882.448003583909, -2092.771481605945, -10693.387471841274, -1045.9945852750045, 62.271960052485476, -5597.01092207562, -1958.7280701074685, -4598.312628068045, -7396.840440850311, -4395.403491902768, -3299.765682192526, -4039.809589363288, -2916.2768025728233, -10452.569777079794, -15533.41186444901, 0.012, -0.10200000000000001, 0.992, 192.0, 0.0, 0.0, 0.0, 0.0, 0.0, 0.0, 0.0, 0.0, 0.0, 1.645921366949894E9, 0.0, 2022-02-27 11:22:46.949
18.0, -1999.5647072273146, -5018.145444172078, -2156.6304155147573, -10765.673013409736, -1189.2245637446122, -2.4363401456284697, -5480.334816018917, -1786.5525825682382, -2330.303469932493, -7015.877308354057, -4690.6923879018295, -3254.7939723484487, -4447.9747948616505, -3143.8846163612147, -10199.34686414562, -14810.467041786558, 0.012, -0.1, 0.99, 192.0, 0.0, 48.0, 126.0, 112.0, 15.0, 120.0, 0.0, 0.0, 0.0, 1.645921366958443E9, 0.0, 2022-02-27 11:22:46.958
20.0, -1421.548595613074, -4587.337921540489, -1786.753748268336, -10368.370755716653, -672.1840110044493, 356.5103240621477, -5333.372096225274, -1623.4071997889519, -3143.750505894483, -6784.894381152914, -4317.082979331372, -3170.6173027297623, -4024.968031044964, -2808.6531530205198, -10167.450924807898, -14795.916056146152, 0.012, -0.1, 0.99, 192.0, 0.0, 0.0, 0.0, 0.0, 0.0, 0.0, 0.0, 0.0, 0.0, 1.645921366965166E9, 0.0, 2022-02-27 11:22:46.965
22.0, -2191.9461717541426, -5170.629044846183, -2333.0303827560406, -10954.053515679065, -1357.1532198373343, -156.86454258734497, -5657.651204782868, -2020.7541609709456, -4181.005559087463, -7600.755405516077, -4659.355242175489, -3397.643971162316, -4325.017848613006, -3176.0934801213125, -10485.650358873649, -15595.572065779217, 0.012, -0.1, 0.99, 192.0, 0.0, 0.0, 0.0, 0.0, 0.0, 0.0, 0.0, 0.0, 0.0, 1.645921366971495E9, 0.0, 2022-02-27 11:22:46.971
24.0, -1609.8173391601254, -4722.185995839357, -1881.0334063808211, -10464.058573729822, -810.4295504605235, 276.0887475119528, -5297.229325441042, -1560.6211496139945, -1894.779729220835, -6565.713175024173, -4476.965007420184, -3147.8632268742595, -4232.705144012588, -2908.5878024801973, -10019.549431747131, -14375.524446430738, 0.012, -0.1, 0.99, 192.0, 0.0, 0.0, 0.0, 0.0, 0.0, 0.0, 0.0, 0.0, 0.0, 1.645921366979552E9, 0.0, 2022-02-27 11:22:46.979
26.0, -1809.2843066792855, -4886.113689674579, -2096.0348362964196, -10697.388434098773, -1028.2249484330355, 69.20100083363067, -5577.654311377324, -1930.4084098825945, -4592.411767531845, -7387.810336090367, -4394.82234654693, -3317.6023742678613, -4028.2760892243496, -2903.737473933396, -10436.49887281643, -15520.872535809582, 0.012, -0.1, 0.99, 192.0, 0.0, 0.0, 0.0, 0.0, 0.0, 0.0, 0.0, 0.0, 0.0, 1.645921366987617E9, 0.0, 2022-02-27 11:22:46.987
28.0, -2017.9601929140322, -5032.4952641123855, -2170.712014521601, -10772.84792337989, -1180.2838659624895, -8.024276259455236, -5470.432993225217, -1779.4447278314506, -2342.976909038652, -7027.857843382102, -4693.128728047458, -3270.082565555879, -4433.960251088172, -3152.3782792542315, -10200.352692646109, -14811.674035987144, 0.012, -0.10400000000000001, 0.992, 192.0, 0.0, 48.0, 126.0, 96.0, 15.5, 0.0, 0.0, 0.0, 0.0, 1.645921366994621E9, 0.0, 2022-02-27 11:22:46.994
30.0, -1433.5067788966633, -4592.188250087292, -1797.7731582848023, -10364.079220781234, -661.1869527324383, 359.2372368856951, -5315.177776238654, -1610.443188004874, -3116.459025914553, -6781.899247395903, -4316.61359269781, -3171.9584073970805, -4020.9223652985534, -2814.0846269231592, -10159.717221226361, -14778.146419304183, 0.012, -0.10400000000000001, 0.992, 192.0, 0.0, 0.0, 0.0, 0.0, 0.0, 0.0, 0.0, 0.0, 0.0, 1.645921367002209E9, 0.0, 2022-02-27 11:22:47.002
32.0, -2207.547689383947, -5182.028434518389, -2336.0925717464174, -10952.086562166996, -1336.969594594192, -150.40488843976124, -5645.1342278878965, -2008.4383497760714, -4229.397085833202, -7602.118861927851, -4643.73137280123, -3393.9559333271905, -4302.353179735324, -3162.4812677480304, -10485.806821084836, -15600.243580370377, 0.012, -0.10400000000000001, 0.992, 192.0, 0.0, 0.0, 0.0, 0.0, 0.0, 0.0, 0.0, 0.0, 0.0, 1.645921367010191E9, 0.0, 2022-02-27 11:22:47.010
34.0, -1664.176781675432, -4765.190752171368, -1892.6563134975809, -10479.727146592993, -807.188547514504, 274.0994422554305, -5276.822182753347, -1558.8777135464804, -1876.2277813229302, -6576.06203270698, -4485.816298224485, -3164.3141107933657, -4226.625469520744, -2927.989116667404, -10011.279286298668, -14374.742135374801, 0.012, -0.10400000000000001, 0.992, 192.0, 0.0, 0.0, 0.0, 0.0, 0.0, 0.0, 0.0, 0.0, 0.0, 1.645921367018363E9, 0.0, 2022-02-27 11:22:47.018
36.0, -1839.682679138503, -4915.193309210934, -2085.3283507023275, -10684.692643248158, -993.6467997606754, 92.93855344516676, -5545.311337150495, -1896.4784617994383, -4571.646996932865, -7371.605321360269, -4391.134308711804, -3321.8268539699143, -4009.232402948428, -2924.278727087823, -10418.483366785451, -15490.138887183535, 0.013000000000000001, -0.10200000000000001, 0.987, 192.0, 0.0, 56.0, 126.0, 112.0, 15.0, 88.0, 0.0, 0.0, 0.0, 1.645921367024834E9, 0.0, 2022-02-27 11:22:47.024
38.0, -2083.137879745708, -5095.035445098334, -2181.776128026978, -10785.789583419513, -1173.3548251813443, -0.5364418669273695, -5454.116219772843, -1756.82476244268, -2407.23817434766, -7057.339794318652, -4702.628219440963, -3296.3235135464092, -4424.326649227935, -3164.8058491713823, -10195.97175073287, -14823.252239614993, 0.013000000000000001, -0.10200000000000001, 0.987, 192.0, 0.0, 0.0, 0.0, 0.0, 0.0, 0.0, 0.0, 0.0, 0.0, 1.645921367039878E9, 0.0, 2022-02-27 11:22:47.039
40.0, -1493.2306400812436, -4648.626404836941, -1796.588515828671, -10362.738116113916, -647.1053537255948, 370.5248678356252, -5284.6676450571595, -1584.4928126922623, -3092.0285692249026, -6782.256875307188, -4329.331735292881, -3203.653181034706, -4016.3402576852154, -2832.502464354332, -10145.00977337477, -14749.178558490106, 0.013000000000000001, -0.10200000000000001, 0.987, 192.0, 0.0, 0.0, 0.0, 0.0, 0.0, 0.0, 0.0, 0.0, 0.0, 1.645921367046883E9, 0.0, 2022-02-27 11:22:47.046
42.0, -2270.2219808366276, -5245.708554471559, -2344.5415311505235, -10957.093352924985, -1331.0463823135356, -146.20276048216348, -5624.97295438921, -1987.4947652214487, -4297.1228715327825, -7639.915661801775, -4659.556407875587, -3431.417457034285, -4289.456223184612, -3186.978779671047, -10485.203323984542, -15605.697406017473, 0.013000000000000001, -0.10200000000000001, 0.987, 192.0, 0.0, 0.0, 0.0, 0.0, 0.0, 0.0, 0.0, 0.0, 0.0, 1.645921367054428E9, 0.0, 2022-02-27 11:22:47.054
44.0, -1721.3301922476521, -4809.447206192876, -1904.167461892064, -10490.321873464809, -804.3945794575906, 273.3618346884054, -5262.002976179478, -1537.8894255029472, -1894.0868251427205, -6577.9172274967705, -4503.004789710616, -3186.9564279265915, -4226.670173009655, -2948.06098318827, -10005.110204829003, -14367.008431793265, 0.013000000000000001, -0.10200000000000001, 0.987, 192.0, 0.0, 0.0, 0.0, 0.0, 0.0, 0.0, 0.0, 0.0, 0.0, 1.645921367062349E9, 0.0, 2022-02-27 11:22:47.062
46.0, -1882.5086215148715, -4972.45847850543, -2079.4051384216714, -10682.435117058172, -967.8752384037065, 107.86951874131188, -5523.943069451221, -1880.8098889362682, -4583.851049405462, -7369.5266091259255, -4400.499689638578, -3350.7500112950815, -4006.617248847157, -2915.829767683717, -10407.329846302253, -15471.251663118801, 0.013500000000000002, -0.10200000000000001, 0.9855, 192.0, 0.0, 56.0, 126.0, 104.0, 15.0, 96.0, 0.0, 0.0, 0.0, 1.64592136707048E9, 0.0, 2022-02-27 11:22:47.070
48.0, -2168.745061009534, -5181.603751373738, -2196.9976660010416, -10799.982941148632, -1177.8698775613163, -4.1797762131424205, -5449.355298203862, -1766.234846858364, -2496.354579490969, -7116.996600269867, -4720.755484194217, -3319.5022725465624, -4422.2032335046815, -3176.004073143491, -10198.698663556417, -14854.075295218861, 0.013500000000000002, -0.10200000000000001, 0.9855, 192.0, 0.0, 0.0, 0.0, 0.0, 0.0, 0.0, 0.0, 0.0, 0.0, 1.645921367077015E9, 0.0, 2022-02-27 11:22:47.077
50.0, -1567.21491422831, -4721.917774905894, -1801.1929751864643, -10378.741965143916, -634.3201558971591, 390.75319656767806, -5277.716252531559, -1577.183792255377, -3085.8594877552378, -6750.562101669562, -4357.360822839835, -3222.6968673106276, -4014.3286006842377, -2825.3722578730894, -10130.570546456642, -14724.256363422439, 0.013500000000000002, -0.10200000000000001, 0.9855, 192.0, 0.0, 0.0, 0.0, 0.0, 0.0, 0.0, 0.0, 0.0, 0.0, 1.645921367085137E9, 0.0, 2022-02-27 11:22:47.085
52.0, -2337.813656069476, -5336.210767771097, -2338.014821769574, -10958.188588403296, -1317.7023908737174, -130.26596668552955, -5640.015678407631, -2009.9582683990322, -4380.137250439793, -7669.107040060407, -4658.103544485992, -3453.2774631115753, -4276.559266633901, -3170.974930641047, -10492.154716510144, -15623.936429493002, 0.013500000000000002, -0.10200000000000001, 0.9855, 192.0, 0.0, 0.0, 0.0, 0.0, 0.0, 0.0, 0.0, 0.0, 0.0, 1.645921367092235E9, 0.0, 2022-02-27 11:22:47.092
54.0, -1841.336708228196, -4952.543074195752, -1917.9808399654437, -10496.379196212196, -824.0864663227161, 274.4123666778048, -5272.262426884464, -1558.475382146285, -1905.3521043481953, -6637.283460770066, -4522.450807386734, -3192.812584973882, -4242.495208084012, -2957.0016809703925, -10013.961495633304, -14374.965652819355, 0.013500000000000002, -0.10200000000000001, 0.9855, 192.0, 0.0, 0.0, 0.0, 0.0, 0.0, 0.0, 0.0, 0.0, 0.0, 1.64592136710029E9, 0.0, 2022-02-27 11:22:47.100
56.0, -1994.1555850691302, -5088.620494439661, -2078.93575178811, -10673.606177998327, -953.3689562522121, 129.99774575206587, -5521.886708961333, -1878.6417697241034, -4586.510906995643, -7412.911345113676, -4418.381085202824, -3357.5896450984055, -3998.905897010076, -2908.4536920134656, -10402.099538099712, -15447.022372129248, 0.014750000000000001, -0.10300000000000001, 0.98575, 192.0, 0.0, 64.0, 126.0, 96.0, 15.0, 104.0, 0.0, 0.0, 0.0, 1.645921367106641E9, 0.0, 2022-02-27 11:22:47.106
58.0, -2300.888574229309, -5297.721063819059, -2213.5603086424244, -10808.655417997292, -1179.009816528537, 1.9222500231564075, -5449.0200220370325, -1767.1289166365764, -2566.65081580291, -7151.708859408958, -4756.518275322709, -3360.003633499579, -4422.15853001577, -3168.3821282842314, -10211.707378829406, -14860.467894133079, 0.014750000000000001, -0.10300000000000001, 0.98575, 192.0, 0.0, 0.0, 0.0, 0.0, 0.0, 0.0, 0.0, 0.0, 0.0, 1.645921367114903E9, 0.0, 2022-02-27 11:22:47.114
60.0, -1680.5829621056275, -4842.080753097624, -1798.6448763185592, -10378.38433723263, -630.7885802732206, 385.5005366206809, -5276.576313564338, -1588.247905760754, -3084.18310692109, -6789.789413188626, -4381.187782429192, -3255.5762834043844, -4016.1167402406622, -2828.6803160524746, -10133.699790680384, -14711.828793505287, 0.014750000000000001, -0.10300000000000001, 0.98575, 192.0, 0.0, 0.0, 0.0, 0.0, 0.0, 0.0, 0.0, 0.0, 0.0, 1.645921367122693E9, 0.0, 2022-02-27 11:22:47.122
62.0, -2452.5451603585675, -5456.396097707284, -2348.766010852577, -10972.426649621326, -1324.5643764214965, -138.46905690062727, -5623.4753875107035, -1988.969980355499, -4438.050620323494, -7710.569526025001, -4685.953818077304, -3481.1053849584328, -4274.480554399557, -3158.1897328126115, -10491.595922898761, -15633.950011008981, 0.014750000000000001, -0.10300000000000001, 0.98575, 192.0, 0.0, 0.0, 0.0, 0.0, 0.0, 0.0, 0.0, 0.0, 0.0, 1.6459213671299E9, 0.0, 2022-02-27 11:22:47.129
64.0, -1916.326810875751, -5030.863586767147, -1926.3850958806393, -10513.008894086945, -831.283728037325, 274.16649748879644, -5268.954368705078, -1552.663928587905, -1931.52599710536, -6667.391260551365, -4547.037726287571, -3222.87568126627, -4243.992774962518, -2938.270919116845, -10011.346341532033, -14375.949129575389, 0.014750000000000001, -0.10300000000000001, 0.98575, 192.0, 0.0, 0.0, 0.0, 0.0, 0.0, 0.0, 0.0, 0.0, 0.0, 1.645921367137323E9, 0.0, 2022-02-27 11:22:47.137
66.0, -2001.6210677172028, -5100.332808534242, -2076.0970802422858, -10661.357422036817, -949.1221248057038, 142.51472264703784, -5517.1704908812635, -1871.779784176324, -4598.267924579135, -7409.200955534096, -4430.942765586707, -3371.961816783168, -4004.069149979252, -2891.28755227179, -10405.474651512463, -15446.44122677341, 0.015375, -0.10550000000000001, 0.9858750000000001, 192.0, 0.0, 64.0, 126.0, 80.0, 15.0, 104.0, 0.0, 0.0, 0.0, 1.645921367145553E9, 0.0, 2022-02-27 11:22:47.145
68.0, -2308.8681469998537, -5313.635505871237, -2217.1589394997286, -10828.168490906775, -1202.1885755286903, -13.433398417639545, -5469.650682169281, -1783.8927249780568, -2630.7332671562754, -7182.621321990648, -4760.474534091298, -3354.5721595969394, -4435.323707499946, -3160.022575857947, -10232.226280239378, -14903.986740587563, 0.015375, -0.10550000000000001, 0.9858750000000001, 192.0, 0.0, 0.0, 0.0, 0.0, 0.0, 0.0, 0.0, 0.0, 0.0, 1.645921367153482E9, 0.0, 2022-02-27 11:22:47.153
70.0, -1654.7219937708371, -4820.399560975977, -1796.7896815287688, -10372.908159841081, -641.807990289687, 380.78431854061114, -5279.593799065805, -1578.0108068002232, -3022.045257335336, -6777.808878160582, -4380.874858006819, -3225.513187111996, -4037.485007939936, -2828.9485369859385, -10125.630810932018, -14695.735537497467, 0.015375, -0.10550000000000001, 0.9858750000000001, 192.0, 0.0, 0.0, 0.0, 0.0, 0.0, 0.0, 0.0, 0.0, 0.0, 1.645921367166998E9, 0.0, 2022-02-27 11:22:47.166
72.0, -2393.849479418931, -5392.6712742652035, -2337.8807113028424, -10964.849408250977, -1325.5255014330749, -138.44670515617196, -5639.1439603738745, -2006.6278584751915, -4457.921321144262, -7692.822240927487, -4665.524323645154, -3463.380451605374, -4265.025766494962, -3156.1557240671787, -10496.334492723287, -15648.456293160474, 0.015375, -0.10550000000000001, 0.9858750000000001, 192.0, 0.0, 0.0, 0.0, 0.0, 0.0, 0.0, 0.0, 0.0, 0.0, 1.645921367175182E9, 0.0, 2022-02-27 11:22:47.175
74.0, -1860.7380224154024, -4965.842362146659, -1931.3024796608067, -10513.500632464962, -841.3643647866685, 249.22195067667374, -5274.9222844746455, -1562.923379292891, -1892.455147797483, -6650.091010342957, -4538.879339561384, -3211.58805031634, -4247.904330242197, -2946.4963610763984, -10013.514460744198, -14383.101687801087, 0.015375, -0.10550000000000001, 0.9858750000000001, 192.0, 0.0, 0.0, 0.0, 0.0, 0.0, 0.0, 0.0, 0.0, 0.0, 1.645921367183046E9, 0.0, 2022-02-27 11:22:47.183
76.0, -1905.9332497040332, -5008.288324867288, -2042.100076925764, -10650.740343420548, -944.4953137034553, 135.65273709925856, -5532.861415488889, -1878.1276796016311, -4514.94062124975, -7333.249727874962, -4395.627009347321, -3339.775304767526, -3994.703769052478, -2891.086386571692, -10399.43968050953, -15435.690037690407, 0.0166875, -0.10675000000000001, 0.9879375, 192.0, 0.0, 72.0, 126.0, 80.0, 15.0, 120.0, 0.0, 0.0, 0.0, 1.645921367189731E9, 0.0, 2022-02-27 11:22:47.189
78.0, -2210.542823140958, -5229.7270571860145, -2204.3290381823826, -10814.33276108894, -1210.391665743788, -27.582052657848916, -5487.3532637778835, -1810.7595218133358, -2601.60894413101, -7152.669984420537, -4730.567900010097, -3343.5303978360175, -4420.795073603997, -3168.4491835175972, -10236.987201808359, -14922.672798952199, 0.0166875, -0.10675000000000001, 0.9879375, 192.0, 0.0, 0.0, 0.0, 0.0, 0.0, 0.0, 0.0, 0.0, 0.0, 1.645921367197723E9, 0.0, 2022-02-27 11:22:47.197
80.0, -1566.3208444500976, -4740.290908848156, -1785.0997191786432, -10358.647746878594, -638.8352082771312, 371.08366144700784, -5266.339214603808, -1585.990379570768, -2943.054192430281, -6757.3570319839755, -4354.499799549556, -3194.220744874566, -4028.5890136467237, -2802.998161673327, -10123.999133586782, -14687.510095537913, 0.0166875, -0.10675000000000001, 0.9879375, 192.0, 0.0, 0.0, 0.0, 0.0, 0.0, 0.0, 0.0, 0.0, 0.0, 1.645921367205768E9, 0.0, 2022-02-27 11:22:47.205
82.0, -2283.49891704308, -5283.393595623207, -2316.8700715148534, -10947.347992342471, -1327.2689375005887, -151.83540008490087, -5668.044765954586, -2027.0573529073422, -4454.233283309136, -7662.80384812401, -4633.293108140601, -3430.5680907449832, -4243.389277862225, -3118.314220704344, -10504.60463817175, -15659.654517132583, 0.0166875, -0.10675000000000001, 0.9879375, 192.0, 0.0, 0.0, 0.0, 0.0, 0.0, 0.0, 0.0, 0.0, 0.0, 1.645921367212388E9, 0.0, 2022-02-27 11:22:47.212
84.0, -1791.0229314592996, -4894.6744078009615, -1920.6406975556254, -10512.517155708929, -871.3827575901458, 219.60588927339188, -5297.855174285791, -1587.4208912159077, -1839.526216927316, -6610.394312190332, -4516.192318939247, -3167.398651528198, -4250.787705276931, -2953.5818640687307, -10028.914812673906, -14397.026824596744, 0.0166875, -0.10675000000000001, 0.9879375, 192.0, 0.0, 0.0, 0.0, 0.0, 0.0, 0.0, 0.0, 0.0, 0.0, 1.645921367219352E9, 0.0, 2022-02-27 11:22:47.219
86.0, -1823.4553126639503, -4928.4255419284755, -2023.1457976276636, -10631.160215277698, -939.242653756458, 126.2873561724849, -5515.0023716690985, -1886.7554529613797, -4441.470437225155, -7301.085567603775, -4368.62610204531, -3308.9298974192025, -3990.367530628149, -2877.116546287125, -10394.321131029265, -15415.417005469442, 0.01534375, -0.108375, 0.9899687500000001, 192.0, 0.0, 56.0, 126.0, 72.0, 15.5, 0.0, 0.0, 0.0, 0.0, 1.645921367227452E9, 0.0, 2022-02-27 11:22:47.227
88.0, -2163.961787696098, -5176.574608871295, -2203.5243753819914, -10829.733113018647, -1222.1710350717349, -45.82107613337948, -5491.845964413401, -1820.817806818224, -2621.9490315853395, -7145.115094794643, -4719.995524882737, -3325.6937057606824, -4421.197405004193, -3169.499715506997, -10247.492521702352, -14953.361744089336, 0.01534375, -0.108375, 0.9899687500000001, 192.0, 0.0, 0.0, 0.0, 0.0, 0.0, 0.0, 0.0, 0.0, 0.0, 1.645921367235461E9, 0.0, 2022-02-27 11:22:47.235
90.0, -1506.507576287696, -4679.583570907542, -1776.4272423299842, -10360.81586609076, -652.9615107728853, 374.86110625995474, -5291.417871882662, -1566.186733983366, -2859.1680954895137, -6717.906203020359, -4341.491084276568, -3180.3179598233655, -4030.1759875030507, -2804.160452385003, -10127.2401365328, -14670.992156385442, 0.01534375, -0.108375, 0.9899687500000001, 192.0, 0.0, 0.0, 0.0, 0.0, 0.0, 0.0, 0.0, 0.0, 0.0, 1.645921367241921E9, 0.0, 2022-02-27 11:22:47.241
92.0, -2239.175407788206, -5234.7114961995485, -2321.9886209951187, -10952.623004033925, -1334.1756265372785, -168.50980144855995, -5651.772695991122, -2042.9941467039762, -4444.085591326427, -7638.395743178814, -4615.992857932193, -3412.9772678586564, -4242.897539484208, -3122.6728108731286, -10518.350961011764, -15669.511636437373, 0.01534375, -0.108375, 0.9899687500000001, 192.0, 0.0, 0.0, 0.0, 0.0, 0.0, 0.0, 0.0, 0.0, 0.0, 1.645921367249957E9, 0.0, 2022-02-27 11:22:47.249
94.0, -1747.079401860166, -4845.142942088001, -1926.0945232027202, -10524.02830410341, -881.9104292285955, 217.95186018369918, -5302.14670922121, -1587.3985394714523, -1815.8780712936011, -6594.815146304983, -4514.918269505295, -3169.879695162737, -4260.108382714794, -2951.7043175344847, -10030.568841763597, -14396.356272263083, 0.01534375, -0.108375, 0.9899687500000001, 192.0, 0.0, 0.0, 0.0, 0.0, 0.0, 0.0, 0.0, 0.0, 0.0, 1.645921367257888E9, 0.0, 2022-02-27 11:22:47.257
96.0, -1769.073518404188, -4872.568532534663, -2023.190501116574, -10624.477043685562, -938.0356595558715, 136.30093768846245, -5522.244336872618, -1889.5047175293826, -4406.400550174779, -7263.847561341234, -4359.126610651804, -3296.3682170353195, -3991.060434706263, -2865.2254182369015, -10396.064567096779, -15407.303322232166, 0.015671875000000002, -0.10918749999999999, 0.989984375, 192.0, 0.0, 64.0, 126.0, 72.0, 15.0, 120.0, 0.0, 0.0, 0.0, 1.645921367264967E9, 0.0, 2022-02-27 11:22:47.264
98.0, -2127.5284442339475, -5126.976087924968, -2211.6604103637233, -10833.57761306496, -1231.4693607651427, -61.57905597437096, -5492.829441169434, -1828.2609377218412, -2647.1170958420153, -7156.7380019114025, -4717.201556825824, -3312.059141642945, -4421.2644602375585, -3185.525916281452, -10257.84137938516, -14977.121648445327, 0.015671875000000002, -0.10918749999999999, 0.989984375, 192.0, 0.0, 0.0, 0.0, 0.0, 0.0, 0.0, 0.0, 0.0, 0.0, 1.64592136727254E9, 0.0, 2022-02-27 11:22:47.272
100.0, -1461.1782385323334, -4626.118198170448, -1771.9568934389226, -10353.059810764767, -649.1170107265724, 371.9553794807648, -5281.694863044603, -1581.4529754463406, -2799.6901034939415, -6674.789687966071, -4330.315212048914, -3173.2548085754884, -4027.158502001584, -2800.1147866385922, -10115.237249760301, -14658.385772512649, 0.015671875000000002, -0.10918749999999999, 0.989984375, 192.0, 0.0, 0.0, 0.0, 0.0, 0.0, 0.0, 0.0, 0.0, 0.0, 1.645921367287577E9, 0.0, 2022-02-27 11:22:47.287
102.0, -2187.5652298409022, -5186.208210731532, -2307.817615010454, -10933.087579379986, -1330.7334578911614, -147.56621689393722, -5666.614254309447, -2049.632614807202, -4462.279911313047, -7611.484242854624, -4597.709130967753, -3377.862677319369, -4231.386391089724, -3113.530947390908, -10516.808690644348, -15671.72445913845, 0.015671875000000002, -0.10918749999999999, 0.989984375, 192.0, 0.0, 0.0, 0.0, 0.0, 0.0, 0.0, 0.0, 0.0, 0.0, 1.645921367294117E9, 0.0, 2022-02-27 11:22:47.294
104.0, -1715.9434218339231, -4822.657087165962, -1921.1771394225527, -10519.60265870126, -887.5430688313328, 231.11703766787502, -5326.308944977396, -1615.5393857406839, -1788.139556424565, -6595.373939916366, -4508.212746168702, -3141.3812209822204, -4257.023841979962, -2952.017241956859, -10034.681562743373, -14398.703205430891, 0.015671875000000002, -0.10918749999999999, 0.989984375, 192.0, 0.0, 0.0, 0.0, 0.0, 0.0, 0.0, 0.0, 0.0, 0.0, 1.645921367302264E9, 0.0, 2022-02-27 11:22:47.302
106.0, -1706.9133170739792, -4820.936002842904, -1991.160451312119, -10601.298284685408, -908.4866533859556, 163.0112723125544, -5514.600040268903, -1868.3823190191174, -4339.904110420241, -7241.831093052757, -4334.4502847731455, -3267.176838776689, -3975.2577513763613, -2862.5208571578096, -10390.186058305033, -15384.2810254432, 0.016, -0.11, 0.992, 192.0, 0.0, 64.0, 126.0, 72.0, 15.5, 0.0, 0.0, 0.0, 0.0, 1.645921367310519E9, 0.0, 2022-02-27 11:22:47.310
108.0, -2105.8249003678443, -5104.601991725206, -2207.5923928728575, -10834.292868887529, -1255.4304308212318, -75.6606549812144, -5520.724418249657, -1863.4425834944946, -2702.7505877912745, -7148.2890425072965, -4701.622390940474, -3307.9240689187136, -4418.1575677582705, -3184.6318465032396, -10274.806353426738, -15009.911657561262, 0.016, -0.11, 0.992, 192.0, 0.0, 0.0, 0.0, 0.0, 0.0, 0.0, 0.0, 0.0, 0.0, 1.645921367317189E9, 0.0, 2022-02-27 11:22:47.317
110.0, -1432.8585783074593, -4600.994837402683, -1757.5400182652497, -10342.286269937309, -660.1811242319494, 360.51128631964764, -5296.424662640651, -1594.50639420824, -2725.0129252687607, -6665.245493083656, -4320.815720655408, -3136.0615058018575, -4029.773656102855, -2804.3392663406453, -10114.432586959909, -14643.074827560762, 0.016, -0.11, 0.992, 192.0, 0.0, 0.0, 0.0, 0.0, 0.0, 0.0, 0.0, 0.0, 0.0, 1.645921367324862E9, 0.0, 2022-02-27 11:22:47.324
112.0, -2150.6177962562797, -5149.551349824828, -2292.573725291935, -10925.644448476369, -1317.7917978515386, -146.20276048216348, -5674.16914393534, -2041.0271931919092, -4480.273065599569, -7616.7592545460775, -4575.625607445909, -3377.3485871968974, -4212.521518769446, -3100.8351565402936, -10519.468548234528, -15687.035404090335, 0.016, -0.11, 0.992, 192.0, 0.0, 0.0, 0.0, 0.0, 0.0, 0.0, 0.0, 0.0, 0.0, 1.645921367332828E9, 0.0, 2022-02-27 11:22:47.332
114.0, -1714.2670409997752, -4805.513299168742, -1928.7990842818124, -10525.570574470828, -893.3545223897127, 212.2968688365065, -5331.025163057467, -1598.9990948437567, -1779.9364662094674, -6593.5858003599415, -4508.1456909353365, -3140.7106686485613, -4268.199714207615, -2952.1737041680462, -10045.388048337467, -14413.65652247149, 0.016, -0.11, 0.992, 192.0, 0.0, 0.0, 0.0, 0.0, 0.0, 0.0, 0.0, 0.0, 0.0, 1.645921367339839E9, 0.0, 2022-02-27 11:22:47.339
116.0, -1691.3788546775406, -4801.959371800348, -1979.5375441953595, -10586.255560666987, -905.9162027735953, 155.85871408685614, -5512.52132803456, -1859.7321939149135, -4306.778825137475, -7216.5512700738045, -4331.9915928830615, -3261.901827085236, -3973.938998453498, -2856.5529413882427, -10377.132639543133, -15360.901100742949, 0.018000000000000002, -0.108, 0.988, 192.0, 0.0, 72.0, 126.0, 80.0, 15.0, 112.0, 0.0, 0.0, 0.0, 1.645921367346952E9, 0.0, 2022-02-27 11:22:47.346
118.0, -2108.507109702481, -5113.162709851588, -2211.1016167523408, -10837.466816600183, -1255.0504511654915, -69.33511130036251, -5520.210328127186, -1842.0743157952209, -2735.2276724848357, -7184.23064759143, -4707.970286365782, -3299.6986269591603, -4416.548242157489, -3175.646445232206, -10274.918112149015, -15019.455852443678, 0.018000000000000002, -0.108, 0.988, 192.0, 0.0, 0.0, 0.0, 0.0, 0.0, 0.0, 0.0, 0.0, 0.0, 1.645921367354337E9, 0.0, 2022-02-27 11:22:47.354
120.0, -1440.8157993335485, -4610.717846240741, -1761.1162973780988, -10348.008316517868, -654.1908567179271, 378.34797839498265, -5288.087461958821, -1577.8990480779469, -2711.356009406568, -6657.780010435583, -4326.895395147252, -3143.303471005377, -4037.842635851221, -2803.132272140059, -10107.81647060114, -14633.597687911713, 0.018000000000000002, -0.108, 0.988, 192.0, 0.0, 0.0, 0.0, 0.0, 0.0, 0.0, 0.0, 0.0, 0.0, 1.645921367362567E9, 0.0, 2022-02-27 11:22:47.362
122.0, -2155.803400969911, -5153.753477782426, -2298.318123616949, -10931.567660757026, -1304.4031029228095, -143.94523429217747, -5668.760021777156, -2052.4042311196604, -4510.827900269974, -7614.814652778466, -4580.833563903995, -3391.452537948196, -4214.488472281512, -3093.3920256366764, -10519.692065679083, -15695.238494305433, 0.018000000000000002, -0.108, 0.988, 192.0, 0.0, 0.0, 0.0, 0.0, 0.0, 0.0, 0.0, 0.0, 0.0, 1.645921367370439E9, 0.0, 2022-02-27 11:22:47.370
124.0, -1731.8578638861018, -4826.993325590292, -1939.9302530205553, -10535.382990286707, -905.8491475402293, 201.70214196469092, -5335.271994503974, -1618.1992433308653, -1782.104585421632, -6590.523611369564, -4525.80356905503, -3160.424907258142, -4270.390185164236, -2962.5225618508534, -10038.056676156126, -14414.572943994159, 0.018000000000000002, -0.108, 0.988, 192.0, 0.0, 0.0, 0.0, 0.0, 0.0, 0.0, 0.0, 0.0, 0.0, 1.645921367377036E9, 0.0, 2022-02-27 11:22:47.377
126.0, -1681.3429214171078, -4801.534688655697, -1981.1692215405967, -10575.370261117252, -886.3584263752016, 174.00833058456547, -5503.334761063428, -1850.0315368213103, -4294.4183104536905, -7223.279145154852, -4346.43081980119, -3267.713280643616, -3976.755318254867, -2849.065106995715, -10378.183171532533, -15351.669830282908, 0.018000000000000002, -0.112, 0.99, 192.0, 0.0, 72.0, 126.0, 64.0, 15.0, 120.0, 0.0, 0.0, 0.0, 1.645921367385006E9, 0.0, 2022-02-27 11:22:47.385
128.0, -2133.1610838366846, -5132.429913572063, -2241.0082508335413, -10854.923529019778, -1264.7287565146396, -78.92400967168923, -5536.57180506847, -1878.5747144907373, -2853.669566353508, -7245.027392509865, -4724.532929007164, -3333.89679597578, -4426.740637629108, -3193.170212885167, -10305.674112519517, -15072.854169947406, 0.018000000000000002, -0.112, 0.99, 192.0, 0.0, 0.0, 0.0, 0.0, 0.0, 0.0, 0.0, 0.0, 0.0, 1.645921367393052E9, 0.0, 2022-02-27 11:22:47.393
130.0, -1445.2637964801547, -4615.791692232096, -1772.3592248391183, -10349.394124674098, -651.776868316754, 369.42963235731514, -5308.539308135428, -1594.1040628080443, -2623.5583571861216, -6641.686754427762, -4344.486218033579, -3150.165456553156, -4052.907711614098, -2828.926185241483, -10103.390825198989, -14598.237228183418, 0.018000000000000002, -0.112, 0.99, 192.0, 0.0, 0.0, 0.0, 0.0, 0.0, 0.0, 0.0, 0.0, 0.0, 1.645921367399706E9, 0.0, 2022-02-27 11:22:47.399
132.0, -2149.1425811222293, -5154.960471983012, -2300.396835851292, -10926.270297321118, -1306.8841465573487, -132.70230683115804, -5686.93199001932, -2069.12333597223, -4537.113551749415, -7612.467719610659, -4576.720842924219, -3386.1998780011986, -4206.106568110772, -3101.103377473757, -10533.281926307909, -15697.317206539776, 0.018000000000000002, -0.112, 0.99, 192.0, 0.0, 0.0, 0.0, 0.0, 0.0, 0.0, 0.0, 0.0, 0.0, 1.645921367414627E9, 0.0, 2022-02-27 11:22:47.414
134.0, -1742.2961285467302, -4838.057439095669, -1958.0575177738092, -10554.247862606986, -917.8520343127292, 192.00148487108765, -5335.741381137536, -1612.8795281505024, -1791.5146698373164, -6598.011445762092, -4541.89682506285, -3169.6114742292734, -4287.757490606009, -2987.2212394739677, -10045.74567624875, -14425.324133077162, 0.018000000000000002, -0.112, 0.99, 192.0, 0.0, 0.0, 0.0, 0.0, 0.0, 0.0, 0.0, 0.0, 0.0, 1.645921367422754E9, 0.0, 2022-02-27 11:22:47.422
136.0, -1679.7112440718704, -4805.848575335572, -1987.8300413882782, -10576.465496595561, -890.5605543327993, 169.44857471568284, -5517.394008325817, -1866.1918480624972, -4259.616644336777, -7192.076109895243, -4341.826360443397, -3275.335225502876, -3984.511373580858, -2870.545133417265, -10377.333805243232, -15332.402626562432, 0.016, -0.108, 0.988, 192.0, 0.0, 64.0, 126.0, 80.0, 15.0, 112.0, 0.0, 0.0, 0.0, 1.645921367429349E9, 0.0, 2022-02-27 11:22:47.429
138.0, -2135.955051893598, -5138.174311897077, -2244.8080473909436, -10856.57755810947, -1264.8181634924608, -78.45462303812779, -5539.030496958554, -1868.7399469304023, -2840.1467609580473, -7233.940927260033, -4725.2705365741895, -3326.8783482168137, -4439.1682075462595, -3210.783387515949, -10309.987999199391, -15067.757972211597, 0.016, -0.108, 0.988, 192.0, 0.0, 0.0, 0.0, 0.0, 0.0, 0.0, 0.0, 0.0, 0.0, 1.645921367438699E9, 0.0, 2022-02-27 11:22:47.438
140.0, -1452.9527965727802, -4621.91607021285, -1781.6128470436154, -10352.791589831304, -662.3492434441142, 370.05548120206373, -5287.1263369472435, -1571.5958561415503, -2644.390183018468, -6655.321318545499, -4346.2520058455475, -3164.29175904891, -4063.61419720819, -2835.117618455603, -10111.415101458442, -14600.27123692885, 0.016, -0.108, 0.988, 192.0, 0.0, 0.0, 0.0, 0.0, 0.0, 0.0, 0.0, 0.0, 0.0, 1.645921367445404E9, 0.0, 2022-02-27 11:22:47.445
142.0, -2142.2358920855395, -5151.808876014814, -2306.6106208098677, -10924.437454275781, -1296.2670679410778, -130.73535331909102, -5678.4159753818485, -2054.6394055651913, -4588.254343063158, -7626.325801172949, -4585.2145058172355, -3404.841232876925, -4215.427245548635, -3115.8331770698046, -10538.199310088075, -15694.456183249496, 0.016, -0.108, 0.988, 192.0, 0.0, 0.0, 0.0, 0.0, 0.0, 0.0, 0.0, 0.0, 0.0, 1.645921367452471E9, 0.0, 2022-02-27 11:22:47.452
144.0, -1750.789791439747, -4838.884453640515, -1967.1546777671192, -10558.159417886665, -917.4497029125337, 193.20847907167425, -5343.206863785608, -1619.4956445092732, -1789.234791902875, -6592.110585225891, -4543.752019852641, -3171.399613785698, -4293.725406375576, -3004.990876315937, -10060.967214222816, -14425.324133077162, 0.016, -0.108, 0.988, 192.0, 0.0, 0.0, 0.0, 0.0, 0.0, 0.0, 0.0, 0.0, 0.0, 1.645921367459986E9, 0.0, 2022-02-27 11:22:47.459
146.0, -1654.2526071372756, -4778.065356977625, -1968.004044056421, -10562.294490610897, -869.5499145448107, 197.45531051818259, -5501.3231040624505, -1844.4659524519388, -4225.5078822979785, -7173.680624208525, -4341.3793255542905, -3275.558742947429, -3983.7961177582883, -2868.6228833941086, -10372.461124951975, -15306.519306483187, 0.016, -0.108, 0.988, 192.0, 0.0, 64.0, 126.0, 80.0, 15.0, 112.0, 0.0, 0.0, 0.0, 1.645921367466747E9, 0.0, 2022-02-27 11:22:47.466
148.0, -2141.0065461404974, -5139.470713075485, -2258.8002394199657, -10869.541569893549, -1281.8054892784942, -77.82877419337919, -5552.709764565202, -1880.429909280528, -2926.3797910666217, -7262.037070040354, -4728.198615097835, -3335.483769832107, -4436.575405189444, -3207.0729979363678, -10326.304772651765, -15108.885182009362, 0.016, -0.108, 0.988, 192.0, 0.0, 0.0, 0.0, 0.0, 0.0, 0.0, 0.0, 0.0, 0.0, 1.645921367475176E9, 0.0, 2022-02-27 11:22:47.475
150.0, -1459.3900989759088, -4620.507910312165, -1789.6147715586153, -10351.00345027488, -661.1646009879829, 370.5695713245358, -5295.128261462243, -1578.279027733687, -2593.137632982449, -6623.559489674508, -4365.787430499486, -3156.423945000642, -4079.640397982645, -2834.2235486773907, -10104.351950210566, -14577.07012618424, 0.016, -0.108, 0.988, 192.0, 0.0, 0.0, 0.0, 0.0, 0.0, 0.0, 0.0, 0.0, 0.0, 1.645921367482197E9, 0.0, 2022-02-27 11:22:47.482
152.0, -2139.151351350707, -5145.170407911588, -2300.5532980624794, -10907.450128489749, -1285.4041201357986, -122.35344914835086, -5687.960170264265, -2058.5733125893253, -4610.583735774009, -7619.217946436161, -4576.251456290657, -3395.811128116981, -4206.173623344138, -3125.7349998635054, -10533.013705374446, -15700.044119363323, 0.016, -0.108, 0.988, 192.0, 0.0, 0.0, 0.0, 0.0, 0.0, 0.0, 0.0, 0.0, 0.0, 1.645921367489653E9, 0.0, 2022-02-27 11:22:47.489
154.0, -1764.49141079085, -4849.948567145892, -1973.8825528481666, -10554.784304473915, -927.9326710620727, 187.88876389131116, -5355.142695324743, -1632.2361388487982, -1803.2269839318974, -6631.494358956142, -4556.112534536425, -3174.8641341762705, -4310.2656972725035, -3018.044295077836, -10057.122714176503, -14435.248307615318, 0.016, -0.108, 0.988, 192.0, 0.0, 0.0, 0.0, 0.0, 0.0, 0.0, 0.0, 0.0, 0.0, 1.645921367497553E9, 0.0, 2022-02-27 11:22:47.497
156.0, -1640.2827668527088, -4769.37052838451, -1957.1187445066864, -10540.032153133412, -847.6452049786097, 220.5223107960595, -5497.143327849309, -1835.9052343255562, -4182.748995154977, -7148.780780885313, -4335.299651062447, -3259.5772456618843, -3980.331597367716, -2866.052432781748, -10356.054944521778, -15284.324024239068, 0.012, -0.106, 0.986, 192.0, 0.0, 48.0, 126.0, 88.0, 15.0, 104.0, 0.0, 0.0, 0.0, 1.645921367505712E9, 0.0, 2022-02-27 11:22:47.505
158.0, -2138.3913920392265, -5129.837111215247, -2252.8993788837647, -10861.62905235637, -1278.3856723768322, -81.20388760613056, -5562.186904214252, -1882.3521593036842, -2960.2203321719567, -7237.316040672785, -4728.489187775754, -3329.5158540625403, -4431.099227797893, -3207.3188671253765, -10319.152214426067, -15120.262219937113, 0.012, -0.106, 0.986, 192.0, 0.0, 0.0, 0.0, 0.0, 0.0, 0.0, 0.0, 0.0, 0.0, 1.645921367512267E9, 0.0, 2022-02-27 11:22:47.512
160.0, -1447.4989709256854, -4603.364122314945, -1779.8247074871908, -10344.655554849573, -665.4114324344913, 373.63176031491287, -5299.151575464199, -1579.6424841454607, -2562.783964012142, -6595.999788761114, -4359.461886818634, -3148.5114274634634, -4073.136040346151, -2842.7842668037733, -10092.930208793905, -14565.491922556392, 0.012, -0.106, 0.986, 192.0, 0.0, 0.0, 0.0, 0.0, 0.0, 0.0, 0.0, 0.0, 0.0, 1.645921367520129E9, 0.0, 2022-02-27 11:22:47.520
162.0, -2120.6888104306236, -5129.278317603865, -2289.958571190664, -10904.20912554373, -1279.0562247104913, -124.7227340606134, -5689.1001092314855, -2068.251617938473, -4632.7566662736735, -7614.568783589457, -4563.734479395685, -3389.619694902861, -4191.175602814627, -3103.6738280861173, -10528.968039628035, -15702.122831597666, 0.012, -0.106, 0.986, 192.0, 0.0, 0.0, 0.0, 0.0, 0.0, 0.0, 0.0, 0.0, 0.0, 1.645921367534409E9, 0.0, 2022-02-27 11:22:47.534
164.0, -1766.1007363916322, -4844.450038009887, -1975.000140070932, -10557.935900442113, -938.3038804893351, 186.7041214351799, -5359.545988982438, -1652.665633280949, -1805.7750827998022, -6627.40398972082, -4557.967729326217, -3169.8573434182817, -4311.338581006358, -3014.400960731621, -10055.647499042452, -14441.484444318348, 0.012, -0.106, 0.986, 192.0, 0.0, 0.0, 0.0, 0.0, 0.0, 0.0, 0.0, 0.0, 0.0, 1.645921367541758E9, 0.0, 2022-02-27 11:22:47.541
166.0, -1623.0048683887564, -4752.5620165541195, -1944.4006019116166, -10525.0341326039, -837.9221961405511, 215.47081654916008, -5490.8177841684565, -1814.201690459453, -4144.281642947393, -7127.323106208219, -4331.209281827126, -3245.428591421675, -3978.990492700397, -2857.379955933089, -10345.013182760857, -15258.507759393187, 0.014, -0.106, 0.986, 192.0, 0.0, 56.0, 126.0, 88.0, 15.0, 104.0, 0.0, 0.0, 0.0, 1.645921367549866E9, 0.0, 2022-02-27 11:22:47.549
168.0, -2134.189264081629, -5124.852672201714, -2250.798314904966, -10861.24907270063, -1285.4264718802538, -79.21458234960824, -5587.243209748651, -1883.3132843152625, -2991.7809953428505, -7269.3237387327845, -4725.628164485474, -3328.621784284328, -4433.468512710156, -3200.814509488882, -10330.037513975802, -15126.476004895689, 0.014, -0.106, 0.986, 192.0, 0.0, 0.0, 0.0, 0.0, 0.0, 0.0, 0.0, 0.0, 0.0, 1.645921367557996E9, 0.0, 2022-02-27 11:22:47.557
170.0, -1441.419296433842, -4599.072587379526, -1771.3086928497187, -10346.935432784014, -664.4056039340024, 378.2585714171614, -5312.629677370748, -1577.9437515668574, -2533.3690683089576, -6587.528477612553, -4347.86133144633, -3143.3481744942874, -4075.2818078138603, -2820.7454467708408, -10097.467612918332, -14557.847625952678, 0.014, -0.106, 0.986, 192.0, 0.0, 0.0, 0.0, 0.0, 0.0, 0.0, 0.0, 0.0, 0.0, 1.645921367564514E9, 0.0, 2022-02-27 11:22:47.564
172.0, -2101.086330543319, -5109.765244694382, -2275.11701287234, -10891.803907371033, -1260.8619047238715, -115.96085023413305, -5677.767774792645, -2076.991150020498, -4620.530262056621, -7577.0178529045415, -4546.322470465001, -3382.377729699341, -4184.984169600507, -3109.150005477668, -10529.571536728328, -15707.174325844566, 0.014, -0.106, 0.986, 192.0, 0.0, 0.0, 0.0, 0.0, 0.0, 0.0, 0.0, 0.0, 0.0, 1.645921367572447E9, 0.0, 2022-02-27 11:22:47.572
174.0, -1769.4758498043836, -4842.348974031088, -1976.3412447382505, -10569.46940058105, -948.5186277054105, 173.91892360674424, -5350.068849333388, -1627.0728858796224, -1790.68765529247, -6636.50114971413, -4555.531389180588, -3174.4841545205304, -4312.925554862685, -3023.1628445581014, -10055.625147297997, -14445.775979253767, 0.015, -0.10400000000000001, 0.987, 192.0, 0.0, 64.0, 126.0, 104.0, 15.0, 112.0, 0.0, 0.0, 0.0, 1.645921367580645E9, 0.0, 2022-02-27 11:22:47.580
176.0, -1603.178871056899, -4735.5970425125415, -1930.743686049424, -10520.116748823733, -833.541254227311, 212.9450694257104, -5467.281397257018, -1807.2502979338526, -4106.641305284656, -7107.1394809650765, -4323.989668368062, -3255.777449104482, -3976.5094490658585, -2864.3313484586893, -10335.714857067449, -15247.801273799096, 0.015, -0.10400000000000001, 0.987, 192.0, 0.0, 0.0, 0.0, 0.0, 0.0, 0.0, 0.0, 0.0, 0.0, 1.645921367587695E9, 0.0, 2022-02-27 11:22:47.587
178.0, -2135.552720493403, -5125.411465813097, -2252.832323650399, -10867.10522974792, -1296.6693993412732, -90.81513772191259, -5564.8914652933445, -1892.812775708768, -3043.3464698012435, -7283.7629656509125, -4720.129635349469, -3335.3943628542856, -4427.142969029304, -3217.4889108525413, -10338.844101291192, -15160.785932634584, 0.015, -0.10400000000000001, 0.987, 192.0, 0.0, 0.0, 0.0, 0.0, 0.0, 0.0, 0.0, 0.0, 0.0, 1.645921367594121E9, 0.0, 2022-02-27 11:22:47.594
180.0, -1435.741953342194, -4590.24364831968, -1768.0900416481545, -10339.782874558316, -671.1111272705946, 371.9106759918542, -5291.864906771768, -1568.2877979621646, -2476.3497682034695, -6579.392442630821, -4349.738877980576, -3138.6990116475836, -4077.9193136595864, -2837.308089412223, -10085.241208701278, -14541.30733505575, 0.015, -0.10400000000000001, 0.987, 192.0, 0.0, 0.0, 0.0, 0.0, 0.0, 0.0, 0.0, 0.0, 0.0, 1.645921367602153E9, 0.0, 2022-02-27 11:22:47.602
182.0, -2080.9474087890876, -5096.018921854368, -2266.802163934966, -10882.796154355545, -1267.1427449158127, -105.45553034013872, -5687.244914441695, -2053.45476310906, -4643.798428034595, -7571.429916790715, -4533.246699958647, -3372.341796438908, -4164.2864542348925, -3071.7108335150283, -10527.470472749528, -15708.560134000796, 0.015, -0.10400000000000001, 0.987, 192.0, 0.0, 0.0, 0.0, 0.0, 0.0, 0.0, 0.0, 0.0, 0.0, 1.645921367610466E9, 0.0, 2022-02-27 11:22:47.610
184.0, -1771.688672505459, -4851.021450879747, -1981.7727186408902, -10576.33138612883, -958.5545609658434, 166.34168223639517, -5361.222369816586, -1638.7404964852926, -1800.298905408252, -6644.525425973586, -4564.695604407264, -3177.00990164398, -4309.438682727657, -3030.9412516285483, -10063.381202623988, -14461.601014328126, 0.0155, -0.10600000000000001, 0.9864999999999999, 192.0, 0.0, 64.0, 126.0, 80.0, 15.0, 104.0, 0.0, 0.0, 0.0, 1.645921367617361E9, 0.0, 2022-02-27 11:22:47.617
186.0, -1575.0156730432122, -4714.251126557723, -1911.5882410512259, -10497.0273968014, -809.6695911490431, 241.1753226727632, -5467.46021121266, -1788.0501494467437, -4053.064173825285, -7086.866448744113, -4317.28414503147, -3246.099143755334, -3960.97498666942, -2837.6210138345973, -10329.389313386597, -15218.63224728492, 0.0155, -0.10600000000000001, 0.9864999999999999, 192.0, 0.0, 0.0, 0.0, 0.0, 0.0, 0.0, 0.0, 0.0, 0.0, 1.645921367624759E9, 0.0, 2022-02-27 11:22:47.624
188.0, -2139.151351350707, -5125.210300112999, -2259.2025708201613, -10872.179075739274, -1302.3467424329212, -100.962829704622, -5579.733023611668, -1914.5163195748712, -3135.52506393493, -7302.627837971192, -4712.485338745754, -3330.700496518671, -4410.625029876832, -3202.8932217232255, -10353.037459020312, -15194.917046417839, 0.0155, -0.10600000000000001, 0.9864999999999999, 192.0, 0.0, 0.0, 0.0, 0.0, 0.0, 0.0, 0.0, 0.0, 0.0, 1.64592136763341E9, 0.0, 2022-02-27 11:22:47.633
190.0, -1439.9217295553362, -4596.546840256076, -1767.39713757004, -10339.894633280592, -671.580513904156, 369.78726026860005, -5291.686092816126, -1556.1060972340224, -2411.440302305258, -6568.663605292274, -4354.790372227475, -3129.6018516542736, -4086.390624808148, -2833.8882725105614, -10077.149877208458, -14511.512459696825, 0.0155, -0.10600000000000001, 0.9864999999999999, 192.0, 0.0, 0.0, 0.0, 0.0, 0.0, 0.0, 0.0, 0.0, 0.0, 1.645921367639989E9, 0.0, 2022-02-27 11:22:47.639
192.0, -2072.36433891825, -5079.657444913083, -2261.3930417767815, -10876.20238974123, -1267.6568350382847, -112.6974955436582, -5698.778414580634, -2070.866772039744, -4650.503951371187, -7566.490181266092, -4522.271993431091, -3368.81022081497, -4156.44099193108, -3076.56116206183, -10525.637629704193, -15695.462011749985, 0.0155, -0.10600000000000001, 0.9864999999999999, 192.0, 0.0, 0.0, 0.0, 0.0, 0.0, 0.0, 0.0, 0.0, 0.0, 1.645921367647468E9, 0.0, 2022-02-27 11:22:47.647
194.0, -1780.2940941207523, -4847.5345787447195, -1986.6453989321471, -10573.068031438355, -965.7294709359969, 160.57493216692595, -5358.026070359478, -1628.056362635656, -1805.3727513996068, -6639.451579982231, -4564.405031729345, -3176.272294076955, -4318.558194465422, -3048.666184981607, -10059.648461299952, -14452.570909568181, 0.01475, -0.10900000000000001, 0.98725, 192.0, 0.0, 56.0, 126.0, 64.0, 15.0, 112.0, 0.0, 0.0, 0.0, 1.645921367662637E9, 0.0, 2022-02-27 11:22:47.662
196.0, -1565.7620508387151, -4697.375559493967, -1910.1353776616309, -10489.226637986498, -817.5821086862218, 231.83229349044484, -5473.629292682325, -1787.3572453686293, -4030.220690991961, -7071.06376541421, -4315.607764197322, -3236.9796320175687, -3970.206257129462, -2852.060240752726, -10323.488452850397, -15194.201790595269, 0.01475, -0.10900000000000001, 0.98725, 192.0, 0.0, 0.0, 0.0, 0.0, 0.0, 0.0, 0.0, 0.0, 0.0, 1.645921367669524E9, 0.0, 2022-02-27 11:22:47.669
198.0, -2138.2796333169504, -5127.1101983917, -2263.471754011125, -10872.514351906104, -1300.6256581098626, -96.8501087248455, -5584.002206802632, -1907.810796238279, -3141.0906483043013, -7313.423730543105, -4712.3512282790225, -3336.936633221702, -4424.416056205757, -3216.4383788631417, -10354.33386019872, -15190.267883571136, 0.01475, -0.10900000000000001, 0.98725, 192.0, 0.0, 0.0, 0.0, 0.0, 0.0, 0.0, 0.0, 0.0, 0.0, 1.64592136767702E9, 0.0, 2022-02-27 11:22:47.677
200.0, -1443.0733255235345, -4596.457433278255, -1778.4388993309617, -10343.403857160076, -674.0615575386951, 363.59582705447997, -5293.362473650274, -1562.699861848338, -2413.697828495244, -6568.194218658712, -4357.204360628648, -3133.267537744944, -4086.5694387637905, -2837.7551243013295, -10070.3772986385, -14505.34337822716, 0.01475, -0.10900000000000001, 0.98725, 192.0, 0.0, 0.0, 0.0, 0.0, 0.0, 0.0, 0.0, 0.0, 0.0, 1.645921367685454E9, 0.0, 2022-02-27 11:22:47.685
202.0, -2050.16905667413, -5068.816848852259, -2256.632120207801, -10860.734982578157, -1250.3565848298772, -91.48569005557181, -5685.3450161629935, -2043.932919971099, -4685.909114588394, -7573.799201702977, -4521.08735097496, -3376.4768691631402, -4153.937596552086, -3075.2871126278774, -10521.144929068676, -15692.802154159805, 0.01475, -0.10900000000000001, 0.98725, 192.0, 0.0, 0.0, 0.0, 0.0, 0.0, 0.0, 0.0, 0.0, 0.0, 1.645921367693172E9, 0.0, 2022-02-27 11:22:47.693
204.0, -1801.5506030977492, -4864.946587675404, -2009.1536055986412, -10593.072842725855, -985.6001717567649, 148.86261807234504, -5387.597428273849, -1644.8425227215914, -1837.0228215483216, -6674.566170521519, -4574.0609853340375, -3181.6590644906837, -4328.1694445812045, -3046.3863070471657, -10071.785458539183, -14477.269587191295, 0.014374999999999999, -0.10750000000000001, 0.986625, 192.0, 0.0, 56.0, 126.0, 88.0, 15.0, 104.0, 0.0, 0.0, 0.0, 1.645921367699668E9, 0.0, 2022-02-27 11:22:47.699
206.0, -1550.6522715869276, -4686.4679081997765, -1902.1111014021758, -10479.593036126262, -794.5598118972555, 264.19761946172946, -5450.048202281976, -1770.168753882498, -3965.624149516124, -7046.588605235649, -4309.170461794193, -3234.945623272136, -3964.7300797379116, -2853.870732053606, -10301.650798517561, -15158.304889000046, 0.014374999999999999, -0.10750000000000001, 0.986625, 192.0, 0.0, 0.0, 0.0, 0.0, 0.0, 0.0, 0.0, 0.0, 0.0, 1.645921367707681E9, 0.0, 2022-02-27 11:22:47.707
208.0, -2140.09012461783, -5124.696209990527, -2273.1277076158176, -10884.271369489596, -1307.3311814464548, -94.72669300159133, -5586.0809190369755, -1935.616366340681, -3236.5996523618287, -7340.201120400563, -4708.752597421718, -3345.1397234367996, -4408.166337986749, -3219.1429399422336, -10361.017031790858, -15230.746892779696, 0.014374999999999999, -0.10750000000000001, 0.986625, 192.0, 0.0, 0.0, 0.0, 0.0, 0.0, 0.0, 0.0, 0.0, 0.0, 1.645921367714912E9, 0.0, 2022-02-27 11:22:47.714
210.0, -1445.3755552024313, -4594.177555343814, -1777.6789400194814, -10348.231833962422, -680.7000256419213, 364.19932415477325, -5294.90474401769, -1560.2858734471647, -2338.79713282551, -6547.362392826366, -4364.021642687517, -3134.139255778701, -4091.8444504552426, -2851.7696680748068, -10053.345269363555, -14482.119915738096, 0.014374999999999999, -0.10750000000000001, 0.986625, 192.0, 0.0, 0.0, 0.0, 0.0, 0.0, 0.0, 0.0, 0.0, 0.0, 1.645921367722731E9, 0.0, 2022-02-27 11:22:47.722
212.0, -2044.1340856711968, -5062.4913051714075, -2252.2288265501056, -10864.95946228021, -1236.8784829233268, -90.79278597745729, -5673.945626490788, -2040.937786214088, -4682.131669775447, -7555.0684398494295, -4511.744321792641, -3373.1241074948443, -4141.308860934837, -3047.638004736663, -10511.779548141903, -15681.268654020865, 0.014374999999999999, -0.10750000000000001, 0.986625, 192.0, 0.0, 0.0, 0.0, 0.0, 0.0, 0.0, 0.0, 0.0, 0.0, 1.645921367729368E9, 0.0, 2022-02-27 11:22:47.729
214.0, -1804.8586612771346, -4868.656977254985, -2013.132216111686, -10598.280799183942, -997.0889684067928, 138.29024294498478, -5381.897733437745, -1664.9590927313677, -1830.4961121673718, -6683.618627025918, -4578.441927247278, -3188.8339744608375, -4330.963412638118, -3058.657414753129, -10065.191693924868, -14482.477543649382, 0.0151875, -0.10775000000000001, 0.9883124999999999, 192.0, 0.0, 64.0, 126.0, 80.0, 15.0, 120.0, 0.0, 0.0, 0.0, 1.645921367737398E9, 0.0, 2022-02-27 11:22:47.737
216.0, -1539.6775650593718, -4678.622445895964, -1898.7583397338797, -10470.831152299781, -790.2459252173812, 255.32397691297257, -5451.702231371669, -1777.1872016414645, -3933.1917683114734, -7046.499198257828, -4310.422159483691, -3234.275070938477, -3965.8923704495874, -2873.786136363284, -10304.154193896557, -15152.336973230478, 0.0151875, -0.10775000000000001, 0.9883124999999999, 192.0, 0.0, 0.0, 0.0, 0.0, 0.0, 0.0, 0.0, 0.0, 0.0, 1.645921367745223E9, 0.0, 2022-02-27 11:22:47.745
218.0, -2148.8520084443103, -5124.96443092399, -2282.8730681983316, -10885.992453812654, -1317.3671147068876, -107.66835304121412, -5587.511430682115, -1924.9769359799548, -3257.319719471898, -7338.16711165513, -4716.307487047611, -3359.668357332749, -4403.137195484304, -3227.390733646242, -10371.321185984754, -15242.906241763383, 0.0151875, -0.10775000000000001, 0.9883124999999999, 192.0, 0.0, 0.0, 0.0, 0.0, 0.0, 0.0, 0.0, 0.0, 0.0, 1.64592136775233E9, 0.0, 2022-02-27 11:22:47.752
220.0, -1454.9197500848472, -4604.638171748898, -1787.5137075798164, -10346.868377550647, -681.5717436756782, 369.6755015463235, -5286.165211935665, -1552.4851146322626, -2341.0993625044066, -6540.679221234229, -4365.429802588201, -3139.2801570034217, -4091.3080085883153, -2863.5043339138433, -10062.643595056963, -14483.86335180561, 0.0151875, -0.10775000000000001, 0.9883124999999999, 192.0, 0.0, 0.0, 0.0, 0.0, 0.0, 0.0, 0.0, 0.0, 0.0, 1.64592136776004E9, 0.0, 2022-02-27 11:22:47.760
222.0, -2049.0514694513645, -5070.359119219675, -2253.368765517326, -10855.012935997598, -1228.876558408327, -67.36815778829549, -5655.93012045981, -2026.4091523181382, -4708.372617765977, -7570.40173654577, -4508.279801402068, -3388.4350524467295, -4127.786055539376, -3076.069423683813, -10515.400530743664, -15686.588369201228, 0.0151875, -0.10775000000000001, 0.9883124999999999, 192.0, 0.0, 0.0, 0.0, 0.0, 0.0, 0.0, 0.0, 0.0, 0.0, 1.645921367769232E9, 0.0, 2022-02-27 11:22:47.769
224.0, -1821.8012835742575, -4882.492707072819, -2025.6938964955684, -10607.892049299724, -994.1385381386922, 143.83347556990094, -5363.055212861921, -1660.466392095851, -1853.3395950006957, -6696.582638809996, -4589.014302374638, -3210.1575386712, -4334.338526050869, -3063.4406880665647, -10070.734926549785, -14490.792392586756, 0.01559375, -0.106875, 0.98815625, 192.0, 0.0, 64.0, 126.0, 88.0, 15.0, 112.0, 0.0, 0.0, 0.0, 1.645921367781667E9, 0.0, 2022-02-27 11:22:47.781
226.0, -1549.02059424169, -4691.653512913408, -1894.913839687567, -10467.970129009502, -767.5365528507892, 267.3715671743831, -5418.7334083000915, -1745.626538470571, -3904.9838668088755, -7013.642133908526, -4313.484348474068, -3249.518960656996, -3964.663024504546, -2855.189484976469, -10291.436051301485, -15127.191260718258, 0.01559375, -0.106875, 0.98815625, 192.0, 0.0, 0.0, 0.0, 0.0, 0.0, 0.0, 0.0, 0.0, 0.0, 1.645921367789773E9, 0.0, 2022-02-27 11:22:47.789
228.0, -2180.7479477820334, -5160.682518563571, -2298.8098619949656, -10900.834012130977, -1309.7898733365387, -112.3398676323733, -5578.928360811277, -1937.4939128749268, -3372.0735755054448, -7402.137804286219, -4720.174338838379, -3379.784927342526, -4396.006989003061, -3247.4178966781974, -10380.932436100537, -15282.602939916009, 0.01559375, -0.106875, 0.98815625, 192.0, 0.0, 0.0, 0.0, 0.0, 0.0, 0.0, 0.0, 0.0, 0.0, 1.645921367797574E9, 0.0, 2022-02-27 11:22:47.797
230.0, -1482.3006370425985, -4630.789712761607, -1800.7682920418135, -10356.457275921974, -673.3463017161253, 380.42669062932623, -5260.3042436008745, -1526.1771114083663, -2282.336626331404, -6566.20491340219, -4385.389910386791, -3150.6348431867177, -4101.187479637561, -2886.2584097693457, -10050.238376884268, -14453.107351435108, 0.01559375, -0.106875, 0.98815625, 192.0, 0.0, 0.0, 0.0, 0.0, 0.0, 0.0, 0.0, 0.0, 0.0, 1.645921367804751E9, 0.0, 2022-02-27 11:22:47.804
232.0, -2034.2099111330406, -5057.931549302524, -2248.1384573147843, -10845.491092859638, -1211.9786396001148, -55.208808804608445, -5656.5783210490135, -2020.5082917819373, -4700.281286273156, -7549.771076413522, -4496.858059985407, -3380.120203509355, -4110.932840220075, -3057.7409932304613, -10507.845641117769, -15661.777932855837, 0.01559375, -0.106875, 0.98815625, 192.0, 0.0, 0.0, 0.0, 0.0, 0.0, 0.0, 0.0, 0.0, 0.0, 1.645921367812162E9, 0.0, 2022-02-27 11:22:47.812
234.0, -1839.7273826274138, -4896.909582246492, -2037.1156379122303, -10615.71515985908, -1000.4640818195442, 145.8898360597892, -5370.63245423227, -1655.437249593407, -1846.9022925975673, -6688.357196850443, -4584.722767439219, -3199.0263699324573, -4318.155863065227, -3069.3639003472213, -10074.80294404065, -14489.428936174982, 0.015796875000000002, -0.1094375, 0.989078125, 192.0, 0.0, 64.0, 126.0, 64.0, 15.0, 120.0, 0.0, 0.0, 0.0, 1.645921367820161E9, 0.0, 2022-02-27 11:22:47.820
236.0, -1547.3889168964527, -4689.910076845894, -1898.8030432227904, -10465.64554758615, -754.0584509442391, 289.8350703519667, -5415.335943142884, -1735.6800121879594, -3864.169581433485, -7006.601334405105, -4315.071322330395, -3254.436344437164, -3956.5940447561798, -2882.793889378773, -10287.278626832798, -15103.297245895536, 0.015796875000000002, -0.1094375, 0.989078125, 192.0, 0.0, 0.0, 0.0, 0.0, 0.0, 0.0, 0.0, 0.0, 0.0, 1.645921367828326E9, 0.0, 2022-02-27 11:22:47.828
238.0, -2183.474860605581, -5160.660166819116, -2306.923545232242, -10910.78053841359, -1298.1893179642343, -108.58477456388171, -5570.099421751431, -1930.4978168604157, -3378.28736046402, -7401.824879863844, -4718.497958004232, -3399.096834551911, -4386.462794120645, -3247.26143446701, -10381.379470989641, -15284.033451561148, 0.015796875000000002, -0.1094375, 0.989078125, 192.0, 0.0, 0.0, 0.0, 0.0, 0.0, 0.0, 0.0, 0.0, 0.0, 1.64592136783454E9, 0.0, 2022-02-27 11:22:47.834
240.0, -1489.4978987572074, -4637.070552953548, -1812.7041235809475, -10371.209427262476, -679.7389006303431, 374.0340917151084, -5259.164304633654, -1534.7154777902936, -2279.2297338521166, -6554.269081863056, -4381.143078940282, -3167.622168972751, -4093.2749621003823, -2883.509145201343, -10046.684449515873, -14451.833302001156, 0.015796875000000002, -0.1094375, 0.989078125, 192.0, 0.0, 0.0, 0.0, 0.0, 0.0, 0.0, 0.0, 0.0, 0.0, 1.645921367841817E9, 0.0, 2022-02-27 11:22:47.841
