%OpenBCI Raw EEG Data
%Number of channels = 16
%Sample Rate = 125 Hz
%Board = OpenBCI_GUI$BoardCytonSerialDaisy
Sample Index, EXG Channel 0, EXG Channel 1, EXG Channel 2, EXG Channel 3, EXG Channel 4, EXG Channel 5, EXG Channel 6, EXG Channel 7, EXG Channel 8, EXG Channel 9, EXG Channel 10, EXG Channel 11, EXG Channel 12, EXG Channel 13, EXG Channel 14, EXG Channel 15, Accel Channel 0, Accel Channel 1, Accel Channel 2, Other, Other, Other, Other, Other, Other, Other, Analog Channel 0, Analog Channel 1, Analog Channel 2, Timestamp, Other, Timestamp (Formatted)
124.0, -305.6824571707794, -3740.3856206399946, -1411.7138280527388, -9718.538489167511, 69.24570432254129, 204.764330955068, -5345.2408725310415, -1351.7888011680604, -3266.618045165306, -5389.296160852452, -3494.114100231421, -2827.562728829709, -2834.7823422887736, -1999.9223351385995, -9409.212697650517, -15058.303184307002, 0.0, 0.0, 0.0, 192.0, 0.0, 0.0, 0.0, 0.0, 0.0, 0.0, 0.0, 0.0, 0.0, 1.64592200449739E9, 0.0, 2022-02-27 11:33:24.497
126.0, -895.343827646235, -4169.360300226248, -1803.9198880100118, -10162.555892772185, -450.7005751968116, -86.03186440847688, -5454.607958150859, -1471.9070758708806, -2605.6546098774206, -5723.678257903845, -3895.976113793387, -2964.0648322182697, -3278.531524959985, -2380.527839723568, -9507.135690109217, -15176.700374686763, 0.003, -0.046, 0.498, 192.0, 0.0, 24.0, 126.5, 16.0, 15.5, 16.0, 0.0, 0.0, 0.0, 1.645922004497393E9, 0.0, 2022-02-27 11:33:24.497
0.0, -403.6054496294796, -2118.833615640833, -902.0717027272824, -4970.245655804355, -144.36991743682833, 30.35366897030699, -2668.977101919306, -686.1985547779268, -1135.982708452071, -2506.7704924071422, -1734.5400732207386, -1376.7780514690937, -1425.8401305484929, -978.7381862089857, -4614.919974198338, -7293.933009378077, 0.012, -0.10200000000000001, 0.984, 192.0, 0.0, 48.0, 126.0, 104.0, 15.0, 96.0, 0.0, 0.0, 0.0, 1.645922004582857E9, 0.0, 2022-02-27 11:33:24.582
2.0, -341.95933842174276, -3895.685541115468, -1495.7116837157828, -9591.669987639189, 132.2999754309625, 300.27333501259506, -5222.283926282397, -1263.968797203159, -1783.982131955878, -4885.018454196269, -3599.2343544047303, -2780.981693384849, -2850.830894807684, -2023.9281086835992, -9285.786364768312, -14523.090663324674, 0.012, -0.10200000000000001, 0.984, 192.0, 0.0, 0.0, 0.0, 0.0, 0.0, 0.0, 0.0, 0.0, 0.0, 1.645922004589295E9, 0.0, 2022-02-27 11:33:24.589
4.0, -974.401947784656, -4386.328683653914, -1999.1847275715743, -10134.973840114337, -459.2165898342836, -121.41467588122796, -5597.994398831654, -1687.3555406755854, -3731.5790333246036, -5865.075393328118, -3814.973391887354, -3024.6827631810625, -2979.1969632145124, -2293.2219258811388, -9705.797994827986, -15594.834458212194, 0.012, -0.10200000000000001, 0.984, 192.0, 0.0, 0.0, 0.0, 0.0, 0.0, 0.0, 0.0, 0.0, 0.0, 1.645922004596183E9, 0.0, 2022-02-27 11:33:24.596
6.0, -632.6661268074664, -4109.792901252854, -1685.0756627411442, -9798.758900017609, -127.29318467297372, 176.10939456336433, -5279.593799065805, -1276.843402009416, -1079.7457194025183, -4912.444044642931, -3794.9685805998542, -2814.6210687900866, -3082.171449920112, -2168.454488331615, -9268.106134904163, -14400.647807198502, 0.013000000000000001, -0.101, 0.987, 192.0, 0.0, 56.0, 126.0, 112.0, 15.0, 120.0, 0.0, 0.0, 0.0, 1.645922004604207E9, 0.0, 2022-02-27 11:33:24.604
8.0, -511.653782326434, -4035.5180544278687, -1668.0436334662002, -9762.638480977832, -45.977538344566625, 145.06282151494284, -5437.531225387004, -1482.6582649538834, -3283.0242255955013, -5397.54395455646, -3598.049711948599, -2896.0931773296807, -2771.16927756897, -2050.3925741186827, -9520.412626315669, -15171.894749628873, 0.013000000000000001, -0.101, 0.987, 192.0, 0.0, 0.0, 0.0, 0.0, 0.0, 0.0, 0.0, 0.0, 0.0, 1.64592200461223E9, 0.0, 2022-02-27 11:33:24.612
10.0, -981.7780234549074, -4379.220828917126, -1960.0468230303316, -10100.127470508512, -455.5062002547026, -63.09897459733184, -5513.013066412576, -1531.765047522193, -2227.9101285827314, -5539.164607425286, -3964.394803571082, -2984.0696435057694, -3206.335390369343, -2376.2810082770598, -9552.107399953295, -15083.828876474963, 0.013000000000000001, -0.101, 0.987, 192.0, 0.0, 0.0, 0.0, 0.0, 0.0, 0.0, 0.0, 0.0, 0.0, 1.645922004619308E9, 0.0, 2022-02-27 11:33:24.619
12.0, -351.0341466705974, -3905.5426604202585, -1502.3054483300982, -9596.90029584173, 119.71594330262462, 297.7028844002348, -5236.052600866867, -1244.6792417382292, -1749.0910588611437, -4885.554896063197, -3599.4578718492835, -2789.251838833313, -2852.3284616861897, -2009.3994747876495, -9289.094422947695, -14508.271456750806, 0.013000000000000001, -0.101, 0.987, 192.0, 0.0, 0.0, 0.0, 0.0, 0.0, 0.0, 0.0, 0.0, 0.0, 1.645922004626813E9, 0.0, 2022-02-27 11:33:24.626
14.0, -969.9092471491393, -4385.322855153425, -1995.6978554365464, -10137.991325615803, -463.26225558069416, -140.61482436833674, -5593.367587729405, -1700.7218838598592, -3745.9288532649107, -5863.175495049417, -3812.8052726751894, -3035.433952264065, -2975.955960268493, -2288.7739287345325, -9706.87087856184, -15595.37090007912, 0.013000000000000001, -0.101, 0.987, 192.0, 0.0, 0.0, 0.0, 0.0, 0.0, 0.0, 0.0, 0.0, 0.0, 1.645922004634848E9, 0.0, 2022-02-27 11:33:24.634
16.0, -645.004289746796, -4120.231165913483, -1692.4070349224849, -9815.835632781462, -147.72267910512437, 152.68476637420255, -5292.8260317833465, -1298.1222627308682, -1086.138318316736, -4919.529547635263, -3800.0200748467537, -2823.539414827754, -3089.3240081458102, -2183.743081539045, -9276.197466396985, -14423.066606887176, 0.015500000000000002, -0.10450000000000001, 0.9884999999999999, 192.0, 0.0, 72.0, 126.0, 80.0, 15.0, 120.0, 0.0, 0.0, 0.0, 1.645922004648976E9, 0.0, 2022-02-27 11:33:24.648
18.0, -509.4856631142692, -4039.7201823854666, -1659.7511362732812, -9768.181713602748, -44.994061588533114, 141.1289144908088, -5433.060876495943, -1483.6193899654616, -3250.971824046591, -5385.406957317228, -3594.831060747035, -2894.1038720731585, -2777.807745672196, -2062.1495917021743, -9520.345571082304, -15166.262110026135, 0.015500000000000002, -0.10450000000000001, 0.9884999999999999, 192.0, 0.0, 0.0, 0.0, 0.0, 0.0, 0.0, 0.0, 0.0, 0.0, 1.645922004656376E9, 0.0, 2022-02-27 11:33:24.656
20.0, -990.5622590258431, -4393.525945368522, -1967.2217330004853, -10115.773691627228, -457.5625607445909, -69.06689036689882, -5489.61078996787, -1530.6251085549723, -2265.461059267647, -5563.751526326123, -3969.2451321178837, -2990.7081116089958, -3215.8795852517587, -2387.1886595712494, -9557.382411644747, -15107.61113257541, 0.015500000000000002, -0.10450000000000001, 0.9884999999999999, 192.0, 0.0, 0.0, 0.0, 0.0, 0.0, 0.0, 0.0, 0.0, 0.0, 1.645922004664566E9, 0.0, 2022-02-27 11:33:24.664
22.0, -352.28584436009464, -3913.4328262129816, -1512.766064735182, -9605.684531412666, 128.09784747336477, 303.2461170251509, -5229.212967063542, -1241.7288114701284, -1722.3136690036856, -4884.593771051618, -3608.2197556757637, -2800.226545360869, -2863.1914094914687, -2017.6919719805685, -9281.226608899427, -14506.192744516462, 0.015500000000000002, -0.10450000000000001, 0.9884999999999999, 192.0, 0.0, 0.0, 0.0, 0.0, 0.0, 0.0, 0.0, 0.0, 0.0, 1.645922004672436E9, 0.0, 2022-02-27 11:33:24.672
24.0, -962.3767092677009, -4383.2888464079915, -2001.6434194616581, -10139.220671560844, -444.5538454716022, -119.09009445787603, -5605.750454157645, -1697.1679564914652, -3752.388507412494, -5853.072506555618, -3811.665333707969, -3043.055897123325, -2973.9443032675154, -2285.242353110594, -9709.575439640932, -15601.115298404135, 0.015500000000000002, -0.10450000000000001, 0.9884999999999999, 192.0, 0.0, 0.0, 0.0, 0.0, 0.0, 0.0, 0.0, 0.0, 0.0, 1.645922004679026E9, 0.0, 2022-02-27 11:33:24.679
26.0, -640.93627225593, -4119.828834513287, -1698.6655233699707, -9821.691789828754, -126.93555676168882, 167.70513864816888, -5305.611229611782, -1292.0202364945694, -1080.4162717361776, -4925.095132004635, -3807.4408540059158, -2837.665717323508, -3095.5154413599303, -2189.0404449749526, -9276.420983841537, -14419.691493474424, 0.01675, -0.10625000000000001, 0.99025, 192.0, 0.0, 72.0, 126.0, 80.0, 15.5, 0.0, 0.0, 0.0, 0.0, 1.645922004687034E9, 0.0, 2022-02-27 11:33:24.687
28.0, -494.1076629290179, -4032.075885781752, -1657.694775783393, -9761.565597243976, -15.668572863170251, 150.51664716203777, -5418.7334083000915, -1475.505706728185, -3229.134169713756, -5396.225201633597, -3592.3947206014063, -2900.250601798368, -2771.21398105788, -2054.997033476476, -9512.12012912275, -15156.76261863263, 0.01675, -0.10625000000000001, 0.99025, 192.0, 0.0, 0.0, 0.0, 0.0, 0.0, 0.0, 0.0, 0.0, 0.0, 1.645922004695051E9, 0.0, 2022-02-27 11:33:24.695
30.0, -994.0044276719603, -4395.694064580687, -1977.2353145164627, -10126.837805132605, -447.2137030617837, -71.01149213451053, -5465.828533867423, -1523.7184195182824, -2315.573670336446, -5582.638750390858, -3969.848629218177, -3002.9121640815933, -3208.190585159133, -2388.7309299386657, -9550.609833074788, -15120.351626914935, 0.01675, -0.10625000000000001, 0.99025, 192.0, 0.0, 0.0, 0.0, 0.0, 0.0, 0.0, 0.0, 0.0, 0.0, 1.645922004701236E9, 0.0, 2022-02-27 11:33:24.701
32.0, -349.80480072555554, -3904.6932941309565, -1508.407474566397, -9604.052854067428, 135.58568186589264, 302.2849920135727, -5204.000199317957, -1231.5364159985086, -1680.8511830390912, -4881.241009383322, -3613.9418022563223, -2795.7114929808968, -2869.561656661231, -2024.1069226392417, -9264.26163485785, -14486.43380241797, 0.01675, -0.10625000000000001, 0.99025, 192.0, 0.0, 0.0, 0.0, 0.0, 0.0, 0.0, 0.0, 0.0, 0.0, 1.64592200470866E9, 0.0, 2022-02-27 11:33:24.708
34.0, -935.5769676657877, -4354.455096060646, -1988.9476286110437, -10125.653162676474, -428.54999644160233, -117.23489966808555, -5595.960390086221, -1716.5692706786717, -3754.534274880204, -5842.611890150534, -3801.539993469715, -3027.0073446044144, -2962.276692661845, -2274.9381989166977, -9694.733881322609, -15600.064766414735, 0.01675, -0.10625000000000001, 0.99025, 192.0, 0.0, 0.0, 0.0, 0.0, 0.0, 0.0, 0.0, 0.0, 0.0, 1.645922004716823E9, 0.0, 2022-02-27 11:33:24.716
36.0, -663.7797550892539, -4140.615956856723, -1706.7345031183368, -9826.966801520206, -140.8159900684345, 156.6186733983366, -5289.3615113927735, -1279.1456316883125, -1081.0421205809262, -4939.4002484560315, -3806.457377249882, -2833.128313199081, -3091.045092468869, -2182.737253038556, -9269.670757016034, -14428.766301723279, 0.016375, -0.108125, 0.989125, 192.0, 0.0, 64.0, 126.0, 72.0, 15.0, 112.0, 0.0, 0.0, 0.0, 1.645922004724708E9, 0.0, 2022-02-27 11:33:24.724
38.0, -503.49539560024687, -4042.9835370759415, -1654.9902147043008, -9761.78911468853, -14.327468195851827, 162.2960164899846, -5414.307762897941, -1460.999424576691, -3213.2197276615775, -5389.229105619086, -3602.2965433951076, -2912.6781717155186, -2777.8748009055616, -2039.7978472468671, -9500.787794683909, -15134.5226328996, 0.016375, -0.108125, 0.989125, 192.0, 0.0, 0.0, 0.0, 0.0, 0.0, 0.0, 0.0, 0.0, 0.0, 1.645922004731395E9, 0.0, 2022-02-27 11:33:24.731
40.0, -1010.6788290356194, -4414.313067711958, -1977.257666260918, -10129.162386555958, -449.4712292517697, -74.05132938043229, -5467.817839123945, -1530.5804050660618, -2320.0887227164176, -5586.796174859545, -3983.527896824825, -3023.922803869582, -3220.0593614649015, -2385.981665370663, -9554.141408698728, -15117.244734435646, 0.016375, -0.108125, 0.989125, 192.0, 0.0, 0.0, 0.0, 0.0, 0.0, 0.0, 0.0, 0.0, 0.0, 1.64592200473935E9, 0.0, 2022-02-27 11:33:24.739
42.0, -365.1380974218962, -3927.223852541906, -1511.2014426233104, -9609.104348314328, 134.08811498738706, 302.01677108010904, -5213.0303040779, -1224.1156368393465, -1712.8365293546356, -4899.167108436479, -3620.379104659451, -2818.1079409251142, -2868.667586883019, -2025.962117429032, -9268.8884459601, -14487.082003007175, 0.016375, -0.108125, 0.989125, 192.0, 0.0, 0.0, 0.0, 0.0, 0.0, 0.0, 0.0, 0.0, 0.0, 1.645922004747386E9, 0.0, 2022-02-27 11:33:24.747
44.0, -961.6167499562205, -4392.609523845855, -1993.3062187798284, -10134.459749991865, -432.2156825322727, -122.44285612617209, -5592.451166206738, -1688.7189970873592, -3781.021092059743, -5870.909198630953, -3810.726560440846, -3052.3989263056433, -2970.1668584545682, -2280.0343966525074, -9703.115785493348, -15593.426298311508, 0.016375, -0.108125, 0.989125, 192.0, 0.0, 0.0, 0.0, 0.0, 0.0, 0.0, 0.0, 0.0, 0.0, 1.64592200475462E9, 0.0, 2022-02-27 11:33:24.754
46.0, -662.6398161220332, -4141.5100266349355, -1706.8909653295239, -9830.408970166323, -141.4418389131831, 155.0764030309204, -5276.9786449645335, -1287.4381288812315, -1092.6203242087752, -4951.760763139816, -3819.9578309008875, -2844.818275549206, -3111.47458690102, -2194.762491555511, -9276.532742563813, -14423.893621432022, 0.0171875, -0.1070625, 0.9885625, 192.0, 0.0, 72.0, 126.0, 88.0, 15.0, 112.0, 0.0, 0.0, 0.0, 1.645922004768912E9, 0.0, 2022-02-27 11:33:24.768
48.0, -489.5702588045906, -4026.555004901291, -1647.7706012452365, -9754.390687273823, -6.146729725209442, 159.1891240106969, -5410.30680064044, -1468.4872589692186, -3204.6366577907397, -5380.131945625776, -3595.702778780792, -2906.4867385013986, -2777.8971526500172, -2052.7171555420346, -9499.826669672331, -15130.164042730814, 0.0171875, -0.1070625, 0.9885625, 192.0, 0.0, 0.0, 0.0, 0.0, 0.0, 0.0, 0.0, 0.0, 0.0, 1.645922004777013E9, 0.0, 2022-02-27 11:33:24.777
50.0, -1009.5388900683988, -4410.312105454458, -1987.8300413882782, -10135.443226747899, -456.80260143311045, -78.45462303812779, -5489.454327756683, -1547.4559721298185, -2370.357795996403, -5601.257753522129, -3974.4083850870593, -3020.5253387123753, -3207.520032825474, -2389.401482272325, -9566.747792571521, -15138.165967245814, 0.0171875, -0.1070625, 0.9885625, 192.0, 0.0, 0.0, 0.0, 0.0, 0.0, 0.0, 0.0, 0.0, 0.0, 1.645922004784066E9, 0.0, 2022-02-27 11:33:24.784
52.0, -368.49085909019226, -3928.4084949980374, -1511.8049397236039, -9613.217069294104, 133.1940452091748, 300.8544803684331, -5218.46177798054, -1229.1447793417906, -1646.6083105335606, -4893.467413600375, -3628.045753007621, -2821.08072293767, -2882.0786335562034, -2020.9553266710434, -9269.938977949498, -14463.344450395638, 0.0171875, -0.1070625, 0.9885625, 192.0, 0.0, 0.0, 0.0, 0.0, 0.0, 0.0, 0.0, 0.0, 0.0, 1.645922004791663E9, 0.0, 2022-02-27 11:33:24.791
54.0, -947.8480753717513, -4380.4725266066225, -1982.48797446346, -10123.775616142228, -410.69095262181196, -116.76551303452409, -5594.351064485439, -1696.0056657797893, -3807.686723194924, -5871.691509686889, -3807.1949848169074, -3056.109315885224, -2962.075526961747, -2272.0324721375077, -9707.563782639954, -15595.080327401201, 0.0171875, -0.1070625, 0.9885625, 192.0, 0.0, 0.0, 0.0, 0.0, 0.0, 0.0, 0.0, 0.0, 0.0, 1.645922004799664E9, 0.0, 2022-02-27 11:33:24.799
56.0, -696.256839782815, -4165.359337968747, -1733.0201545977777, -9856.851083856951, -155.50108617557123, 136.3679929218284, -5293.787156794925, -1297.6081726083962, -1128.4278188261771, -4989.199935102455, -3839.917938699477, -2868.309958971734, -3124.148026007179, -2207.346523683849, -9295.867001517654, -14451.363915367594, 0.017593750000000002, -0.10753125, 0.98828125, 192.0, 0.0, 72.0, 126.0, 80.0, 15.0, 112.0, 0.0, 0.0, 0.0, 1.645922004806792E9, 0.0, 2022-02-27 11:33:24.806
58.0, -476.9862266762527, -4019.4695019089586, -1634.4489615498737, -9747.93103312624, 8.247793704008306, 163.05597580146502, -5400.628495291293, -1452.9751483172356, -3137.581424424818, -5352.39343075674, -3591.120671167454, -2902.8434041551836, -2772.778603169752, -2034.3440215997723, -9491.78004166842, -15094.356548113412, 0.017593750000000002, -0.10753125, 0.98828125, 192.0, 0.0, 0.0, 0.0, 0.0, 0.0, 0.0, 0.0, 0.0, 0.0, 1.645922004814158E9, 0.0, 2022-02-27 11:33:24.814
60.0, -1009.8965179796837, -4410.401512432279, -1979.8951721066444, -10145.76973268625, -457.0261188776635, -93.09501565635392, -5494.259952814574, -1553.0662599881007, -2398.8562701769197, -5624.8835474113885, -3966.4958675498806, -3025.845053892738, -3202.3791316007537, -2403.3489708124366, -9576.694318854132, -15161.724705901708, 0.017593750000000002, -0.10753125, 0.98828125, 192.0, 0.0, 0.0, 0.0, 0.0, 0.0, 0.0, 0.0, 0.0, 0.0, 1.645922004821194E9, 0.0, 2022-02-27 11:33:24.821
62.0, -361.6735770313236, -3921.4794542168925, -1507.1110733879893, -9610.870136126297, 132.9258242757111, 297.4570152112264, -5217.902984369157, -1233.7045352106734, -1628.3916388024854, -4870.467468555864, -3625.0059157616993, -2820.32076362619, -2865.292473470268, -2026.9902976739763, -9267.54734129278, -14460.684592805457, 0.017593750000000002, -0.10753125, 0.98828125, 192.0, 0.0, 0.0, 0.0, 0.0, 0.0, 0.0, 0.0, 0.0, 0.0, 1.645922004829386E9, 0.0, 2022-02-27 11:33:24.829
64.0, -935.3534502212347, -4376.449212604668, -1976.5424104383483, -10116.757168383261, -406.7123421087673, -113.39039962177273, -5591.601799917436, -1691.5129651442726, -3793.3816067435273, -5849.116247787028, -3792.46518522086, -3036.819760420294, -2949.2679773888563, -2261.0130621210415, -9705.082739005416, -15594.007443667346, 0.017593750000000002, -0.10753125, 0.98828125, 192.0, 0.0, 0.0, 0.0, 0.0, 0.0, 0.0, 0.0, 0.0, 0.0, 1.6459220048364E9, 0.0, 2022-02-27 11:33:24.836
66.0, -682.3987582205247, -4158.9443873100745, -1721.687820158937, -9855.062944300525, -158.27270248802932, 138.46905690062727, -5292.513107360972, -1300.290381943033, -1095.3472370323227, -4986.115394367623, -3827.915051926977, -2849.5568453737314, -3112.5474706348746, -2194.5836775998687, -9289.630864814624, -14441.573851296169, 0.016796875000000003, -0.108765625, 0.988140625, 192.0, 0.0, 64.0, 126.0, 72.0, 15.0, 112.0, 0.0, 0.0, 0.0, 1.645922004843889E9, 0.0, 2022-02-27 11:33:24.843
68.0, -466.5703137600796, -4010.6852663380228, -1627.7657899577368, -9741.851358634396, 12.114645494776427, 174.6788829182247, -5406.059969193932, -1453.8915698399032, -3117.308392203855, -5337.574224182871, -3581.799993729591, -2894.930886618005, -2766.6542251889978, -2028.063181407831, -9490.617750956744, -15086.89106546534, 0.016796875000000003, -0.108765625, 0.988140625, 192.0, 0.0, 0.0, 0.0, 0.0, 0.0, 0.0, 0.0, 0.0, 0.0, 1.645922004851934E9, 0.0, 2022-02-27 11:33:24.851
70.0, -1003.5486225543765, -4405.864108307852, -1978.263494761407, -10139.466540749854, -465.02804339266345, -77.15822185971999, -5509.3026768329955, -1551.3004721761313, -2411.4850057941685, -5627.990439890676, -3967.2781786058163, -3027.3202690267885, -3200.009846688491, -2388.3509502829256, -9579.287121210948, -15160.920043101318, 0.016796875000000003, -0.108765625, 0.988140625, 192.0, 0.0, 0.0, 0.0, 0.0, 0.0, 0.0, 0.0, 0.0, 0.0, 1.645922004860006E9, 0.0, 2022-02-27 11:33:24.860
72.0, -354.27514961661694, -3928.229681042395, -1501.9254686743582, -9606.444490724147, 131.13768471928654, 302.888489113866, -5218.618240191727, -1238.9348434132153, -1596.0263128312008, -4866.354747576088, -3612.399531888906, -2793.6551324910083, -2868.153496760547, -2018.7648557144232, -9263.658137757557, -14450.492197333837, 0.016796875000000003, -0.108765625, 0.988140625, 192.0, 0.0, 0.0, 0.0, 0.0, 0.0, 0.0, 0.0, 0.0, 0.0, 1.645922004866526E9, 0.0, 2022-02-27 11:33:24.866
74.0, -930.212548996514, -4372.3141398804355, -1973.6590354036136, -10122.613325430551, -417.19531025830634, -116.43023686769449, -5591.601799917436, -1695.692741357415, -3809.1619383289744, -5853.430134466903, -3784.530315939226, -3041.468923266998, -2937.7344772499177, -2243.8692741238206, -9704.591000627399, -15593.13572563359, 0.016796875000000003, -0.108765625, 0.988140625, 192.0, 0.0, 0.0, 0.0, 0.0, 0.0, 0.0, 0.0, 0.0, 0.0, 1.645922004874394E9, 0.0, 2022-02-27 11:33:24.874
76.0, -677.1908017624381, -4160.240788488482, -1716.8821951010461, -9849.318545975513, -158.67503388822485, 134.8033708099569, -5292.200182938598, -1317.680039129262, -1093.492042242532, -4993.804394460249, -3823.712923969379, -2851.4567436524326, -3111.586345623296, -2202.049160247941, -9291.441356115503, -14448.458188588404, 0.014, -0.10200000000000001, 0.984, 192.0, 0.0, 56.0, 126.0, 104.0, 15.0, 96.0, 0.0, 0.0, 0.0, 1.64592200488253E9, 0.0, 2022-02-27 11:33:24.882
78.0, -451.818162419577, -4002.2363069339167, -1622.8707579220245, -9724.796977614997, 17.859043819790344, 182.39023475530564, -5400.717902269113, -1440.927558055825, -3099.337589661788, -5337.82009337188, -3576.6143890159597, -2884.894953357572, -2759.769887896763, -2024.5316057838925, -9486.97441661053, -15081.526646796066, 0.014, -0.10200000000000001, 0.984, 192.0, 0.0, 0.0, 0.0, 0.0, 0.0, 0.0, 0.0, 0.0, 0.0, 1.645922004896257E9, 0.0, 2022-02-27 11:33:24.896
80.0, -1001.7381312534966, -4401.01377976105, -1982.3091605078175, -10137.074904093135, -464.9386364148422, -87.79765222044614, -5502.798319196501, -1565.8961613054469, -2445.6384713218777, -5607.024503591598, -3968.1722483840285, -3008.9694868289816, -3194.846593719315, -2383.366511269392, -9584.226856735571, -15172.498246729167, 0.014, -0.10200000000000001, 0.984, 192.0, 0.0, 0.0, 0.0, 0.0, 0.0, 0.0, 0.0, 0.0, 0.0, 1.645922004904193E9, 0.0, 2022-02-27 11:33:24.904
82.0, -349.49187630318124, -3914.975096580398, -1504.473567542263, -9607.629133180277, 121.66054507023634, 303.40257923633806, -5220.987525103989, -1230.6646979647517, -1585.2974754926533, -4843.95829963187, -3609.449101620806, -2790.347074311623, -2869.3828427055887, -2008.2371840759736, -9262.920530190531, -14443.741970508334, 0.014, -0.10200000000000001, 0.984, 192.0, 0.0, 0.0, 0.0, 0.0, 0.0, 0.0, 0.0, 0.0, 0.0, 1.645922004912262E9, 0.0, 2022-02-27 11:33:24.912
84.0, -917.6955721015421, -4358.321947851414, -1970.2392185019517, -10116.354836983066, -409.7968828435997, -100.89577447125608, -5583.4434131912485, -1697.1679564914652, -3813.4758250088485, -5840.510826171735, -3775.2766937347287, -3036.0598011088136, -2936.4604278159654, -2239.10835255484, -9704.278076205024, -15589.09005988718, 0.014, -0.10200000000000001, 0.984, 192.0, 0.0, 0.0, 0.0, 0.0, 0.0, 0.0, 0.0, 0.0, 0.0, 1.645922004919214E9, 0.0, 2022-02-27 11:33:24.919
86.0, -679.8283076081643, -4166.655739147155, -1717.0610090566886, -9854.48179894469, -159.25617924406282, 136.56915862192616, -5279.079708943333, -1316.9647833066922, -1106.7913301934398, -4960.544998710751, -3824.5175867697703, -2843.119542970603, -3116.9284125481145, -2208.218241717606, -9286.613379313158, -14452.14622642353, 0.016, -0.10400000000000001, 0.99, 192.0, 0.0, 64.0, 126.0, 96.0, 15.0, 120.0, 0.0, 0.0, 0.0, 1.645922004926742E9, 0.0, 2022-02-27 11:33:24.926
88.0, -439.0776680800519, -4009.4335686485256, -1611.6725339499158, -9724.148777025794, 22.50820666649421, 185.20655455667432, -5401.030826691488, -1451.9246163278362, -3084.6077900657406, -5346.045535331433, -3571.473487791239, -2872.668549140519, -2766.587169955632, -2028.2419953634735, -9482.101736319273, -15074.150571125814, 0.016, -0.10400000000000001, 0.99, 192.0, 0.0, 0.0, 0.0, 0.0, 0.0, 0.0, 0.0, 0.0, 0.0, 1.645922004934844E9, 0.0, 2022-02-27 11:33:24.934
90.0, -1005.8508522332731, -4419.342210214402, -1977.615294172203, -10137.231366304322, -467.9561219163087, -82.9249719291892, -5492.762385936068, -1557.827181557081, -2472.7287856017097, -5640.149788874363, -3959.3656610686376, -2991.5127744093866, -3195.651256519706, -2379.9243426232747, -9585.99264454754, -15186.781011436107, 0.016, -0.10400000000000001, 0.99, 192.0, 0.0, 0.0, 0.0, 0.0, 0.0, 0.0, 0.0, 0.0, 0.0, 1.645922004941896E9, 0.0, 2022-02-27 11:33:24.941
92.0, -357.40439384035994, -3911.8011488677444, -1499.6902942288273, -9610.668970426199, 129.1483794627642, 309.23638453917323, -5225.346115272774, -1220.8522821488718, -1572.5569811531284, -4847.668689211451, -3616.914584268878, -2786.0108358872935, -2880.0669765552257, -2008.259535820429, -9255.231530097906, -14431.895545947022, 0.016, -0.10400000000000001, 0.99, 192.0, 0.0, 0.0, 0.0, 0.0, 0.0, 0.0, 0.0, 0.0, 0.0, 1.645922004948367E9, 0.0, 2022-02-27 11:33:24.948
94.0, -902.0269992383718, -4352.532846037489, -1950.7261455924686, -10102.988493798792, -390.8873070344099, -96.93951570266672, -5581.521163168092, -1693.6140291230715, -3827.7138862268794, -5827.032724265186, -3769.7334611098127, -3032.349411529233, -2926.2009771109792, -2237.119047298318, -9700.970018025639, -15581.51281851683, 0.016, -0.10400000000000001, 0.99, 192.0, 0.0, 0.0, 0.0, 0.0, 0.0, 0.0, 0.0, 0.0, 0.0, 1.645922004956497E9, 0.0, 2022-02-27 11:33:24.956
96.0, -701.6659619409993, -4181.676111421122, -1731.142608063532, -9871.133848563892, -182.16671731075257, 123.02400148201008, -5296.737587063025, -1321.1669112642899, -1138.977842209082, -4999.74995848536, -3834.33000258565, -2857.514066399821, -3120.6388021276957, -2211.503948152536, -9296.112870706662, -14473.402735400527, 0.012, -0.106, 0.988, 192.0, 0.0, 48.0, 126.0, 88.0, 15.0, 112.0, 0.0, 0.0, 0.0, 1.645922004964451E9, 0.0, 2022-02-27 11:33:24.964
98.0, -443.7491826712111, -4012.808682061277, -1603.0894640790777, -9719.92429732374, 34.13111378325389, 190.70508369267986, -5360.685927949658, -1434.937290541803, -3029.2201673054897, -5301.051473742899, -3567.8748569339346, -2867.6841101269856, -2762.0497658312042, -2025.805655217845, -9466.20964601155, -15036.420826485257, 0.012, -0.106, 0.988, 192.0, 0.0, 0.0, 0.0, 0.0, 0.0, 0.0, 0.0, 0.0, 0.0, 1.645922004971549E9, 0.0, 2022-02-27 11:33:24.971
100.0, -1010.1870906576027, -4421.331515470924, -1977.481183705471, -10142.908709395972, -464.06691838108526, -90.70337899963606, -5514.644743757814, -1607.246888547765, -2501.2496115266817, -5647.92819594481, -3957.465762789937, -3015.0268095763695, -3191.6726460066616, -2386.7416246821435, -9585.120926513782, -15198.895656930883, 0.012, -0.106, 0.988, 192.0, 0.0, 0.0, 0.0, 0.0, 0.0, 0.0, 0.0, 0.0, 0.0, 1.645922004979178E9, 0.0, 2022-02-27 11:33:24.979
102.0, -375.19638242678434, -3941.037230615286, -1504.4512157978077, -9609.75254890353, 116.43023686769449, 311.94094561826535, -5247.787266705903, -1211.5092529665535, -1540.437524370852, -4832.603613448574, -3614.9699825012667, -2783.2392195748353, -2875.3060549862453, -2007.8795561646887, -9256.572634765225, -14425.61470575508, 0.012, -0.106, 0.988, 192.0, 0.0, 0.0, 0.0, 0.0, 0.0, 0.0, 0.0, 0.0, 0.0, 1.645922004987131E9, 0.0, 2022-02-27 11:33:24.987
104.0, -942.438953213567, -4387.15569819876, -1962.0137765423985, -10101.960313553847, -399.89506004989863, -92.58092553388185, -5583.197544002241, -1688.629590109538, -3832.0277729067534, -5845.271747740716, -3773.8014786006784, -3014.020981075881, -2924.591651510197, -2240.695326411167, -9696.454965645667, -15574.94140564697, 0.012, -0.106, 0.988, 192.0, 0.0, 0.0, 0.0, 0.0, 0.0, 0.0, 0.0, 0.0, 0.0, 1.645922004995063E9, 0.0, 2022-02-27 11:33:24.995
106.0, -738.3004711032476, -4220.724608984543, -1723.0736283151662, -9868.742211907174, -167.14634503678622, 139.63134761230322, -5253.151685375176, -1319.1999577522229, -1140.2965951319452, -5009.316505112231, -3849.730354515357, -2863.7725548473068, -3122.873976573226, -2205.4913288940584, -9288.155649680573, -14458.069438704186, 0.014, -0.1, 0.986, 192.0, 0.0, 56.0, 126.0, 112.0, 15.0, 104.0, 0.0, 0.0, 0.0, 1.64592200500163E9, 0.0, 2022-02-27 11:33:25.001
108.0, -512.1455207044507, -4082.7472904619326, -1607.470405992318, -9725.869861348852, 33.52761668296059, 196.76240644006808, -5365.178628585176, -1413.904299009359, -3060.378499076188, -5333.0368200584435, -3595.076929936043, -2895.824956396217, -2767.8835711340394, -2033.2264343770069, -9459.481770930503, -15036.465529974168, 0.014, -0.1, 0.986, 192.0, 0.0, 0.0, 0.0, 0.0, 0.0, 0.0, 0.0, 0.0, 0.0, 1.645922005016779E9, 0.0, 2022-02-27 11:33:25.016
110.0, -1111.9545831626158, -4526.518824877599, -1990.2663815339067, -10160.611291004574, -482.0377209231521, -95.46430056861647, -5513.080121645942, -1570.5453241521507, -2567.1872576698374, -5682.193420194795, -3989.2499434053834, -3043.0335453788693, -3195.5394977974297, -2394.765900941599, -9589.99360680504, -15206.58465702351, 0.014, -0.1, 0.986, 192.0, 0.0, 0.0, 0.0, 0.0, 0.0, 0.0, 0.0, 0.0, 0.0, 1.645922005023945E9, 0.0, 2022-02-27 11:33:25.023
112.0, -507.29519215764907, -4072.0184531233854, -1513.8165967245814, -9632.774845692498, 115.62557406730343, 301.4803292131817, -5194.232486990987, -1216.650154191274, -1575.1721352543993, -4896.864878757582, -3660.522837701182, -2831.9213189984944, -2894.930886618005, -2030.2983558533617, -9247.967213149932, -14421.725502219857, 0.014, -0.1, 0.986, 192.0, 0.0, 0.0, 0.0, 0.0, 0.0, 0.0, 0.0, 0.0, 0.0, 1.645922005031415E9, 0.0, 2022-02-27 11:33:25.031
114.0, -1083.076129326359, -4525.960031266217, -1955.9564537950105, -10112.555040425665, -385.6793505763234, -94.41376857921703, -5576.268503221096, -1704.0522937837, -3894.880878315077, -5877.301797545171, -3815.4427785209155, -3075.689444028073, -2927.8773579451276, -2243.7798671459996, -9686.553142851966, -15574.136742846578, 0.014, -0.1, 0.986, 192.0, 0.0, 0.0, 0.0, 0.0, 0.0, 0.0, 0.0, 0.0, 0.0, 1.645922005039377E9, 0.0, 2022-02-27 11:33:25.039
116.0, -947.4010404826452, -4424.080780038927, -1748.465210016395, -9895.921933164827, -183.06078708896484, 123.20281543765253, -5300.33621792033, -1330.1076090464128, -1222.8192356609388, -5086.430023483041, -3906.459081942926, -2919.5401572632977, -3141.6270901712287, -2232.291070495972, -9296.135222451117, -14477.224883702385, 0.012, -0.098, 0.99, 192.0, 0.0, 48.0, 126.0, 120.0, 15.0, 120.0, 0.0, 0.0, 0.0, 1.645922005047429E9, 0.0, 2022-02-27 11:33:25.047
118.0, -704.124653831083, -4258.432001880647, -1612.0748653501112, -9732.463625963168, 43.18357028765325, 196.38242678432786, -5351.722878423081, -1426.4883311376968, -3092.6767698141066, -5374.342843811852, -3651.537436430149, -2948.3292041217333, -2783.4627370193884, -2037.6967832680684, -9455.01142203944, -15017.06421578696, 0.012, -0.098, 0.99, 192.0, 0.0, 0.0, 0.0, 0.0, 0.0, 0.0, 0.0, 0.0, 0.0, 1.645922005053949E9, 0.0, 2022-02-27 11:33:25.053
120.0, -1325.4807979441641, -4720.800187683129, -2015.9708876575098, -10180.079660425146, -479.6237325219789, -94.0337889234768, -5484.380481765328, -1561.3364054365643, -2692.4911370862887, -5755.462438519292, -4054.204112792506, -3098.443519883576, -3213.5326520839517, -2407.506395281124, -9592.653464395222, -15217.067625173047, 0.012, -0.098, 0.99, 192.0, 0.0, 0.0, 0.0, 0.0, 0.0, 0.0, 0.0, 0.0, 0.0, 1.645922005062022E9, 0.0, 2022-02-27 11:33:25.062
122.0, -679.6494936525219, -4234.761504502476, -1533.4190766118857, -9652.91376744673, 120.20768168064139, 309.8398816394665, -5194.746577113459, -1206.815386630939, -1636.7735429732256, -4951.447838717441, -3727.2204431558184, -2883.0174068233264, -2913.1699100935352, -2042.0777251813086, -9241.820483424723, -14407.196868323908, 0.012, -0.098, 0.99, 192.0, 0.0, 0.0, 0.0, 0.0, 0.0, 0.0, 0.0, 0.0, 0.0, 1.645922005069097E9, 0.0, 2022-02-27 11:33:25.069
124.0, -1202.233279017601, -4639.10456169898, -1966.6182359001918, -10121.585145185607, -373.60940857045756, -94.52552730149357, -5591.355930728428, -1690.4624331548732, -3953.3083383212497, -5925.179234168439, -3857.5758168191696, -3111.273421200922, -2933.2864801033115, -2253.346413772871, -9683.379195139312, -15571.119257345112, 0.012, -0.098, 0.99, 192.0, 0.0, 0.0, 0.0, 0.0, 0.0, 0.0, 0.0, 0.0, 0.0, 1.645922005077171E9, 0.0, 2022-02-27 11:33:25.077
126.0, -1000.3970265861782, -4456.669623454764, -1754.3884222970514, -9901.62162800093, -176.0423393299984, 134.69161208768037, -5285.159383435176, -1324.2738037435774, -1258.1796953892347, -5096.845936399214, -3934.2199485564174, -2935.5216545488424, -3145.33747975081, -2220.2658319790166, -9290.927265993032, -14473.492142378349, 0.006, -0.10400000000000001, 0.994, 192.0, 0.0, 24.0, 126.0, 96.0, 15.5, 8.0, 0.0, 0.0, 0.0, 1.645922005083605E9, 0.0, 2022-02-27 11:33:25.083
128.0, -700.6377816960552, -4258.230836180548, -1603.3576850125414, -9727.099207293893, 56.95224487212239, 212.38627581432772, -5343.922119608178, -1421.5932991019845, -3088.072310456313, -5365.558608240915, -3659.405250478417, -2955.3029483917894, -2780.1546788400033, -2025.157454628641, -9444.43904691208, -15005.463660414656, 0.006, -0.10400000000000001, 0.994, 192.0, 0.0, 0.0, 0.0, 0.0, 0.0, 0.0, 0.0, 0.0, 0.0, 1.645922005091771E9, 0.0, 2022-02-27 11:33:25.091
130.0, -1291.3496841609103, -4690.558277435098, -2015.099169623753, -10183.700643026907, -478.34968308802644, -107.53424257448228, -5479.1948770516965, -1573.4957544202514, -2744.7271638783413, -5773.14266838344, -4047.006851077897, -3116.101398003268, -3202.3120763673874, -2406.3888080583583, -9585.94794105863, -15240.11227370647, 0.006, -0.10400000000000001, 0.994, 192.0, 0.0, 0.0, 0.0, 0.0, 0.0, 0.0, 0.0, 0.0, 0.0, 1.645922005099583E9, 0.0, 2022-02-27 11:33:25.099
132.0, -624.8430162481089, -4176.334044496303, -1531.3627161219974, -9645.783560965487, 108.49536758606048, 294.7301023876789, -5217.523004713417, -1215.845491390883, -1586.3256557375976, -4928.224376228378, -3719.442036085372, -2872.6461973960636, -2921.4847590309096, -2052.583045075303, -9232.879785642599, -14400.781917665234, 0.006, -0.10400000000000001, 0.994, 192.0, 0.0, 0.0, 0.0, 0.0, 0.0, 0.0, 0.0, 0.0, 0.0, 1.64592200510678E9, 0.0, 2022-02-27 11:33:25.106
134.0, -1095.2801817989566, -4542.723839607696, -1947.8204188132786, -10101.222705986824, -370.45781260225925, -88.9375911876668, -5568.758317084113, -1684.0698342406554, -3933.5940997116686, -5899.385321067014, -3824.361124558583, -3078.1481359181566, -2925.932756177516, -2238.2366345210835, -9673.164447923238, -15562.491483985363, 0.006, -0.10400000000000001, 0.994, 192.0, 0.0, 0.0, 0.0, 0.0, 0.0, 0.0, 0.0, 0.0, 0.0, 1.645922005114378E9, 0.0, 2022-02-27 11:33:25.114
136.0, -924.3340402047683, -4390.4861081226, -1762.3009398342301, -9914.764453740652, -202.97619139864344, 106.99780070755492, -5285.628770068738, -1339.6294521843736, -1265.7569367595836, -5111.7992534398145, -3913.745750635356, -2927.162102122558, -3155.842799644804, -2249.63602419329, -9294.861173017165, -14500.560104913726, 0.012, -0.10400000000000001, 0.992, 192.0, 0.0, 48.0, 126.0, 96.0, 15.5, 0.0, 0.0, 0.0, 0.0, 1.645922005122314E9, 0.0, 2022-02-27 11:33:25.122
138.0, -598.7361787243103, -4156.172770997617, -1600.8766413780024, -9725.06519854846, 48.54798895692694, 205.81486294446742, -5352.304023778918, -1419.447531634275, -3016.5467281993306, -5322.9561833091, -3623.2848314386406, -2929.374924823633, -2779.327664295157, -2046.3469083722723, -9434.805445051843, -14993.594884108888, 0.012, -0.10400000000000001, 0.992, 192.0, 0.0, 0.0, 0.0, 0.0, 0.0, 0.0, 0.0, 0.0, 0.0, 1.645922005129512E9, 0.0, 2022-02-27 11:33:25.129
140.0, -1184.0836625198917, -4584.767470928129, -2008.9524398985434, -10184.237084893834, -492.20776465031685, -113.6139170663258, -5512.655438501291, -1587.6220569160052, -2718.8214920546407, -5751.2603105616945, -4012.495757638903, -3081.8361737532823, -3201.1944891446224, -2411.596764516445, -9597.861420853307, -15248.293012177111, 0.012, -0.10400000000000001, 0.992, 192.0, 0.0, 0.0, 0.0, 0.0, 0.0, 0.0, 0.0, 0.0, 0.0, 1.645922005143839E9, 0.0, 2022-02-27 11:33:25.143
142.0, -530.8539308135428, -4085.608313752212, -1530.4239428548747, -9658.09937216036, 98.72765525909129, 284.47065168269296, -5205.810690618836, -1226.4402182626986, -1542.0692017160895, -4897.803652024705, -3678.8959716434447, -2842.963080759416, -2913.594593238186, -2051.554864830359, -9233.01389610933, -14407.956827635388, 0.012, -0.10400000000000001, 0.992, 192.0, 0.0, 0.0, 0.0, 0.0, 0.0, 0.0, 0.0, 0.0, 0.0, 1.645922005151946E9, 0.0, 2022-02-27 11:33:25.151
144.0, -1002.8333667318067, -4459.731812445141, -1942.5454071218262, -10097.065281518137, -369.5413910795917, -89.2281638655858, -5573.3404246974505, -1686.0814912416329, -3905.386198209071, -5873.792573665688, -3790.6099904310695, -3064.7817927338833, -2918.9143084185494, -2254.39694576227, -9672.449192100668, -15566.64890845405, 0.012, -0.10400000000000001, 0.992, 192.0, 0.0, 0.0, 0.0, 0.0, 0.0, 0.0, 0.0, 0.0, 0.0, 1.645922005159058E9, 0.0, 2022-02-27 11:33:25.159
146.0, -852.4284782920455, -4320.994534611051, -1768.9841114263668, -9924.018075945149, -221.5951945299142, 98.81706223691252, -5312.808491326391, -1341.194074296245, -1254.9610441876703, -5108.044160371323, -3892.0869102581637, -2912.2311368264127, -3154.1217153217453, -2252.2288265501056, -9306.215859200462, -14510.953666085443, 0.014, -0.1, 0.994, 192.0, 0.0, 56.0, 126.0, 112.0, 15.5, 8.0, 0.0, 0.0, 0.0, 1.645922005166495E9, 0.0, 2022-02-27 11:33:25.166
148.0, -516.1464829619507, -4080.914447416598, -1590.5054319507399, -9716.035093788516, 57.287521038952, 206.41836004476073, -5354.338032524352, -1429.3717061724315, -2968.602236342697, -5301.073825487355, -3604.9340492408337, -2916.05328512827, -2778.2994840502124, -2034.8581117222443, -9434.738389818476, -14975.422915866724, 0.014, -0.1, 0.994, 192.0, 0.0, 0.0, 0.0, 0.0, 0.0, 0.0, 0.0, 0.0, 0.0, 1.645922005174507E9, 0.0, 2022-02-27 11:33:25.174
150.0, -1119.4424175551437, -4522.696676575742, -2009.0418468763646, -10186.561666317186, -488.2738576261828, -109.47884434209399, -5528.167549153274, -1581.2518097462428, -2736.6581841299753, -5725.622859671457, -3983.036158446808, -3070.8614672257268, -3186.062358148379, -2414.949526184741, -9602.152955788726, -15259.625346615952, 0.014, -0.1, 0.994, 192.0, 0.0, 0.0, 0.0, 0.0, 0.0, 0.0, 0.0, 0.0, 0.0, 1.645922005182631E9, 0.0, 2022-02-27 11:33:25.182
152.0, -478.70731099931135, -4044.548159187813, -1530.893329488436, -9664.201398396659, 94.92785870168909, 282.3472359594388, -5211.063350565833, -1225.5461484844861, -1511.5814222790507, -4882.000968694802, -3660.9922243347437, -2833.709458554919, -2910.8453286701833, -2059.288568411895, -9238.490073500881, -14402.011263610277, 0.014, -0.1, 0.994, 192.0, 0.0, 0.0, 0.0, 0.0, 0.0, 0.0, 0.0, 0.0, 0.0, 1.645922005189159E9, 0.0, 2022-02-27 11:33:25.189
154.0, -958.5098574769328, -4425.287774239513, -1940.712564076491, -10107.257676989757, -373.18472542580673, -95.08432091287625, -5579.844782333945, -1685.4556423968843, -3896.557259149225, -5872.16089632045, -3770.8063448436674, -3061.116106643213, -2912.4546542709654, -2248.987823604086, -9672.426840356213, -15567.677088698994, 0.014, -0.10400000000000001, 0.994, 192.0, 0.0, 56.0, 126.0, 80.0, 15.5, 8.0, 0.0, 0.0, 0.0, 1.645922005196154E9, 0.0, 2022-02-27 11:33:25.196
156.0, -810.9883440719061, -4284.18121149316, -1766.5477712807383, -9923.883965478417, -216.38723807182768, 103.28741112797394, -5307.421720912662, -1335.3155655044993, -1247.2943958395, -5100.377512023153, -3878.72056707389, -2904.788005922795, -3159.2626165464662, -2258.35320453086, -9305.232382444428, -14516.183974287984, 0.014, -0.10400000000000001, 0.994, 192.0, 0.0, 0.0, 0.0, 0.0, 0.0, 0.0, 0.0, 0.0, 0.0, 1.645922005204183E9, 0.0, 2022-02-27 11:33:25.204
158.0, -481.6800930118672, -4055.098182570718, -1591.1983360288546, -9718.247916489592, 56.57226521638218, 220.83523521843378, -5344.235044030553, -1397.5651738125293, -2954.565340824764, -5302.817261554869, -3593.9369909688226, -2910.800625181273, -2785.0497108757154, -2028.8231407193114, -9434.112540973729, -14971.82428500942, 0.014, -0.10400000000000001, 0.994, 192.0, 0.0, 0.0, 0.0, 0.0, 0.0, 0.0, 0.0, 0.0, 0.0, 1.645922005212238E9, 0.0, 2022-02-27 11:33:25.212
160.0, -1093.8273184093616, -4500.5684495649875, -2014.5403760123702, -10184.550009316208, -495.71698852980006, -114.35152463335093, -5515.829386213945, -1594.6852081638824, -2768.1741438119584, -5745.247691303217, -3979.415175845048, -3072.426089337598, -3192.499660551508, -2408.489872037157, -9608.120871558294, -15272.187026999836, 0.014, -0.10400000000000001, 0.994, 192.0, 0.0, 0.0, 0.0, 0.0, 0.0, 0.0, 0.0, 0.0, 0.0, 1.645922005218795E9, 0.0, 2022-02-27 11:33:25.218
162.0, -442.0504500926078, -4008.6289058481348, -1531.7426957777377, -9654.545444791967, 89.11640514330927, 284.96239006070977, -5219.109978569744, -1230.9329188982153, -1494.5940964930173, -4857.637567238518, -3653.8843695979563, -2823.673525294486, -2919.920136919038, -2053.745335786979, -9240.166454335029, -14397.004472852288, 0.014, -0.10400000000000001, 0.994, 192.0, 0.0, 0.0, 0.0, 0.0, 0.0, 0.0, 0.0, 0.0, 0.0, 1.645922005226729E9, 0.0, 2022-02-27 11:33:25.226
164.0, -906.8996795296288, -4374.214038159137, -1928.3520493927062, -10089.398633169965, -363.59582705447997, -78.11934687129819, -5585.946808570244, -1684.695683085404, -3879.1228984740856, -5844.400029706959, -3748.40989689945, -3040.9771848889814, -2906.978476879415, -2227.351334971349, -9678.685328803698, -15559.943385117458, 0.013000000000000001, -0.10600000000000001, 0.992, 192.0, 0.0, 48.0, 126.0, 80.0, 15.0, 120.0, 0.0, 0.0, 0.0, 1.645922005234872E9, 0.0, 2022-02-27 11:33:25.234
166.0, -772.4315848865015, -4248.619586064767, -1756.847114187135, -9921.045293932593, -222.71278175267958, 99.6887802706695, -5325.1690060101755, -1349.419516255798, -1238.554863757475, -5066.849895340192, -3856.8605609965994, -2881.8774678561053, -3155.3734130112425, -2239.1977595326616, -9316.74353083891, -14526.689294181979, 0.013000000000000001, -0.10600000000000001, 0.992, 192.0, 0.0, 0.0, 0.0, 0.0, 0.0, 0.0, 0.0, 0.0, 0.0, 1.6459220052414E9, 0.0, 2022-02-27 11:33:25.241
168.0, -433.5791389440464, -4013.456882650481, -1568.3995566844412, -9706.580305883921, 63.83658216435697, 211.15692986928582, -5351.789933656447, -1412.7643600421382, -2901.770520421329, -5270.653101283682, -3560.9458161527896, -2891.1310900606027, -2776.220771815869, -2033.5840622882918, -9438.314668931327, -14970.192607664181, 0.013000000000000001, -0.10600000000000001, 0.992, 192.0, 0.0, 0.0, 0.0, 0.0, 0.0, 0.0, 0.0, 0.0, 0.0, 1.645922005249408E9, 0.0, 2022-02-27 11:33:25.249
170.0, -1070.4473937091104, -4483.849344712418, -2010.4276550325937, -10183.857105238094, -502.266049655205, -131.89764403076697, -5522.959592695188, -1605.6375629469828, -2811.871804222084, -5753.4284297738595, -3945.0158411283305, -3046.431010536076, -3174.4394510316197, -2397.313999809504, -9621.956601376129, -15312.21900131929, 0.013000000000000001, -0.10600000000000001, 0.992, 192.0, 0.0, 0.0, 0.0, 0.0, 0.0, 0.0, 0.0, 0.0, 0.0, 1.645922005264639E9, 0.0, 2022-02-27 11:33:25.264
172.0, -435.5237407116581, -3997.810661531766, -1527.607623053506, -9653.070229657917, 78.45462303812779, 278.8156603355003, -5235.292641555387, -1219.3547152703661, -1445.1073342689676, -4861.325605073644, -3646.3965352054283, -2803.2663826067906, -2932.1018376471807, -2049.163228173641, -9246.715515460433, -14393.986987350821, 0.013000000000000001, -0.10600000000000001, 0.992, 192.0, 0.0, 0.0, 0.0, 0.0, 0.0, 0.0, 0.0, 0.0, 0.0, 1.64592200527133E9, 0.0, 2022-02-27 11:33:25.271
174.0, -893.3321706452574, -4362.43466883119, -1925.9604127359883, -10085.107098234546, -360.60069329746887, -79.7510242165356, -5592.205297017729, -1682.1028807285884, -3863.6107878221023, -5806.357360644026, -3731.7131437913354, -3029.533091727864, -2901.189375065491, -2205.916012038709, -9679.333529392903, -15547.538166944763, 0.009500000000000001, -0.10700000000000001, 0.989, 192.0, 0.0, 24.0, 126.0, 80.0, 15.0, 104.0, 0.0, 0.0, 0.0, 1.645922005279018E9, 0.0, 2022-02-27 11:33:25.279
176.0, -782.7804425693087, -4263.505847872001, -1775.3320068516741, -9931.01417195966, -225.0597149204868, 96.06779766890976, -5313.166119237676, -1356.3932605258537, -1255.9445209437038, -5102.500927746407, -3862.448497110426, -2895.7131976739406, -3157.00509035648, -2242.706983412145, -9322.063246019274, -14533.551279729758, 0.009500000000000001, -0.10700000000000001, 0.989, 192.0, 0.0, 0.0, 0.0, 0.0, 0.0, 0.0, 0.0, 0.0, 0.0, 1.645922005287171E9, 0.0, 2022-02-27 11:33:25.287
178.0, -431.56748194306874, -4013.859214050676, -1581.8553068465362, -9701.551163381477, 59.67915769566986, 223.71861025316838, -5363.122268095287, -1398.6604092908394, -2885.0067120798485, -5248.994260906489, -3568.8806854344234, -2878.3905957210777, -2780.869934662573, -2018.8766144366998, -9437.062971241829, -14954.032296422994, 0.009500000000000001, -0.10700000000000001, 0.989, 192.0, 0.0, 0.0, 0.0, 0.0, 0.0, 0.0, 0.0, 0.0, 0.0, 1.645922005295043E9, 0.0, 2022-02-27 11:33:25.295
180.0, -1056.879884824739, -4479.915437688284, -2013.5568992563367, -10187.656901795495, -494.0629594401073, -118.06191421293191, -5516.499938547604, -1604.4752722353069, -2804.182804129458, -5755.708307708301, -3952.0789923762077, -3050.3202140712997, -3181.6143610017734, -2380.6619501903, -9624.549403732944, -15297.198629045324, 0.009500000000000001, -0.10700000000000001, 0.989, 192.0, 0.0, 0.0, 0.0, 0.0, 0.0, 0.0, 0.0, 0.0, 0.0, 1.645922005301708E9, 0.0, 2022-02-27 11:33:25.301
182.0, -419.139912025918, -3987.037120704308, -1531.027439955168, -9659.708697761143, 89.80930922142377, 284.15772726031867, -5205.341303985275, -1246.9144161837598, -1442.4027731898755, -4854.351860803587, -3636.494712411727, -2802.9534581844164, -2914.4886630163987, -2034.9922221889763, -9234.511462987837, -14391.841219883112, 0.009500000000000001, -0.10700000000000001, 0.989, 192.0, 0.0, 0.0, 0.0, 0.0, 0.0, 0.0, 0.0, 0.0, 0.0, 1.645922005309733E9, 0.0, 2022-02-27 11:33:25.309
184.0, -866.5100772988889, -4343.011002899529, -1914.9186509750666, -10080.368528410021, -344.79800996756677, -70.69856771213624, -5579.3306922114725, -1689.8589360545798, -3856.234712151851, -5807.921982755898, -3722.2807076311956, -3011.472882207976, -2886.4595754694433, -2207.1677097282063, -9668.984671710095, -15556.300050771244, 0.009750000000000002, -0.10850000000000001, 0.9875, 192.0, 0.0, 40.0, 126.0, 72.0, 15.0, 104.0, 0.0, 0.0, 0.0, 1.645922005316784E9, 0.0, 2022-02-27 11:33:25.316
186.0, -766.9330557504959, -4242.897539484208, -1768.6488352595372, -9924.599221300987, -225.81967423196724, 88.75877723202434, -5332.880357847257, -1341.6634609298064, -1250.3789365743323, -5091.258000285387, -3860.90622674301, -2887.0183690808262, -3152.333575765321, -2237.499026954058, -9321.280934963339, -14537.619297220625, 0.009750000000000002, -0.10850000000000001, 0.9875, 192.0, 0.0, 0.0, 0.0, 0.0, 0.0, 0.0, 0.0, 0.0, 0.0, 1.645922005323924E9, 0.0, 2022-02-27 11:33:25.323
188.0, -413.41786544535944, -3998.324751654238, -1572.378167197486, -9690.397642898279, 68.79866943343514, 214.8673194488668, -5330.1534450237095, -1392.0442929320686, -2851.27792969679, -5245.082705626811, -3568.925388923334, -2863.4596304249326, -2774.186763070436, -2015.25563183494, -9424.85891876923, -14939.43660729368, 0.009750000000000002, -0.10850000000000001, 0.9875, 192.0, 0.0, 0.0, 0.0, 0.0, 0.0, 0.0, 0.0, 0.0, 0.0, 1.64592200533142E9, 0.0, 2022-02-27 11:33:25.331
190.0, -1044.1170387407587, -4466.258521826091, -2013.3557335562389, -10184.25943663829, -499.74030253175533, -130.22126319661893, -5529.28513637604, -1617.5063392527509, -2824.902871239528, -5757.3623367979935, -3951.5425505092803, -3038.250272065434, -3177.9263231666478, -2387.1663078267943, -9620.593144964356, -15315.035321120658, 0.009750000000000002, -0.10850000000000001, 0.9875, 192.0, 0.0, 0.0, 0.0, 0.0, 0.0, 0.0, 0.0, 0.0, 0.0, 1.64592200533946E9, 0.0, 2022-02-27 11:33:25.339
192.0, -406.15354849738463, -3969.3345390957047, -1532.2120824112992, -9652.377325579802, 77.02411139298813, 278.793308591045, -5252.861112697257, -1228.6083374748632, -1405.9470779832695, -4835.665802438951, -3631.6890873538364, -2789.900039422517, -2917.9308316625156, -2028.4655128080265, -9239.942936890477, -14383.414612223462, 0.009750000000000002, -0.10850000000000001, 0.9875, 192.0, 0.0, 0.0, 0.0, 0.0, 0.0, 0.0, 0.0, 0.0, 0.0, 1.645922005347501E9, 0.0, 2022-02-27 11:33:25.347
194.0, -846.2146933334701, -4321.620383455799, -1915.0080579528878, -10070.042022471669, -346.00500416815333, -74.31955031389599, -5563.505657137115, -1686.8414505531134, -3840.1191043995746, -5792.655741292923, -3715.3740185945057, -3008.6789141510626, -2883.7550143903513, -2196.438872389659, -9672.87387524532, -15538.820986607194, 0.008875000000000001, -0.10925000000000001, 0.98875, 192.0, 0.0, 32.0, 126.0, 72.0, 15.0, 120.0, 0.0, 0.0, 0.0, 1.645922005353985E9, 0.0, 2022-02-27 11:33:25.353
196.0, -760.4734016029122, -4245.490341841023, -1776.4272423299842, -9931.640020804409, -240.32595638346154, 92.4021115782394, -5343.67625041917, -1346.6255481988846, -1247.8308377064275, -5090.72155841846, -3864.2366366668507, -2874.8143166082286, -3152.132410065223, -2237.186102531684, -9326.93592631053, -14546.336477558194, 0.008875000000000001, -0.10925000000000001, 0.98875, 192.0, 0.0, 0.0, 0.0, 0.0, 0.0, 0.0, 0.0, 0.0, 0.0, 1.645922005362042E9, 0.0, 2022-02-27 11:33:25.362
198.0, -407.0923217645075, -4000.202298188484, -1570.567675896606, -9695.49384063409, 74.11838461379821, 213.6603252482802, -5317.994096040023, -1393.8100807440378, -2820.8572054931174, -5232.476321754018, -3573.507496536672, -2868.801697349751, -2784.245048075324, -2017.0884748802753, -9425.507119358435, -14933.759264202032, 0.008875000000000001, -0.10925000000000001, 0.98875, 192.0, 0.0, 0.0, 0.0, 0.0, 0.0, 0.0, 0.0, 0.0, 0.0, 1.645922005370072E9, 0.0, 2022-02-27 11:33:25.370
200.0, -1043.692355596108, -4469.141896860826, -2014.093341123264, -10190.741442530329, -499.9191164873978, -143.4087924252501, -5523.1607583952855, -1636.6841359954044, -2839.6773743244858, -5757.719964709278, -3951.296681320272, -3045.1346093576685, -3175.4452795321085, -2384.5064502366126, -9624.638810710765, -15323.663094480407, 0.008875000000000001, -0.10925000000000001, 0.98875, 192.0, 0.0, 0.0, 0.0, 0.0, 0.0, 0.0, 0.0, 0.0, 0.0, 1.645922005376628E9, 0.0, 2022-02-27 11:33:25.376
202.0, -409.8415863325103, -3968.3957658285817, -1539.9681377372906, -9661.407430339746, 73.1125561133094, 268.77972707506746, -5212.203289533054, -1229.9270903977265, -1385.450528317753, -4784.100327980558, -3644.3178229710848, -2799.93597268295, -2927.9667649229486, -2030.521873297915, -9239.719419445923, -14383.258150012274, 0.008875000000000001, -0.10925000000000001, 0.98875, 192.0, 0.0, 0.0, 0.0, 0.0, 0.0, 0.0, 0.0, 0.0, 0.0, 1.645922005391698E9, 0.0, 2022-02-27 11:33:25.391
204.0, -833.2059780604814, -4323.721447434598, -1908.391941594117, -10055.446333342354, -334.5162075181255, -73.24666658004125, -5574.927398553777, -1696.9891425358228, -3834.821740963667, -5797.3943111174485, -3718.480911073794, -3004.3873792156437, -2886.9736655919155, -2193.3766833992822, -9673.924407234717, -15537.278716239778, 0.0104375, -0.10662500000000001, 0.990375, 192.0, 0.0, 48.0, 126.0, 96.0, 15.5, 0.0, 0.0, 0.0, 0.0, 1.645922005400272E9, 0.0, 2022-02-27 11:33:25.400
206.0, -782.5569251247556, -4264.377565905758, -1787.625466302093, -9941.005401731181, -251.6135873333916, 74.54306775844906, -5329.326430478863, -1358.896655904848, -1274.384710119332, -5127.713695491993, -3874.9207705164877, -2879.575238177209, -3168.762107939972, -2254.6875184401893, -9338.156502027095, -14560.529835287314, 0.0104375, -0.10662500000000001, 0.990375, 192.0, 0.0, 0.0, 0.0, 0.0, 0.0, 0.0, 0.0, 0.0, 0.0, 1.645922005406277E9, 0.0, 2022-02-27 11:33:25.406
208.0, -400.36444668346013, -3996.223687675439, -1567.639597372961, -9688.140116708293, 69.46922176709435, 216.70016249420198, -5338.244776516531, -1391.7313685096942, -2783.1721643414694, -5229.414132763641, -3581.464717562761, -2875.66368289753, -2787.7542719548073, -2023.0116871609316, -9424.657753069134, -14909.149993556739, 0.0104375, -0.10662500000000001, 0.990375, 192.0, 0.0, 0.0, 0.0, 0.0, 0.0, 0.0, 0.0, 0.0, 0.0, 1.645922005414233E9, 0.0, 2022-02-27 11:33:25.414
210.0, -1045.815771319362, -4479.222533610169, -2019.8600911927333, -10193.222486164866, -507.49635785774683, -138.8937400452781, -5545.177226683763, -1637.824074962625, -2894.95323836246, -5767.33121482506, -3956.1470098670734, -3043.5923389902523, -3166.9516166390918, -2398.3868835433586, -9637.781636450487, -15344.718437757307, 0.0104375, -0.10662500000000001, 0.990375, 192.0, 0.0, 0.0, 0.0, 0.0, 0.0, 0.0, 0.0, 0.0, 0.0, 1.645922005422304E9, 0.0, 2022-02-27 11:33:25.422
212.0, -423.4537987057923, -3996.0448737197967, -1546.472495373785, -9667.5318083205, 69.6033322338262, 274.3229596999836, -5228.721228685526, -1243.807523704472, -1362.4952867621525, -4853.837770681116, -3665.9766633482773, -2801.455891305911, -2938.4497330724876, -2054.7288125430123, -9239.741771190378, -14380.978272077833, 0.0104375, -0.10662500000000001, 0.990375, 192.0, 0.0, 0.0, 0.0, 0.0, 0.0, 0.0, 0.0, 0.0, 0.0, 1.645922005429277E9, 0.0, 2022-02-27 11:33:25.429
214.0, -832.0213356043502, -4326.157787580227, -1908.973086949955, -10057.457990343331, -329.7776376936004, -58.181590817164285, -5569.2947589510395, -1678.6830638269264, -3834.5982235191136, -5774.23790386175, -3723.174777409408, -3005.4826146939536, -2884.246752768368, -2168.09686042033, -9666.794200753475, -15528.852108580126, 0.01121875, -0.1063125, 0.9911875, 192.0, 0.0, 48.0, 126.0, 88.0, 15.5, 0.0, 0.0, 0.0, 0.0, 1.645922005436821E9, 0.0, 2022-02-27 11:33:25.436
216.0, -762.8203347707195, -4245.713859285576, -1784.9656087119115, -9935.77509352864, -247.63497682034694, 78.4769747825831, -5329.773465367969, -1363.612873984918, -1283.0795387124467, -5106.591296981728, -3876.5300961172697, -2892.673360428019, -3166.169305583156, -2249.9713003601196, -9338.670592149567, -14567.861207468655, 0.01121875, -0.1063125, 0.9911875, 192.0, 0.0, 0.0, 0.0, 0.0, 0.0, 0.0, 0.0, 0.0, 0.0, 1.645922005443923E9, 0.0, 2022-02-27 11:33:25.443
218.0, -380.87372551843237, -3977.1576496550624, -1560.598797869539, -9675.757250280054, 91.32922784438466, 239.02955520505373, -5326.688924633137, -1379.6167230149179, -2755.16542853897, -5209.074045309311, -3564.455040032273, -2862.4538019244437, -2774.0526526037042, -2001.3975502726496, -9414.890040742164, -14898.689377151655, 0.01121875, -0.1063125, 0.9911875, 192.0, 0.0, 0.0, 0.0, 0.0, 0.0, 0.0, 0.0, 0.0, 0.0, 1.645922005451785E9, 0.0, 2022-02-27 11:33:25.451
220.0, -1044.139390485214, -4475.869771941873, -2018.0495998918534, -10188.05923319569, -495.47111934079163, -127.98608875108825, -5536.236528901641, -1630.9173859259352, -2903.960991377949, -5785.167906900395, -3946.9604428959424, -3048.241501836956, -3166.9963201280025, -2380.6395984458445, -9635.412351538223, -15343.533795301175, 0.01121875, -0.1063125, 0.9911875, 192.0, 0.0, 0.0, 0.0, 0.0, 0.0, 0.0, 0.0, 0.0, 0.0, 1.645922005458963E9, 0.0, 2022-02-27 11:33:25.458
222.0, -433.78030464414417, -3997.877716765132, -1548.4618006303074, -9672.091564189383, 68.46339326660554, 275.3958434338383, -5230.263499052942, -1236.3196893119443, -1369.4913827766638, -4845.120590343546, -3665.529628459171, -2800.7182837388855, -2939.1649888950574, -2048.9844142179986, -9234.176186821007, -14375.077411541632, 0.01121875, -0.1063125, 0.9911875, 192.0, 0.0, 0.0, 0.0, 0.0, 0.0, 0.0, 0.0, 0.0, 0.0, 1.645922005466464E9, 0.0, 2022-02-27 11:33:25.466
224.0, -838.0116031183724, -4338.786523197475, -1906.2461741264076, -10054.596967053052, -315.76309392012286, -52.32543376987383, -5562.276311192073, -1666.6131218210605, -3849.663299281991, -5790.465270336303, -3729.656783301447, -3019.698324167529, -2883.6432556680747, -2193.9801804995755, -9664.067287929927, -15525.029960278269, 0.014, -0.10400000000000001, 0.986, 192.0, 0.0, 56.0, 126.0, 96.0, 15.0, 104.0, 0.0, 0.0, 0.0, 1.645922005474477E9, 0.0, 2022-02-27 11:33:25.474
226.0, -788.3907304275907, -4273.899409043719, -1798.3096001517297, -9949.58847160202, -244.17045642977436, 85.13779463026461, -5329.3934857122285, -1356.6614814593174, -1318.4623501851977, -5151.563006825806, -3894.1656224925073, -2911.8064536817615, -3173.5677329978625, -2254.6204632068234, -9337.307135737794, -14574.611434294158, 0.014, -0.10400000000000001, 0.986, 192.0, 0.0, 0.0, 0.0, 0.0, 0.0, 0.0, 0.0, 0.0, 0.0, 1.645922005481736E9, 0.0, 2022-02-27 11:33:25.481
228.0, -385.3887778984044, -3991.708635295467, -1551.5463413651398, -9673.030337456506, 100.09111167086503, 252.03827047804245, -5314.730741349547, -1366.6527112308397, -2732.9701462948497, -5218.327667513808, -3572.9710546697447, -2867.952331060449, -2769.895228135017, -2007.454873020038, -9402.48482256947, -14877.879903063764, 0.014, -0.10400000000000001, 0.986, 192.0, 0.0, 0.0, 0.0, 0.0, 0.0, 0.0, 0.0, 0.0, 0.0, 1.645922005489167E9, 0.0, 2022-02-27 11:33:25.489
230.0, -1045.2346259635242, -4481.703577244709, -2021.0894371377751, -10187.768660517771, -500.5449653321464, -118.24072816857436, -5536.124770179364, -1625.6423742344828, -2938.270919116845, -5792.208706403817, -3947.5415882517805, -3050.3202140712997, -3160.559017724874, -2375.275179776571, -9637.759284706031, -15346.12659765799, 0.014, -0.10400000000000001, 0.986, 192.0, 0.0, 0.0, 0.0, 0.0, 0.0, 0.0, 0.0, 0.0, 0.0, 1.645922005497109E9, 0.0, 2022-02-27 11:33:25.497
232.0, -425.5995661735018, -4004.9632197574642, -1544.0361552281565, -9668.24706414307, 67.4128612772061, 282.2354772371623, -5212.069179066322, -1224.6520787062739, -1344.6809464312728, -4836.314003028155, -3661.4839627127603, -2801.835870961651, -2936.8180557272503, -2036.7580100009454, -9232.566861220224, -14362.18045499092, 0.014, -0.10400000000000001, 0.986, 192.0, 0.0, 0.0, 0.0, 0.0, 0.0, 0.0, 0.0, 0.0, 0.0, 1.645922005511295E9, 0.0, 2022-02-27 11:33:25.511
234.0, -819.5490621982888, -4312.813796140408, -1898.6912845005138, -10037.810806967116, -310.5551374620363, -42.803590631913025, -5554.00616574361, -1656.7783542607253, -3825.9928019038207, -5779.043528919641, -3712.4906435597713, -3009.59533567373, -2865.4489356814547, -2177.9986832140307, -9654.612500025332, -15507.841468792138, 0.018000000000000002, -0.10400000000000001, 0.992, 192.0, 0.0, 72.0, 126.0, 96.0, 15.5, 0.0, 0.0, 0.0, 0.0, 1.645922005518801E9, 0.0, 2022-02-27 11:33:25.518
236.0, -778.3324454227026, -4255.168647190171, -1792.9675332269114, -9945.520454111154, -248.35023264291678, 88.33409408737351, -5324.364343209785, -1358.7625454381164, -1313.0085245381028, -5148.076134690778, -3887.147174733541, -2899.3565320201556, -3168.136259095223, -2251.0441840939743, -9337.79887411581, -14577.047774439787, 0.018000000000000002, -0.10400000000000001, 0.992, 192.0, 0.0, 0.0, 0.0, 0.0, 0.0, 0.0, 0.0, 0.0, 0.0, 1.645922005526757E9, 0.0, 2022-02-27 11:33:25.526
238.0, -371.82126901403296, -3972.195562385984, -1549.601739597528, -9663.262625129537, 104.80732975093481, 250.9430349997324, -5310.618020369771, -1361.93649315077, -2698.7943290226854, -5185.180030486587, -3564.5891504990045, -2855.189484976469, -2774.387928770534, -1998.000085115443, -9399.132060901173, -14868.335708181348, 0.018000000000000002, -0.10400000000000001, 0.992, 192.0, 0.0, 0.0, 0.0, 0.0, 0.0, 0.0, 0.0, 0.0, 0.0, 1.645922005534873E9, 0.0, 2022-02-27 11:33:25.534
240.0, -1037.947957271094, -4467.26435032658, -2013.8251201898004, -10184.3041401272, -495.24760189623856, -117.63723106828107, -5539.2987178920175, -1628.4139905469408, -2969.272788676356, -5783.6032847885235, -3939.3384980366827, -3044.2852430683665, -3153.138238565712, -2378.3820722558585, -9636.66404922772, -15359.761161775728, 0.018000000000000002, -0.10400000000000001, 0.992, 192.0, 0.0, 0.0, 0.0, 0.0, 0.0, 0.0, 0.0, 0.0, 0.0, 1.645922005541419E9, 0.0, 2022-02-27 11:33:25.541
242.0, -430.87457786495423, -4002.5715831007465, -1548.0147657412012, -9665.609558297343, 63.34484378634021, 285.1412040163522, -5219.065275080833, -1228.4965787525869, -1317.3671147068876, -4844.003003120781, -3660.209913278808, -2799.243068604835, -2945.758753509373, -2046.1010391832638, -9228.543547218269, -14354.446751409383, 0.018000000000000002, -0.10400000000000001, 0.992, 192.0, 0.0, 0.0, 0.0, 0.0, 0.0, 0.0, 0.0, 0.0, 0.0, 1.645922005549391E9, 0.0, 2022-02-27 11:33:25.549
244.0, -796.2808962203142, -4299.7603773785095, -1883.335636059718, -10025.785568450161, -295.17713727678506, -36.858026606801346, -5561.404593158316, -1659.5499705731834, -3825.8586914370885, -5768.739374725745, -3710.9260214479, -3003.3591989706993, -2868.3770142051, -2174.66827329019, -9651.885587201785, -15497.82788727616, 0.012, -0.10400000000000001, 0.992, 192.0, 0.0, 48.0, 126.0, 96.0, 15.5, 0.0, 0.0, 0.0, 0.0, 1.645922005557391E9, 0.0, 2022-02-27 11:33:25.557
246.0, -798.7619398548532, -4276.671025356177, -1813.1958619589643, -9958.842093806517, -266.03046250706467, 77.1805736041753, -5340.301137006419, -1377.4262520582977, -1356.3038535480325, -5169.064422734311, -3895.7972998377445, -2900.094139587181, -3174.908837665181, -2262.890608655287, -9352.774542900866, -14601.32176891825, 0.012, -0.10400000000000001, 0.992, 192.0, 0.0, 0.0, 0.0, 0.0, 0.0, 0.0, 0.0, 0.0, 0.0, 1.645922005564615E9, 0.0, 2022-02-27 11:33:25.564
248.0, -368.75908002365594, -3966.227646616417, -1547.92535876338, -9660.401601839258, 112.13870193227554, 272.1771922322741, -5308.561659879882, -1355.1862663252673, -2654.1578953454373, -5173.557123369828, -3572.255798847175, -2850.406211663033, -2776.9807311273494, -1989.7299396669794, -9394.013511420908, -14838.518481077968, 0.012, -0.10400000000000001, 0.992, 192.0, 0.0, 0.0, 0.0, 0.0, 0.0, 0.0, 0.0, 0.0, 0.0, 1.64592200557114E9, 0.0, 2022-02-27 11:33:25.571
250.0, -1035.533968869921, -4466.280873570547, -2017.513158024926, -10183.655939537995, -498.7791775201771, -113.72567578860233, -5545.937185995243, -1629.308060325153, -2971.597370099708, -5789.817069747099, -3939.0255736143085, -3045.6039959912296, -3141.403572726676, -2364.144011037828, -9640.866177185319, -15355.603737307041, 0.012, -0.10400000000000001, 0.992, 192.0, 0.0, 0.0, 0.0, 0.0, 0.0, 0.0, 0.0, 0.0, 0.0, 1.645922005578969E9, 0.0, 2022-02-27 11:33:25.578
252.0, -430.96398484277546, -4000.9175540110537, -1549.601739597528, -9667.017718198029, 59.41093676220617, 286.4599569392153, -5224.072065838822, -1230.4411805201985, -1307.7335128466502, -4836.872796639538, -3667.921265115889, -2793.118690624081, -2941.511922062865, -2036.4450855785713, -9232.96919262042, -14348.188262961898, 0.012, -0.10400000000000001, 0.992, 192.0, 0.0, 0.0, 0.0, 0.0, 0.0, 0.0, 0.0, 0.0, 0.0, 1.645922005587005E9, 0.0, 2022-02-27 11:33:25.587
254.0, -788.8601170611522, -4290.774976107476, -1876.496002256394, -10017.60482997952, -293.2995907425393, -25.257471234496983, -5551.949805253721, -1656.3983746049853, -3813.7663976867675, -5759.28458682115, -3707.953239435344, -2997.145414012124, -2862.2749879688013, -2159.7596597385004, -9652.645546513266, -15488.015471460281, 0.01, -0.10400000000000001, 0.99, 192.0, 0.0, 40.0, 126.0, 96.0, 15.0, 120.0, 0.0, 0.0, 0.0, 1.645922005593764E9, 0.0, 2022-02-27 11:33:25.593
0.0, -790.2459252173812, -4268.244417696526, -1808.9266787680006, -9957.702154839297, -272.13248874336347, 72.4867072685608, -5352.706355179114, -1395.933496467292, -1347.161990065812, -5159.028489473879, -3893.4056631810267, -2893.5003749728653, -3176.495811521508, -2267.405661035259, -9350.829941133254, -14605.859173042676, 0.01, -0.10400000000000001, 0.99, 192.0, 0.0, 0.0, 0.0, 0.0, 0.0, 0.0, 0.0, 0.0, 0.0, 1.64592200560168E9, 0.0, 2022-02-27 11:33:25.601
2.0, -354.1410391498851, -3954.3365185661937, -1539.3646406369974, -9652.891415702274, 99.62172503730358, 267.7068433412127, -5340.524654450972, -1379.2814468480883, -2617.9480693278397, -5150.914806236602, -3566.019662144144, -2843.857150537628, -2774.790260170729, -1980.7668901404013, -9390.884267197165, -14833.93637346463, 0.01, -0.10400000000000001, 0.99, 192.0, 0.0, 0.0, 0.0, 0.0, 0.0, 0.0, 0.0, 0.0, 0.0, 1.645922005609688E9, 0.0, 2022-02-27 11:33:25.609
4.0, -1033.0305734909266, -4464.425678780756, -2026.4985592959595, -10185.242913394322, -514.1348259609731, -116.83256826789001, -5591.646503406347, -1642.3838308315076, -3040.0160598774028, -5792.767500015199, -3932.454160744448, -3043.055897123325, -3135.882691846215, -2354.6445196443224, -9652.332622090891, -15385.488019643786, 0.01, -0.10400000000000001, 0.99, 192.0, 0.0, 0.0, 0.0, 0.0, 0.0, 0.0, 0.0, 0.0, 0.0, 1.645922005616929E9, 0.0, 2022-02-27 11:33:25.616
6.0, -437.17776980135085, -3995.1061004526737, -1555.6590623449163, -9681.38988988279, 43.80941913240184, 277.921590557288, -5205.564821429828, -1224.4956164950868, -1262.2477128801004, -4809.827185848616, -3677.0407768536543, -2795.3315133251567, -2957.5157710928647, -2043.3070711263504, -9234.511462987837, -14348.210614706351, 0.01, -0.10400000000000001, 0.99, 192.0, 0.0, 0.0, 0.0, 0.0, 0.0, 0.0, 0.0, 0.0, 0.0, 1.645922005624643E9, 0.0, 2022-02-27 11:33:25.624
8.0, -768.0953464621718, -4271.686586342644, -1861.5650369602488, -10007.568896719087, -277.02752077907576, -14.215709473575291, -5524.14423515132, -1635.5441970281836, -3792.398129987494, -5726.94161259432, -3702.0076754102324, -3005.1026350382135, -2860.866828068117, -2159.692604505134, -9636.887566672274, -15477.800724244205, 0.008, -0.10400000000000001, 0.988, 192.0, 0.0, 32.0, 126.0, 96.0, 15.0, 112.0, 0.0, 0.0, 0.0, 1.645922005639331E9, 0.0, 2022-02-27 11:33:25.639
10.0, -811.2342132609145, -4286.014054538495, -1822.270670207819, -9971.649643379407, -290.8408988524555, 65.02122462048824, -5377.628550246782, -1390.256153375644, -1395.6876272782836, -5208.470548209018, -3905.8555848426327, -2907.5149187463426, -3180.4520702900973, -2273.1947628491835, -9362.877531394664, -14635.162310023585, 0.008, -0.10400000000000001, 0.988, 192.0, 0.0, 0.0, 0.0, 0.0, 0.0, 0.0, 0.0, 0.0, 0.0, 1.645922005646686E9, 0.0, 2022-02-27 11:33:25.646
12.0, -369.07200444603023, -3960.0809168912074, -1546.8971785184358, -9658.501703560556, 88.37879757628413, 259.9060845263105, -5300.157403964688, -1342.7586964081165, -2569.2212664152703, -5142.890529977147, -3569.8418104460015, -2838.2021591904354, -2780.4899550068326, -1983.0467680748427, -9383.23997059345, -14815.183259866628, 0.008, -0.10400000000000001, 0.988, 192.0, 0.0, 0.0, 0.0, 0.0, 0.0, 0.0, 0.0, 0.0, 0.0, 1.645922005654109E9, 0.0, 2022-02-27 11:33:25.654
14.0, -1041.4124776616666, -4470.147725361315, -2029.1137133972304, -10194.45183210991, -520.1250934749953, -148.88496981680035, -5559.415287901794, -1641.6909267533931, -3021.97820210197, -5796.276723894683, -3950.7602394533446, -3047.8615221812156, -3161.9895293700138, -2390.273200306082, -9647.549348777455, -15379.587159107587, 0.008, -0.10400000000000001, 0.988, 192.0, 0.0, 0.0, 0.0, 0.0, 0.0, 0.0, 0.0, 0.0, 0.0, 1.645922005662031E9, 0.0, 2022-02-27 11:33:25.662
16.0, -423.31968823906044, -3993.317960896249, -1551.0993064760337, -9677.813610769941, 48.19036104564203, 259.77197405957867, -5238.108961356755, -1251.1835993747234, -1261.8677332243603, -4823.640563921996, -3674.7161954303024, -2793.8786499355615, -2955.4594106029763, -2061.993129490987, -9228.901175129555, -14354.916138042945, 0.008, -0.10400000000000001, 0.988, 192.0, 0.0, 0.0, 0.0, 0.0, 0.0, 0.0, 0.0, 0.0, 0.0, 1.645922005670072E9, 0.0, 2022-02-27 11:33:25.670
18.0, -780.4111576570461, -4280.001435280017, -1871.9809498764218, -10013.782681677661, -294.14895703184095, -36.32158473987398, -5531.967345710676, -1636.013583661745, -3783.1221560385416, -5738.296298777616, -3699.1690038644083, -2988.137660996635, -2861.962063546427, -2172.8130785003996, -9642.788427208476, -15486.450849348408, 0.008, -0.10400000000000001, 0.988, 192.0, 0.0, 32.0, 126.0, 96.0, 15.0, 112.0, 0.0, 0.0, 0.0, 1.64592200567663E9, 0.0, 2022-02-27 11:33:25.676
20.0, -802.5393846678, -4268.937321774641, -1813.7993590592575, -9957.903320539393, -297.501718700137, 58.47216349508328, -5354.785067413458, -1410.4174268743309, -1381.0025311711468, -5182.520172896406, -3910.683561644979, -2900.3176570317337, -3206.625963047262, -2278.8721059408317, -9358.585996459246, -14618.867888315664, 0.008, -0.10400000000000001, 0.988, 192.0, 0.0, 0.0, 0.0, 0.0, 0.0, 0.0, 0.0, 0.0, 0.0, 1.64592200568464E9, 0.0, 2022-02-27 11:33:25.684
22.0, -357.9408357072873, -3949.1956173414733, -1540.9739662377795, -9646.6776307437, 94.86080346832317, 252.73117455615696, -5309.321619191363, -1365.9598071527253, -2593.9199440383845, -5144.276338133376, -3577.463755305261, -2834.1788451884804, -2800.3606558276006, -1996.5248699813928, -9386.391566561648, -14821.17352738065, 0.008, -0.10400000000000001, 0.988, 192.0, 0.0, 0.0, 0.0, 0.0, 0.0, 0.0, 0.0, 0.0, 0.0, 1.645922005691722E9, 0.0, 2022-02-27 11:33:25.691
24.0, -1032.3153176683568, -4452.601605963899, -2028.3090505968394, -10191.63551230854, -514.7830265501769, -116.63140256779225, -5558.118886723386, -1632.5490632711726, -3078.326949873799, -5794.24271514925, -3937.4385997579816, -3038.183216832068, -3153.6299769437287, -2372.615322186389, -9658.05466867145, -15400.240170984289, 0.008, -0.10400000000000001, 0.988, 192.0, 0.0, 0.0, 0.0, 0.0, 0.0, 0.0, 0.0, 0.0, 0.0, 1.64592200569937E9, 0.0, 2022-02-27 11:33:25.699
26.0, -430.29343250911626, -3984.4443183474923, -1556.3296146785754, -9678.171238681227, 34.86872135027902, 267.34921542992777, -5235.359696788752, -1213.655020434263, -1247.1155818838577, -4798.070168265124, -3680.8405734110565, -2797.7902052152403, -2974.011358500881, -2062.6636818246466, -9229.705837929945, -14344.8355012936, 0.008, -0.10400000000000001, 0.988, 192.0, 0.0, 0.0, 0.0, 0.0, 0.0, 0.0, 0.0, 0.0, 0.0, 1.645922005706213E9, 0.0, 2022-02-27 11:33:25.706
28.0, -749.1187154196163, -4251.637071566233, -1859.4192694925393, -10006.831289152062, -282.8836778263662, -40.233140019552714, -5548.418229629783, -1647.3682698450411, -3774.427327445427, -5733.08834231953, -3684.528611246182, -2974.1007654787027, -2859.0116332783264, -2165.8169824858883, -9641.514377774523, -15469.888206707026, 0.006, -0.106, 0.984, 192.0, 0.0, 24.0, 126.0, 88.0, 15.0, 96.0, 0.0, 0.0, 0.0, 1.645922005714317E9, 0.0, 2022-02-27 11:33:25.714
30.0, -786.8037565712639, -4244.976251718552, -1808.233774689886, -9967.44751542181, -289.1421662738522, 48.279768023463255, -5357.9813668705665, -1389.9879324421804, -1371.6371502443733, -5155.49691384994, -3890.4775846573816, -2900.6305814541083, -3185.235343603533, -2290.830289224421, -9361.581130216256, -14635.855214101699, 0.006, -0.106, 0.984, 192.0, 0.0, 0.0, 0.0, 0.0, 0.0, 0.0, 0.0, 0.0, 0.0, 1.645922005722324E9, 0.0, 2022-02-27 11:33:25.722
32.0, -335.4326290407931, -3935.2257770569063, -1532.1673789223885, -9647.705810988642, 100.6275535377924, 243.7457732851235, -5314.19429948262, -1362.7635076956162, -2565.712042535787, -5138.688402019549, -3564.6562057323704, -2843.253653437335, -2790.3694260560783, -2006.4043410306385, -9380.557761258813, -14818.491318046013, 0.006, -0.106, 0.984, 192.0, 0.0, 0.0, 0.0, 0.0, 0.0, 0.0, 0.0, 0.0, 0.0, 1.645922005728975E9, 0.0, 2022-02-27 11:33:25.728
34.0, -1027.3532303992786, -4461.721117701664, -2030.834797720289, -10187.522791328764, -520.2815556861825, -133.32815567590663, -5567.2383984611515, -1653.112668170055, -3082.819650509316, -5813.040532236163, -3933.169416567018, -3028.9966498609365, -3150.366622253254, -2386.4734037486796, -9658.859331471842, -15408.867944344038, 0.006, -0.106, 0.984, 192.0, 0.0, 0.0, 0.0, 0.0, 0.0, 0.0, 0.0, 0.0, 0.0, 1.6459220057369E9, 0.0, 2022-02-27 11:33:25.736
36.0, -428.7958656306107, -3993.228553918428, -1565.1362019939666, -9670.705756033154, 34.53344518344941, 256.3968606468273, -5233.07981885431, -1229.7929799309945, -1251.8317999639273, -4824.445226722387, -3676.2584657977186, -2789.4977080223216, -2965.7188613079625, -2064.4294696366155, -9224.49788147186, -14340.40985589145, 0.009000000000000001, -0.10400000000000001, 0.985, 192.0, 0.0, 48.0, 126.0, 104.0, 15.0, 104.0, 0.0, 0.0, 0.0, 1.645922005744895E9, 0.0, 2022-02-27 11:33:25.744
38.0, -742.1449711495604, -4255.07924021235, -1861.4979817268827, -9988.033472065148, -276.13345100086343, -27.49264568002769, -5544.529026094559, -1641.2215401198316, -3777.847144347089, -5731.344906252016, -3684.1709833348973, -2959.5944833272083, -2851.970833774905, -2160.8548952168103, -9633.6242119818, -15463.048572903703, 0.009000000000000001, -0.10400000000000001, 0.985, 192.0, 0.0, 0.0, 0.0, 0.0, 0.0, 0.0, 0.0, 0.0, 0.0, 1.645922005758533E9, 0.0, 2022-02-27 11:33:25.758
40.0, -793.5539833967666, -4264.399917650213, -1823.0306295192993, -9961.747820585708, -287.95752381772087, 47.02807033396606, -5357.400221514728, -1386.6575225183396, -1392.7819004990936, -5174.45119314804, -3897.3395702051607, -2881.318674244723, -3186.8223174598597, -2289.533888046013, -9362.497551738925, -14633.821205356266, 0.009000000000000001, -0.10400000000000001, 0.985, 192.0, 0.0, 0.0, 0.0, 0.0, 0.0, 0.0, 0.0, 0.0, 0.0, 1.645922005766554E9, 0.0, 2022-02-27 11:33:25.766
42.0, -345.9155971903321, -3941.461913759937, -1538.8729022589807, -9642.6766684862, 112.11635018782023, 258.2297036921625, -5294.2341916840305, -1337.4613329722088, -2547.7412399937202, -5135.8050269848145, -3572.255798847175, -2834.067086466204, -2790.190612100436, -2010.025323632398, -9374.14281060014, -14798.598265480789, 0.009000000000000001, -0.10400000000000001, 0.985, 192.0, 0.0, 0.0, 0.0, 0.0, 0.0, 0.0, 0.0, 0.0, 0.0, 1.645922005774744E9, 0.0, 2022-02-27 11:33:25.774
44.0, -1029.4095908891668, -4453.1380478308265, -2036.221568134018, -10192.06019545319, -511.6090788375234, -148.81791458343443, -5566.232569960663, -1659.952301973379, -3120.3482294497767, -5825.065770753118, -3939.003221869853, -3043.949966901537, -3139.3248604923324, -2380.751357168121, -9656.177122137204, -15414.187659524401, 0.009000000000000001, -0.10400000000000001, 0.985, 192.0, 0.0, 0.0, 0.0, 0.0, 0.0, 0.0, 0.0, 0.0, 0.0, 1.645922005781754E9, 0.0, 2022-02-27 11:33:25.781
46.0, -442.4080780038927, -3998.570620843246, -1567.952521795335, -9682.507477105555, 39.00379407451082, 251.6806425667575, -5231.872824653724, -1244.455724293676, -1250.1107156408686, -4842.684250197917, -3680.706462944325, -2792.4257865459667, -2966.277654919345, -2071.0455859953863, -9227.425959995504, -14348.03180075071, 0.009500000000000001, -0.10400000000000001, 0.9855, 192.0, 0.0, 40.0, 126.0, 96.0, 15.0, 104.0, 0.0, 0.0, 0.0, 1.645922005789149E9, 0.0, 2022-02-27 11:33:25.789
48.0, -749.4092880975352, -4241.668193539166, -1862.4367549940057, -9990.201591277313, -264.7787648175675, -22.105875266298685, -5548.3958778853275, -1642.1156098980439, -3785.4243857174383, -5727.679220161345, -3685.914419402411, -2975.4195184015657, -2847.5898918616645, -2160.1619911386956, -9634.80885443793, -15465.686078749428, 0.009500000000000001, -0.10400000000000001, 0.9855, 192.0, 0.0, 0.0, 0.0, 0.0, 0.0, 0.0, 0.0, 0.0, 0.0, 1.64592200579719E9, 0.0, 2022-02-27 11:33:25.797
50.0, -809.2672597488476, -4263.885827527742, -1831.8595685791456, -9974.488314925233, -282.5484016595366, 50.514942468993965, -5355.790895913947, -1390.1220429089121, -1420.2298426902107, -5198.009931803934, -3903.463948185915, -2912.856985671161, -3183.9165906806697, -2286.40464382227, -9370.633586720656, -14646.89697586262, 0.009500000000000001, -0.10400000000000001, 0.9855, 192.0, 0.0, 0.0, 0.0, 0.0, 0.0, 0.0, 0.0, 0.0, 0.0, 1.645922005806681E9, 0.0, 2022-02-27 11:33:25.806
52.0, -352.62112052692424, -3939.3832015255934, -1540.146951692933, -9640.28503182948, 119.96181249163301, 257.9838345031541, -5300.626790598249, -1342.3787167523762, -2551.004594684195, -5127.020791413879, -3572.27815059163, -2869.8075258502395, -2789.4977080223216, -2011.2993730663507, -9373.606368733212, -14795.44666951259, 0.009500000000000001, -0.10400000000000001, 0.9855, 192.0, 0.0, 0.0, 0.0, 0.0, 0.0, 0.0, 0.0, 0.0, 0.0, 1.645922005812765E9, 0.0, 2022-02-27 11:33:25.812
54.0, -1045.011108518971, -4475.914475430784, -2034.031097177398, -10188.975654718359, -504.90355550093125, -149.10848726135342, -5565.517314138093, -1660.3993368624851, -3145.426886728631, -5835.146407502461, -3935.091666590174, -3035.1210278416906, -3129.981831310014, -2374.47051697618, -9656.557101792945, -15414.500583946776, 0.009500000000000001, -0.10400000000000001, 0.9855, 192.0, 0.0, 0.0, 0.0, 0.0, 0.0, 0.0, 0.0, 0.0, 0.0, 1.645922005818903E9, 0.0, 2022-02-27 11:33:25.818
56.0, -470.6383312509455, -4035.7639236168775, -1574.7474521097486, -9686.575494596422, 38.13207604075385, 254.4299071347603, -5225.569632717327, -1232.72105845464, -1238.9795469021258, -4842.572491475641, -3682.360492034017, -2787.3295888101566, -2965.7412130524176, -2072.006711006965, -9222.329762259695, -14335.447768622373, 0.009750000000000002, -0.10300000000000001, 0.98675, 192.0, 0.0, 40.0, 126.0, 104.0, 15.0, 112.0, 0.0, 0.0, 0.0, 1.645922005826788E9, 0.0, 2022-02-27 11:33:25.826
58.0, -778.3324454227026, -4288.204525495115, -1857.005281091366, -9985.038338308137, -250.36188964389441, -19.155444998198153, -5542.025630715565, -1636.2371011062983, -3790.431176475427, -5725.645211415913, -3680.795869922146, -2984.561381883786, -2839.476208624388, -2155.423421314171, -9625.845804911352, -15446.731799451329, 0.009750000000000002, -0.10300000000000001, 0.98675, 192.0, 0.0, 0.0, 0.0, 0.0, 0.0, 0.0, 0.0, 0.0, 0.0, 1.645922005833949E9, 0.0, 2022-02-27 11:33:25.833
60.0, -894.762682290397, -4359.1042589073495, -1850.6797374105142, -9992.414413978388, -292.04789305304206, 31.71712538208072, -5364.485724507061, -1403.4213308598198, -1495.9128494158804, -5253.75518247547, -3923.4464077289595, -2935.5216545488424, -3195.718311753072, -2306.431806854225, -9375.193342589539, -14662.498493492425, 0.009750000000000002, -0.10300000000000001, 0.98675, 192.0, 0.0, 0.0, 0.0, 0.0, 0.0, 0.0, 0.0, 0.0, 0.0, 1.645922005841331E9, 0.0, 2022-02-27 11:33:25.841
62.0, -442.60924370399044, -4050.7842958908436, -1549.1994081973326, -9642.989592908572, 137.9773185226105, 267.1033462409194, -5280.845496755302, -1327.581861922963, -2534.821931698553, -5149.216073657999, -3584.9962931867, -2865.627749637097, -2789.9223911669724, -2011.5005387664485, -9359.882397637653, -14767.752858132466, 0.009750000000000002, -0.10300000000000001, 0.98675, 192.0, 0.0, 0.0, 0.0, 0.0, 0.0, 0.0, 0.0, 0.0, 0.0, 1.645922005849375E9, 0.0, 2022-02-27 11:33:25.849
64.0, -1178.9874647840816, -4609.823776462528, -2046.4363153500935, -10201.49263161333, -483.64704652393425, -136.54680687747086, -5551.614529086892, -1656.1972089048875, -3252.7376118585603, -5879.872248157531, -3943.4735707609143, -3086.37357787771, -3114.112092746746, -2368.6590634178, -9649.695116245166, -15424.871793374037, 0.009750000000000002, -0.10300000000000001, 0.98675, 192.0, 0.0, 0.0, 0.0, 0.0, 0.0, 0.0, 0.0, 0.0, 0.0, 1.645922005857414E9, 0.0, 2022-02-27 11:33:25.857
66.0, -657.0965834971171, -4214.711989726065, -1591.9135918514244, -9703.361654682358, 51.990157603044224, 263.83999155044455, -5215.1090163122435, -1221.4334275047097, -1277.1563264317901, -4885.487840829831, -3721.8783762310004, -2840.3702784026004, -2970.0998032212024, -2074.308940685861, -9213.612581922125, -14327.959934229844, 0.009875000000000002, -0.10550000000000001, 0.988375, 192.0, 0.0, 40.0, 126.0, 80.0, 15.0, 120.0, 0.0, 0.0, 0.0, 1.645922005864046E9, 0.0, 2022-02-27 11:33:25.864
68.0, -979.8781251762064, -4488.610266281398, -1862.6602724385586, -9990.425108721865, -222.04222941902037, 2.81631980136869, -5507.358075065384, -1610.309077538142, -3844.164770145985, -5761.2962438221275, -3724.78410301019, -3031.343583028744, -2833.642403321553, -2142.1017816188078, -9608.903182614229, -15423.642447428996, 0.009875000000000002, -0.10550000000000001, 0.988375, 192.0, 0.0, 0.0, 0.0, 0.0, 0.0, 0.0, 0.0, 0.0, 0.0, 1.645922005872095E9, 0.0, 2022-02-27 11:33:25.872
70.0, -1112.6698389851856, -4566.1931712857695, -1867.398842263084, -10007.859469397006, -286.63877089485777, 47.51980871198282, -5349.755924911014, -1387.3951300853646, -1595.154594797444, -5316.049494272411, -3979.7281002674226, -2989.2328964749454, -3194.243096619022, -2276.145193117284, -9367.23612156345, -14670.790990685344, 0.009875000000000002, -0.10550000000000001, 0.988375, 192.0, 0.0, 0.0, 0.0, 0.0, 0.0, 0.0, 0.0, 0.0, 0.0, 1.645922005887084E9, 0.0, 2022-02-27 11:33:25.887
72.0, -614.9635451988632, -4182.8384021327975, -1549.4452773863409, -9644.710677231631, 139.31842318992892, 283.5542301600254, -5286.8357642693245, -1316.45069318422, -2571.0764612050607, -5171.076079735289, -3638.4169624348838, -2915.6509537280745, -2792.8951731795282, -2013.6686579786133, -9351.299327766816, -14741.891889797675, 0.009875000000000002, -0.10550000000000001, 0.988375, 192.0, 0.0, 0.0, 0.0, 0.0, 0.0, 0.0, 0.0, 0.0, 0.0, 1.645922005893701E9, 0.0, 2022-02-27 11:33:25.893
74.0, -1304.3136959449882, -4721.090760361048, -2053.6559288091576, -10202.520811858274, -492.9900757062526, -135.27275744351834, -5553.737944810146, -1641.1544848864658, -3320.239880113588, -5883.292065059193, -3986.746548026389, -3125.3550202077654, -3118.269517215433, -2360.947711580719, -9654.009002925039, -15424.24594452929, 0.009875000000000002, -0.10550000000000001, 0.988375, 192.0, 0.0, 0.0, 0.0, 0.0, 0.0, 0.0, 0.0, 0.0, 0.0, 1.645922005901706E9, 0.0, 2022-02-27 11:33:25.901
76.0, -717.5357005042673, -4272.021862509473, -1599.7143506663265, -9707.49672740659, 37.327413240362795, 257.42504089177146, -5198.41226320413, -1209.3858372432992, -1307.4429401687314, -4932.113579763602, -3750.756830067257, -2861.7832495907846, -2978.369948669666, -2070.93382727311, -9214.573706933703, -14317.007579446743, 0.010937500000000001, -0.10775000000000001, 0.9891875, 192.0, 0.0, 48.0, 126.0, 72.0, 15.0, 120.0, 0.0, 0.0, 0.0, 1.645922005909606E9, 0.0, 2022-02-27 11:33:25.909
78.0, -954.4194882416116, -4459.4188880227675, -1858.7934206477905, -9977.997538804715, -225.41734283177172, -0.40233140019552716, -5512.588383267926, -1617.0593043636447, -3850.8926452270325, -5747.862845404487, -3726.684001288891, -3027.879062638171, -2835.385839389067, -2149.857836944799, -9611.965371604607, -15416.24402001429, 0.010937500000000001, -0.10775000000000001, 0.9891875, 192.0, 0.0, 0.0, 0.0, 0.0, 0.0, 0.0, 0.0, 0.0, 0.0, 1.645922005916997E9, 0.0, 2022-02-27 11:33:25.916
80.0, -1032.8070560463734, -4487.0679959139825, -1861.006243348866, -10000.349283260022, -293.2995907425393, 44.859951121801274, -5360.0377273604545, -1391.999589443158, -1580.670664390405, -5299.084520230833, -3957.845742445677, -2960.957939738982, -3190.845631461815, -2289.1986118791833, -9382.390604304148, -14675.6636709766, 0.010937500000000001, -0.10775000000000001, 0.9891875, 192.0, 0.0, 0.0, 0.0, 0.0, 0.0, 0.0, 0.0, 0.0, 0.0, 1.645922005924332E9, 0.0, 2022-02-27 11:33:25.924
82.0, -522.7849510651769, -4113.302125132337, -1542.091553460545, -9636.686400972176, 138.22318771161886, 277.38514869036067, -5268.261464626964, -1319.512882174597, -2515.644134955899, -5146.600919556728, -3609.1361771984316, -2878.56940967672, -2779.7523474398076, -1994.1555850691302, -9351.70165916701, -14734.672276338611, 0.010937500000000001, -0.10775000000000001, 0.9891875, 192.0, 0.0, 0.0, 0.0, 0.0, 0.0, 0.0, 0.0, 0.0, 0.0, 1.645922005932673E9, 0.0, 2022-02-27 11:33:25.932
84.0, -1194.0748922914138, -4622.273698124135, -2044.3352513712946, -10199.212753678888, -493.3924071064481, -145.8898360597892, -5545.66896506178, -1666.6801770544264, -3313.288487587987, -5880.922780146931, -3947.4074777850483, -3082.842002253771, -3101.2151361960337, -2366.379185483359, -9663.039107684983, -15442.395561026999, 0.010937500000000001, -0.10775000000000001, 0.9891875, 192.0, 0.0, 0.0, 0.0, 0.0, 0.0, 0.0, 0.0, 0.0, 0.0, 1.645922005939418E9, 0.0, 2022-02-27 11:33:25.939
86.0, -621.2220336463492, -4169.963797326541, -1592.5170889517176, -9710.357750696869, 35.38281147275108, 249.53487509904804, -5191.840850334269, -1236.3420410563995, -1245.4839045386202, -4888.773547264761, -3720.6043267970476, -2825.931051484472, -2980.627474859652, -2077.9522750320766, -9222.709741915434, -14323.55664057215, 0.01246875, -0.106875, 0.9885937499999999, 192.0, 0.0, 56.0, 126.0, 88.0, 15.0, 112.0, 0.0, 0.0, 0.0, 1.645922005946503E9, 0.0, 2022-02-27 11:33:25.946
88.0, -837.1175333401601, -4346.296709334459, -1837.2239872484192, -9965.324099698557, -218.86828170636676, 9.767712326969187, -5544.596081327925, -1632.951394671368, -3774.427327445427, -5700.208926225773, -3672.950407618333, -2980.538067881831, -2820.32076362619, -2125.0474005994083, -9609.014941336507, -15410.901953089471, 0.01246875, -0.106875, 0.9885937499999999, 192.0, 0.0, 0.0, 0.0, 0.0, 0.0, 0.0, 0.0, 0.0, 0.0, 1.645922005953987E9, 0.0, 2022-02-27 11:33:25.953
90.0, -950.0161945839161, -4407.92046879774, -1854.3007200122738, -10000.326931515567, -301.6367914243688, 45.172875544175575, -5347.453695232117, -1398.481595335197, -1541.5104081047068, -5277.135107175721, -3920.808901883233, -2930.313698090756, -3188.051663404902, -2284.705911243667, -9388.827906707276, -14677.518865766391, 0.01246875, -0.106875, 0.9885937499999999, 192.0, 0.0, 0.0, 0.0, 0.0, 0.0, 0.0, 0.0, 0.0, 0.0, 1.645922005961974E9, 0.0, 2022-02-27 11:33:25.961
92.0, -437.89302562392066, -4029.863063080676, -1527.3394021200422, -9637.424008539201, 130.17655970770832, 274.4347184222601, -5274.810525752369, -1330.8005131245272, -2476.103899014461, -5120.002343654913, -3583.2305053747305, -2849.2215692069017, -2794.3033330802123, -1989.551125711337, -9352.7074876675, -14731.587735603778, 0.01246875, -0.106875, 0.9885937499999999, 192.0, 0.0, 0.0, 0.0, 0.0, 0.0, 0.0, 0.0, 0.0, 0.0, 1.64592200596919E9, 0.0, 2022-02-27 11:33:25.969
94.0, -1115.0391238974482, -4540.019278528604, -2032.5558820433478, -10193.893038498527, -502.84719501104297, -151.09779251787575, -5577.743718355146, -1685.4332906524292, -3297.0834728578893, -5855.285329256693, -3917.746712892856, -3066.860504968227, -3104.8361187977935, -2362.6911476482333, -9667.062421686938, -15450.263375075267, 0.01246875, -0.106875, 0.9885937499999999, 192.0, 0.0, 0.0, 0.0, 0.0, 0.0, 0.0, 0.0, 0.0, 0.0, 1.645922005976564E9, 0.0, 2022-02-27 11:33:25.976
96.0, -550.7693351232214, -4098.035883669363, -1587.0632633046228, -9707.563782639954, 13.656915862192616, 241.77881977305648, -5205.944801085568, -1234.5986049888857, -1207.1953662866792, -4841.410200763965, -3696.330332318584, -2797.901963937517, -2981.5215446378643, -2078.354606432272, -9223.424997738004, -14324.02602720571, 0.012234375, -0.10743749999999999, 0.988296875, 192.0, 0.0, 48.0, 126.0, 80.0, 15.0, 112.0, 0.0, 0.0, 0.0, 1.645922005984525E9, 0.0, 2022-02-27 11:33:25.984
98.0, -758.2605789018368, -4271.016034008984, -1822.8294638192015, -9948.381477401434, -216.58840377192544, 5.587936113826766, -5513.817729212968, -1623.0719236221223, -3748.7004695773685, -5677.119574203441, -3654.756087631713, -2968.3340154092334, -2824.2323189058684, -2135.3068513043945, -9610.08782507036, -15400.061357028648, 0.012234375, -0.10743749999999999, 0.988296875, 192.0, 0.0, 0.0, 0.0, 0.0, 0.0, 0.0, 0.0, 0.0, 0.0, 1.645922005992603E9, 0.0, 2022-02-27 11:33:25.992
100.0, -909.6489440976316, -4364.871008976818, -1866.6388829516034, -10010.45227175382, -328.63769872637977, 10.505319893994319, -5382.121250882298, -1436.9936510316911, -1584.381053969986, -5288.467441614562, -3912.136425034574, -2919.763674707851, -3200.3451228553204, -2304.3977981087924, -9399.534392301368, -14715.941514485065, 0.012234375, -0.10743749999999999, 0.988296875, 192.0, 0.0, 0.0, 0.0, 0.0, 0.0, 0.0, 0.0, 0.0, 0.0, 1.645922006006237E9, 0.0, 2022-02-27 11:33:26.006
102.0, -387.89217327739874, -3977.4035188440707, -1531.2509573997208, -9631.523148003, 126.2873561724849, 263.81763980598924, -5268.037947182411, -1327.872434600882, -2391.9942846291406, -5080.953846091491, -3570.1547348683757, -2830.781380031274, -2802.998161673327, -1997.2848292928732, -9344.079714307753, -14709.14658417065, 0.012234375, -0.10743749999999999, 0.988296875, 192.0, 0.0, 0.0, 0.0, 0.0, 0.0, 0.0, 0.0, 0.0, 0.0, 1.645922006014322E9, 0.0, 2022-02-27 11:33:26.014
104.0, -1074.7165769000742, -4497.863888485896, -2044.9387484715878, -10201.090300213134, -501.2155176658056, -160.53022867801533, -5546.831255773456, -1674.0339009802224, -3283.739481418071, -5847.462218697336, -3912.7622738793225, -3048.956757659526, -3113.240374712989, -2370.111926807395, -9659.395773338769, -15447.938793651914, 0.012234375, -0.10743749999999999, 0.988296875, 192.0, 0.0, 0.0, 0.0, 0.0, 0.0, 0.0, 0.0, 0.0, 0.0, 1.645922006022298E9, 0.0, 2022-02-27 11:33:26.022
106.0, -501.84136651055417, -4053.846484881221, -1593.992304085768, -9703.831041315918, 21.32356421036294, 236.25793889259566, -5211.9350685995905, -1241.8182184479497, -1185.8718020763163, -4838.683287940417, -3688.149593847942, -2787.866030677084, -2984.5837336282416, -2077.7958128208893, -9212.338532488171, -14317.924000969411, 0.016, -0.10400000000000001, 0.99, 192.0, 0.0, 64.0, 126.0, 96.0, 15.0, 120.0, 0.0, 0.0, 0.0, 1.645922006028932E9, 0.0, 2022-02-27 11:33:26.028
108.0, -721.0672761282059, -4240.371792360758, -1825.9587080429446, -9947.666221578864, -204.1161303658641, 9.141863482220588, -5511.627258256347, -1623.4519032778626, -3725.2311378992963, -5652.040916924586, -3645.6142241494927, -2954.4312303580323, -2819.359638614612, -2126.2543947999948, -9602.085900555361, -15396.060394771148, 0.016, -0.10400000000000001, 0.99, 192.0, 0.0, 0.0, 0.0, 0.0, 0.0, 0.0, 0.0, 0.0, 0.0, 1.645922006036952E9, 0.0, 2022-02-27 11:33:26.036
110.0, -864.7666412313749, -4324.012020112517, -1859.8886561261006, -9998.98582684825, -313.72908517468994, 24.58691890083777, -5368.754907698025, -1423.7167148252386, -1549.5793878530728, -5271.077784428333, -3909.320105233205, -2917.796721195784, -3195.7406634975273, -2297.6922747722, -9395.511078299412, -14701.926970711587, 0.016, -0.10400000000000001, 0.99, 192.0, 0.0, 0.0, 0.0, 0.0, 0.0, 0.0, 0.0, 0.0, 0.0, 1.6459220060449E9, 0.0, 2022-02-27 11:33:26.044
112.0, -348.9554344362539, -3946.044021373275, -1525.3724486079752, -9620.704903686632, 139.09490574537585, 266.25397995161774, -5274.072918185344, -1323.1785682652676, -2387.23336306016, -5063.519485416351, -3560.632891730415, -2816.409208346511, -2797.0078941593047, -1992.9262391240884, -9351.925176611565, -14712.901677239142, 0.016, -0.10400000000000001, 0.99, 192.0, 0.0, 0.0, 0.0, 0.0, 0.0, 0.0, 0.0, 0.0, 0.0, 1.645922006051477E9, 0.0, 2022-02-27 11:33:26.051
114.0, -1038.7973235603956, -4466.660853226287, -2036.422733834116, -10189.757965774294, -494.6888082848559, -156.41750769823884, -5565.606721115914, -1677.6325318375268, -3310.0251328975123, -5860.5603409481455, -3899.6865033729678, -3046.5874727472633, -3099.9410867620813, -2357.594949912423, -9674.237331657092, -15462.936814181427, 0.016, -0.10400000000000001, 0.99, 192.0, 0.0, 0.0, 0.0, 0.0, 0.0, 0.0, 0.0, 0.0, 0.0, 1.64592200605863E9, 0.0, 2022-02-27 11:33:26.058
116.0, -491.13488091646207, -4039.0719817962627, -1593.6570279189382, -9710.849489074884, 18.551947897904864, 235.56503481448112, -5218.729998914004, -1243.941634171204, -1165.978749511093, -4844.4276862654315, -3680.706462944325, -2785.250876575813, -2980.5157161373754, -2073.5936848632914, -9222.374465748604, -14324.204841161352, 0.016, -0.10400000000000001, 0.99, 192.0, 0.0, 64.0, 126.0, 96.0, 15.0, 120.0, 0.0, 0.0, 0.0, 1.645922006066463E9, 0.0, 2022-02-27 11:33:26.066
118.0, -699.0284560952731, -4219.271745594949, -1823.6788301085032, -9942.659430820875, -206.57482225594788, 10.997058272011074, -5511.80607221199, -1621.2837840656978, -3717.855062229045, -5628.884509668888, -3639.1769217463643, -2944.3058901197783, -2814.799882745729, -2124.6003657103024, -9611.071301826394, -15394.384013936999, 0.016, -0.10400000000000001, 0.99, 192.0, 0.0, 0.0, 0.0, 0.0, 0.0, 0.0, 0.0, 0.0, 0.0, 1.645922006074438E9, 0.0, 2022-02-27 11:33:26.074
120.0, -857.8823039391403, -4320.52514797749, -1870.5951417201927, -10008.686483941852, -320.14403583336303, 18.395485686717713, -5367.436154775161, -1426.9130142823476, -1573.182829997877, -5286.0758049578435, -3907.062579043219, -2909.4818722584096, -3191.5161837954743, -2309.784568522521, -9409.078587183785, -14722.423520377102, 0.016, -0.10400000000000001, 0.99, 192.0, 0.0, 0.0, 0.0, 0.0, 0.0, 0.0, 0.0, 0.0, 0.0, 1.645922006081238E9, 0.0, 2022-02-27 11:33:26.081
122.0, -340.2829575875947, -3933.1917683114734, -1532.927338233869, -9623.342409532359, 133.01523125353233, 274.54647714453665, -5267.121525659743, -1315.0425332835357, -2360.3218627359706, -5075.276502999843, -3560.834057430513, -2823.0700281941927, -2788.156603355003, -1993.9544193690324, -9350.114685310684, -14703.759813756922, 0.016, -0.10400000000000001, 0.99, 192.0, 0.0, 0.0, 0.0, 0.0, 0.0, 0.0, 0.0, 0.0, 0.0, 1.645922006089288E9, 0.0, 2022-02-27 11:33:26.089
124.0, -1036.562149114865, -4459.1283153448485, -2046.4363153500935, -10192.618989064573, -507.27284041319376, -155.7246036201243, -5573.653349119824, -1680.627665594538, -3324.3078976044535, -5846.098762285562, -3900.133538262074, -3043.748801201439, -3103.3162001748324, -2353.392821954825, -9682.01573872754, -15467.429514816942, 0.016, -0.10400000000000001, 0.99, 192.0, 0.0, 0.0, 0.0, 0.0, 0.0, 0.0, 0.0, 0.0, 0.0, 1.645922006097184E9, 0.0, 2022-02-27 11:33:26.097
126.0, -493.0347791951632, -4036.389772461626, -1608.856214148547, -9710.178936741226, 14.930965296145118, 238.53781682703698, -5226.597812962272, -1248.00965166207, -1164.9282175216936, -4830.5696047031415, -3692.5528875056375, -2775.058481104193, -2991.959809298493, -2080.2768564554285, -9228.409436751537, -14323.780158016702, 0.02, -0.11, 0.986, 192.0, 0.0, 80.0, 126.0, 72.0, 15.0, 104.0, 0.0, 0.0, 0.0, 1.645922006104381E9, 0.0, 2022-02-27 11:33:26.104
128.0, -694.8263281376753, -4214.086140881317, -1818.5155771393272, -9940.290145908612, -193.94608663869937, 12.919308295167482, -5514.130653635341, -1620.8143974321363, -3698.8784311864893, -5640.418009807827, -3640.249805480219, -2942.2718813743454, -2815.738656012852, -2124.868586643766, -9603.225839522582, -15386.247978955267, 0.02, -0.11, 0.986, 192.0, 0.0, 0.0, 0.0, 0.0, 0.0, 0.0, 0.0, 0.0, 0.0, 1.64592200611318E9, 0.0, 2022-02-27 11:33:26.113
130.0, -857.7481934724085, -4316.278316530981, -1871.3551010316733, -10012.285114799157, -332.16927435031823, 4.4032936576954915, -5389.251457363541, -1442.4921801676967, -1589.9019348504467, -5269.021423938444, -3906.101454031641, -2910.152424592069, -3198.9146112101807, -2319.2840599160268, -9410.598505806745, -14736.371008917215, 0.02, -0.11, 0.986, 192.0, 0.0, 0.0, 0.0, 0.0, 0.0, 0.0, 0.0, 0.0, 0.0, 1.645922006119731E9, 0.0, 2022-02-27 11:33:26.119
132.0, -329.26354757112836, -3933.012954355831, -1523.7631230071931, -9618.648543196743, 134.28928068748482, 268.9808927751652, -5265.579255292328, -1321.8374635979492, -2312.5114813460686, -5049.661403854061, -3541.32098452103, -2810.0836646656594, -2792.64930399052, -1992.5686112128035, -9347.655993420602, -14697.657787520622, 0.02, -0.11, 0.986, 192.0, 0.0, 0.0, 0.0, 0.0, 0.0, 0.0, 0.0, 0.0, 0.0, 1.645922006134009E9, 0.0, 2022-02-27 11:33:26.134
134.0, -1019.7759890289294, -4450.589948962921, -2042.7929810038784, -10187.120459928568, -499.4050263649257, -159.09971703287567, -5574.122735753386, -1696.5421076467167, -3336.0202116990345, -5859.353346747559, -3873.3114449157056, -3028.5496149718306, -3088.139365689679, -2351.6717376317665, -9682.306311405458, -15478.605387044596, 0.02, -0.11, 0.986, 192.0, 0.0, 0.0, 0.0, 0.0, 0.0, 0.0, 0.0, 0.0, 0.0, 1.64592200614154E9, 0.0, 2022-02-27 11:33:26.141
136.0, -496.1863751633615, -4046.738630144433, -1610.9349263828906, -9713.174070498237, 12.069942005865814, 230.0665056784756, -5218.305315769353, -1235.783247445017, -1141.3471271213446, -4833.944718115892, -3686.272047313696, -2778.768870683774, -2987.73532959644, -2080.478022155526, -9226.330724517195, -14322.193184160375, 0.018000000000000002, -0.106, 0.986, 192.0, 0.0, 72.0, 126.0, 88.0, 15.0, 104.0, 0.0, 0.0, 0.0, 1.645922006149411E9, 0.0, 2022-02-27 11:33:26.149
138.0, -685.6174094220888, -4212.432111791624, -1816.9956585163663, -9926.588526557509, -179.23863878710733, 16.27206996346354, -5497.076272615943, -1609.1914903153768, -3683.701596701336, -5635.075942883008, -3637.9252240568667, -2945.982270953926, -2809.971905943383, -2122.0522668423973, -9598.308455742414, -15372.501656115253, 0.018000000000000002, -0.106, 0.986, 192.0, 0.0, 0.0, 0.0, 0.0, 0.0, 0.0, 0.0, 0.0, 0.0, 1.645922006156832E9, 0.0, 2022-02-27 11:33:26.156
140.0, -858.4634492949783, -4317.775883409487, -1876.9206854010447, -10010.251106053724, -317.0594950985307, 12.651087361703798, -5376.890942679756, -1447.2083982477664, -1613.885356650991, -5291.440223627117, -3912.136425034574, -2914.734532205407, -3192.0302739179465, -2318.4793971156355, -9411.269058140404, -14747.703343356055, 0.018000000000000002, -0.106, 0.986, 192.0, 0.0, 0.0, 0.0, 0.0, 0.0, 0.0, 0.0, 0.0, 0.0, 1.64592200616411E9, 0.0, 2022-02-27 11:33:26.164
142.0, -324.3908672798714, -3926.3074310192387, -1523.7184195182824, -9608.634961680766, 150.76251635104614, 282.3248842149835, -5268.462630327062, -1298.0105040085919, -2278.3580158183595, -5029.813054777748, -3543.6902694332925, -2803.3334378401564, -2783.7756614417626, -1982.9797128414766, -9336.055438048297, -14677.228293088472, 0.018000000000000002, -0.106, 0.986, 192.0, 0.0, 0.0, 0.0, 0.0, 0.0, 0.0, 0.0, 0.0, 0.0, 1.645922006172076E9, 0.0, 2022-02-27 11:33:26.172
144.0, -1026.8391402768063, -4460.5364752455325, -2049.5655595738363, -10185.265265138778, -499.5614885761129, -157.53509492100417, -5569.272407206584, -1678.727767315837, -3358.483714876618, -5854.078335056107, -3876.328930417172, -3029.8907196391488, -3082.2608568979335, -2341.434638671236, -9681.903980005263, -15473.643299775518, 0.018000000000000002, -0.106, 0.986, 192.0, 0.0, 0.0, 0.0, 0.0, 0.0, 0.0, 0.0, 0.0, 0.0, 1.645922006180046E9, 0.0, 2022-02-27 11:33:26.180
146.0, -489.70436927132243, -4043.0505923093074, -1611.60547871655, -9713.039960031505, 6.102026236298828, 221.32697359645053, -5235.382048533207, -1256.033927921525, -1140.8330369988726, -4830.547252958686, -3682.762823434213, -2778.6571119614973, -2991.982161042948, -2082.512030900959, -9225.459006483437, -14319.913306225933, 0.018000000000000002, -0.10400000000000001, 0.99, 192.0, 0.0, 72.0, 126.0, 96.0, 15.0, 120.0, 0.0, 0.0, 0.0, 1.645922006186207E9, 0.0, 2022-02-27 11:33:26.186
148.0, -655.6213683630667, -4188.873373135731, -1810.267783435319, -9921.827604988528, -174.3436067513951, 12.94166003962279, -5518.399836826306, -1632.3031940821643, -3664.9261313588777, -5612.835957149978, -3618.0768749805543, -2934.538177792809, -2796.583211014654, -2114.8103016388777, -9599.113118542806, -15373.731002060296, 0.018000000000000002, -0.10400000000000001, 0.99, 192.0, 0.0, 0.0, 0.0, 0.0, 0.0, 0.0, 0.0, 0.0, 0.0, 1.645922006193838E9, 0.0, 2022-02-27 11:33:26.193
150.0, -859.0892981397269, -4318.535842720967, -1894.198583864997, -10019.370617791488, -329.7776376936004, -3.6880378351256655, -5372.39824204424, -1432.6350608629061, -1618.087484608589, -5284.220610168053, -3901.519346418303, -2918.5119770183537, -3191.7397012400274, -2315.0372284695186, -9417.929877988086, -14753.87242482572, 0.018000000000000002, -0.10400000000000001, 0.99, 192.0, 0.0, 0.0, 0.0, 0.0, 0.0, 0.0, 0.0, 0.0, 0.0, 1.645922006201683E9, 0.0, 2022-02-27 11:33:26.201
152.0, -317.3500677764497, -3919.0878175601742, -1531.8544545000143, -9605.349255245836, 152.57300765192602, 277.7651283461009, -5253.777534219925, -1301.5197278880748, -2267.763288946544, -5010.814071990737, -3548.540597980094, -2808.8096152317066, -2795.577382514165, -1991.0486925898426, -9333.775560113854, -14666.030069116363, 0.018000000000000002, -0.10400000000000001, 0.99, 192.0, 0.0, 0.0, 0.0, 0.0, 0.0, 0.0, 0.0, 0.0, 0.0, 1.645922006209642E9, 0.0, 2022-02-27 11:33:26.209
154.0, -1015.3279918823233, -4448.1536088172925, -2052.6724520531243, -10174.469372566864, -486.97745644777495, -158.02683329902092, -5582.258770735118, -1705.3263432176523, -3386.4010437012967, -5861.722631659822, -3872.2832646707616, -3034.3163650413, -3072.1578684041347, -2340.5629206374792, -9685.122631206827, -15483.075735935658, 0.018000000000000002, -0.10400000000000001, 0.99, 192.0, 0.0, 0.0, 0.0, 0.0, 0.0, 0.0, 0.0, 0.0, 0.0, 1.645922006216362E9, 0.0, 2022-02-27 11:33:26.216
156.0, -498.62271530898994, -4052.9524151030087, -1624.7259527118151, -9719.186689756714, 11.175872227653532, 214.5990985154031, -5194.523059668906, -1229.8376834199053, -1129.7689234934955, -4843.980651376325, -3698.9678381643107, -2785.250876575813, -2996.273695978367, -2079.807469821867, -9225.570765205714, -14311.330236355096, 0.014, -0.106, 0.986, 192.0, 0.0, 56.0, 126.0, 88.0, 15.0, 104.0, 0.0, 0.0, 0.0, 1.645922006224275E9, 0.0, 2022-02-27 11:33:26.224
158.0, -633.5601965856787, -4176.758727640954, -1791.1570419260315, -9903.521526279632, -152.59535939638133, 19.982459543044513, -5490.236638812618, -1609.504414737751, -3642.52968341466, -5596.4744802086925, -3616.959287757789, -2930.5148637908537, -2790.2576673338017, -2122.8792813872437, -9584.18215324666, -15346.216004635813, 0.014, -0.106, 0.986, 192.0, 0.0, 0.0, 0.0, 0.0, 0.0, 0.0, 0.0, 0.0, 0.0, 1.645922006232408E9, 0.0, 2022-02-27 11:33:26.232
160.0, -860.765678973875, -4323.229709056582, -1888.8565169401786, -10022.879841670972, -342.60753901094665, -14.103950751298756, -5389.229105619086, -1448.3930407038977, -1669.85412476708, -5327.493587433528, -3896.1102242601187, -2915.114511861147, -3183.2907418359214, -2326.9060047752864, -9426.445892625557, -14781.186256550105, 0.014, -0.106, 0.986, 192.0, 0.0, 0.0, 0.0, 0.0, 0.0, 0.0, 0.0, 0.0, 0.0, 1.645922006239518E9, 0.0, 2022-02-27 11:33:26.239
162.0, -311.4268554957933, -3914.975096580398, -1521.0362101836456, -9606.04215932395, 156.9986530540768, 274.23355272216236, -5266.920359959646, -1305.6324488678515, -2223.2609657360276, -5021.185281418, -3540.9186531208343, -2799.7124552383966, -2793.2975045797234, -1984.8349076312672, -9328.344086211215, -14648.394542741125, 0.014, -0.106, 0.986, 192.0, 0.0, 0.0, 0.0, 0.0, 0.0, 0.0, 0.0, 0.0, 0.0, 1.645922006253952E9, 0.0, 2022-02-27 11:33:26.253
164.0, -1006.5214045669323, -4443.996184348605, -2044.1117339267414, -10179.565570302675, -481.4118720784035, -166.02875781402085, -5573.094555508442, -1714.8928898445238, -3380.81310758747, -5821.981230018286, -3863.387270377549, -3025.9791643594704, -3068.8051067358383, -2334.9302810347417, -9685.055575973462, -15481.242892890323, 0.014, -0.106, 0.986, 192.0, 0.0, 0.0, 0.0, 0.0, 0.0, 0.0, 0.0, 0.0, 0.0, 1.645922006261961E9, 0.0, 2022-02-27 11:33:26.261
166.0, -493.83944199555424, -4045.486932454936, -1618.467464264329, -9717.890288578306, 15.355648440795951, 227.07137192146445, -5203.7766818734035, -1222.8415874053942, -1116.1790628646688, -4840.516130985753, -3684.8415356685564, -2780.668768962475, -2988.987027285937, -2088.2117257370624, -9220.899250614555, -14309.966779943321, 0.012, -0.106, 0.996, 192.0, 0.0, 48.0, 126.0, 88.0, 15.5, 16.0, 0.0, 0.0, 0.0, 1.645922006268639E9, 0.0, 2022-02-27 11:33:26.268
168.0, -640.4221821334579, -4174.165925284138, -1799.2260216743973, -9914.004494429171, -150.9189785622333, 34.287575994441035, -5456.910187829756, -1578.3013794781423, -3639.5121979131936, -5589.970122572198, -3616.981639502244, -2932.6829830030183, -2796.1361761255475, -2116.08435107283, -9583.578656146366, -15339.666943510407, 0.012, -0.106, 0.996, 192.0, 0.0, 0.0, 0.0, 0.0, 0.0, 0.0, 0.0, 0.0, 0.0, 1.645922006276628E9, 0.0, 2022-02-27 11:33:26.276
170.0, -863.4255365640565, -4322.2462323005475, -1889.9964559073992, -10025.047960883137, -333.8680069289216, -7.666648348170322, -5384.758756728024, -1437.5971481319843, -1666.4566596098734, -5327.247718244519, -3912.3152389902166, -2918.4225700405327, -3199.2498873770105, -2333.9915077676187, -9415.650000053645, -14771.127971545216, 0.012, -0.106, 0.996, 192.0, 0.0, 0.0, 0.0, 0.0, 0.0, 0.0, 0.0, 0.0, 0.0, 1.645922006284579E9, 0.0, 2022-02-27 11:33:26.284
172.0, -314.37728576389384, -3920.9653640944202, -1518.8457392270254, -9602.175307533182, 172.57781893942584, 292.2043552642292, -5219.109978569744, -1271.7919077625165, -2212.4874249085697, -5012.691618524983, -3547.6465282018817, -2798.8183854601843, -2789.765928955785, -1987.8300413882782, -9320.65508611859, -14635.94462107952, 0.012, -0.106, 0.996, 192.0, 0.0, 0.0, 0.0, 0.0, 0.0, 0.0, 0.0, 0.0, 0.0, 1.645922006291681E9, 0.0, 2022-02-27 11:33:26.291
174.0, -1016.3561721272674, -4425.310125983969, -2046.5704258168253, -10184.661768038484, -465.944464915331, -150.0919640173869, -5534.806017256501, -1679.979465005334, -3433.1385413573435, -5846.165817518928, -3874.809011794211, -3036.5068359979196, -3066.949911946048, -2345.212083484183, -9672.67270954522, -15480.147657412012, 0.011, -0.108, 0.994, 192.0, 0.0, 40.0, 126.0, 72.0, 15.5, 0.0, 0.0, 0.0, 0.0, 1.645922006299366E9, 0.0, 2022-02-27 11:33:26.299
176.0, -498.04156995315196, -4049.5549499458016, -1619.0262578757117, -9729.379085228335, 0.8270145448463613, 212.9450694257104, -5209.856356365247, -1245.7297737276285, -1115.977897164571, -4831.530729714719, -3700.8006812096455, -2798.572516271176, -3000.274658235867, -2096.101891529786, -9219.356980247137, -14311.151422399453, 0.011, -0.108, 0.994, 192.0, 0.0, 0.0, 0.0, 0.0, 0.0, 0.0, 0.0, 0.0, 0.0, 1.645922006306269E9, 0.0, 2022-02-27 11:33:26.306
178.0, -637.583510587634, -4188.560448713356, -1797.0355507177771, -9904.01326465765, -143.3864406807948, 27.604404402304223, -5467.013176323554, -1595.60162968655, -3619.7756075591574, -5605.482233224182, -3613.919450511867, -2918.735494462907, -2790.056501633704, -2110.9210981036545, -9572.536894385445, -15328.580478260576, 0.011, -0.108, 0.994, 192.0, 0.0, 0.0, 0.0, 0.0, 0.0, 0.0, 0.0, 0.0, 0.0, 1.645922006314271E9, 0.0, 2022-02-27 11:33:26.314
180.0, -878.3565018602017, -4340.2617383315255, -1901.9993426798992, -10032.513443531208, -341.4899517881813, -15.355648440795951, -5377.248570591041, -1451.7234506277384, -1696.0727210131552, -5348.459523732606, -3915.466834958415, -2932.638279514108, -3198.400521087709, -2343.692164861222, -9417.10286344324, -14786.617730452745, 0.011, -0.108, 0.994, 192.0, 0.0, 0.0, 0.0, 0.0, 0.0, 0.0, 0.0, 0.0, 0.0, 1.6459220063215E9, 0.0, 2022-02-27 11:33:26.321
182.0, -329.1294371043965, -3897.071349271697, -1525.283041630154, -9606.869173868798, 162.25131300107398, 280.5367446585589, -5229.056504852356, -1294.4789283846533, -2201.088035236363, -5015.463234837441, -3554.8214381720354, -2827.2721561517906, -2799.6454000050308, -2006.6502102196469, -9311.915554036565, -14632.502452433402, 0.011, -0.108, 0.994, 192.0, 0.0, 0.0, 0.0, 0.0, 0.0, 0.0, 0.0, 0.0, 0.0, 1.64592200632898E9, 0.0, 2022-02-27 11:33:26.328
184.0, -1064.4124227061777, -4507.184565923759, -2055.6228823212246, -10183.96886396037, -481.18835463385045, -152.43889718519418, -5560.868151291389, -1675.5761713476386, -3451.5340270440615, -5879.06758535714, -3873.0432239822417, -3046.028679135881, -3064.1559438891345, -2349.7494876086103, -9671.711584533643, -15485.959110970392, 0.010499999999999999, -0.10500000000000001, 0.993, 192.0, 0.0, 40.0, 126.0, 104.0, 15.5, 0.0, 0.0, 0.0, 0.0, 1.645922006336901E9, 0.0, 2022-02-27 11:33:26.336
186.0, -583.0452541166848, -4116.654886800634, -1641.0874296531, -9732.642439918809, 4.33623842432957, 221.41638057427176, -5212.627972677705, -1239.0466021354916, -1137.9273102196826, -4864.052517897191, -3720.1572919079417, -2812.2964873667347, -3006.957829828004, -2112.061037070875, -9213.657285411035, -14308.11158515353, 0.010499999999999999, -0.10500000000000001, 0.993, 192.0, 0.0, 0.0, 0.0, 0.0, 0.0, 0.0, 0.0, 0.0, 0.0, 1.645922006344958E9, 0.0, 2022-02-27 11:33:26.344
188.0, -758.1711719240155, -4302.442586713146, -1801.617658331115, -9897.598313998975, -124.85684452734525, 51.67723318066993, -5458.608920408359, -1565.829106072081, -3657.527703944171, -5623.385980532883, -3644.854264838012, -2956.2640734033675, -2792.1128621235925, -2117.89484237371, -9563.171513458672, -15314.901210653927, 0.010499999999999999, -0.10500000000000001, 0.993, 192.0, 0.0, 0.0, 0.0, 0.0, 0.0, 0.0, 0.0, 0.0, 0.0, 1.645922006351569E9, 0.0, 2022-02-27 11:33:26.351
190.0, -1086.3841875057444, -4538.499359905643, -1929.2684709153739, -10045.3209931041, -336.1478848633629, -3.889203535223429, -5374.722823467591, -1441.1734272448334, -1814.134635226087, -5411.536146585482, -3968.7310419954115, -2974.994835256915, -3199.9874949440355, -2340.9429002932193, -9423.517814101913, -14795.513724745957, 0.010499999999999999, -0.10500000000000001, 0.993, 192.0, 0.0, 0.0, 0.0, 0.0, 0.0, 0.0, 0.0, 0.0, 0.0, 1.645922006359526E9, 0.0, 2022-02-27 11:33:26.359
192.0, -569.522448721224, -4176.915189852141, -1544.7737627951817, -9613.03825533846, 173.20366778417443, 292.7184453867013, -5220.2722692814195, -1274.809393263983, -2233.4086577187372, -5071.409651209075, -3614.7688168011687, -2880.089328299681, -2803.087568651148, -2008.550108498348, -9301.83491728722, -14606.105042231686, 0.010499999999999999, -0.10500000000000001, 0.993, 192.0, 0.0, 0.0, 0.0, 0.0, 0.0, 0.0, 0.0, 0.0, 0.0, 1.645922006367454E9, 0.0, 2022-02-27 11:33:26.367
194.0, -1295.551812118508, -4717.156853336913, -2073.370167418738, -10193.177782675957, -460.51299101269143, -135.25040569906304, -5543.657308060802, -1666.434307865418, -3569.4841825347166, -5942.7924087992205, -3932.4988642333587, -3106.2889821873882, -3060.467906054009, -2342.9992607831077, -9672.136267678294, -15488.931892982948, 0.01225, -0.10350000000000001, 0.9915, 192.0, 0.0, 56.0, 126.0, 104.0, 15.0, 120.0, 0.0, 0.0, 0.0, 1.645922006381183E9, 0.0, 2022-02-27 11:33:26.381
196.0, -823.3488587556909, -4342.09458137686, -1669.3623863890632, -9752.088457594928, 7.465482648072559, 231.42996209024932, -5196.691178881071, -1226.976660129626, -1214.4149797457433, -4900.888192759538, -3791.235839275818, -2871.6627206400303, -3018.2678125223892, -2099.70052238709, -9213.366712733115, -14301.920151939412, 0.01225, -0.10350000000000001, 0.9915, 192.0, 0.0, 0.0, 0.0, 0.0, 0.0, 0.0, 0.0, 0.0, 0.0, 1.645922006389165E9, 0.0, 2022-02-27 11:33:26.389
198.0, -917.9190895460952, -4432.105056298382, -1814.782835815291, -9892.770337196629, -108.13773967477557, 64.37302403128434, -5440.951042288666, -1550.540512864651, -3700.0407218981654, -5638.495759784671, -3694.9668759068104, -3010.1988327740232, -2786.9943126433272, -2123.415723254171, -9557.89650176722, -15294.516419710688, 0.01225, -0.10350000000000001, 0.9915, 192.0, 0.0, 0.0, 0.0, 0.0, 0.0, 0.0, 0.0, 0.0, 0.0, 1.645922006397171E9, 0.0, 2022-02-27 11:33:26.397
200.0, -1192.622028901819, -4624.553576058576, -1950.7261455924686, -10053.300565874644, -337.17606510830706, -1.6763808341480297, -5366.564436741404, -1426.3989241598756, -1885.1237756161424, -5452.350431960873, -4006.5278418693356, -3015.2503270209227, -3208.5705648148737, -2366.6250546723672, -9431.452683383546, -14806.823707440342, 0.01225, -0.10350000000000001, 0.9915, 192.0, 0.0, 0.0, 0.0, 0.0, 0.0, 0.0, 0.0, 0.0, 0.0, 1.645922006403705E9, 0.0, 2022-02-27 11:33:26.403
202.0, -603.2512311042823, -4184.49243122249, -1562.4316409148744, -9616.502775729034, 173.62835092882526, 304.6766286702906, -5212.672676166615, -1255.4974860545976, -2249.434858493192, -5058.043308024801, -3637.5228926566715, -2874.1661160190247, -2813.6599437785085, -2017.580213258292, -9301.991379498408, -14593.565713592257, 0.01225, -0.10350000000000001, 0.9915, 192.0, 0.0, 0.0, 0.0, 0.0, 0.0, 0.0, 0.0, 0.0, 0.0, 1.64592200641173E9, 0.0, 2022-02-27 11:33:26.411
204.0, -1273.647102552307, -4688.256047756201, -2082.288513456406, -10195.927047243958, -462.0999648690182, -129.32719341840667, -5541.66800280428, -1655.146676915488, -3576.9049616938787, -5964.048917776217, -3931.850663644155, -3116.2802119589105, -3056.131667629679, -2346.3743741958588, -9670.795163010975, -15485.243855147823, 0.012125, -0.10475000000000001, 0.99075, 192.0, 0.0, 48.0, 126.0, 88.0, 15.0, 120.0, 0.0, 0.0, 0.0, 1.645922006419797E9, 0.0, 2022-02-27 11:33:26.419
206.0, -769.0788232182055, -4297.793423866442, -1671.016415478756, -9752.64725120631, 3.0621889903770674, 230.78176150104542, -5190.767966600414, -1215.1525873127684, -1192.1526422682575, -4911.438216142442, -3777.9365513249104, -2872.668549140519, -3017.6419636776404, -2119.5935749523132, -9209.388102220071, -14301.249599605751, 0.012125, -0.10475000000000001, 0.99075, 192.0, 0.0, 0.0, 0.0, 0.0, 0.0, 0.0, 0.0, 0.0, 0.0, 1.645922006426867E9, 0.0, 2022-02-27 11:33:26.426
208.0, -824.2876320228139, -4353.203398371148, -1798.7789867852912, -9884.81311617054, -95.75487324653545, 80.86861143930095, -5431.228033450608, -1533.0390969561456, -3668.591817449548, -5625.263527067128, -3669.955273861322, -2996.6983791230177, -2788.2907138217347, -2101.9804003215313, -9549.179321429649, -15287.430916718355, 0.012125, -0.10475000000000001, 0.99075, 192.0, 0.0, 0.0, 0.0, 0.0, 0.0, 0.0, 0.0, 0.0, 0.0, 1.645922006433527E9, 0.0, 2022-02-27 11:33:26.433
210.0, -1103.7961964364288, -4537.985269783172, -1952.2460642154294, -10067.449220114853, -347.5696262800248, -15.355648440795951, -5381.2271811040855, -1445.0179272911464, -1906.42498808205, -5457.759554119058, -3975.9283037100204, -3006.8460711057273, -3198.6240385322617, -2352.3869934543363, -9432.81613979532, -14839.121978178262, 0.012125, -0.10475000000000001, 0.99075, 192.0, 0.0, 0.0, 0.0, 0.0, 0.0, 0.0, 0.0, 0.0, 0.0, 1.645922006441466E9, 0.0, 2022-02-27 11:33:26.441
212.0, -493.48181408426933, -4078.1204793596844, -1548.4841523747627, -9617.933287374173, 178.7692521535459, 303.98372459217603, -5212.5832691887945, -1253.262311609067, -2148.7178979775786, -5026.750865787371, -3599.502575338194, -2857.0670315107145, -2809.703685009919, -2003.9232973960993, -9286.881600246621, -14578.366527362648, 0.012125, -0.10475000000000001, 0.99075, 192.0, 0.0, 0.0, 0.0, 0.0, 0.0, 0.0, 0.0, 0.0, 0.0, 1.645922006449485E9, 0.0, 2022-02-27 11:33:26.449
214.0, -1154.7581737945288, -4582.152316826859, -2064.4741731255262, -10183.655939537995, -453.29337755362724, -132.05410624195412, -5556.9118925227995, -1682.5275638732392, -3594.8087090025797, -5907.811928726665, -3880.5981136081355, -3090.5533540908523, -3035.1433795861462, -2339.735906092633, -9669.409354854746, -15505.874515280071, 0.013062500000000001, -0.10337500000000001, 0.992375, 192.0, 0.0, 56.0, 126.0, 104.0, 15.5, 8.0, 0.0, 0.0, 0.0, 1.645922006456649E9, 0.0, 2022-02-27 11:33:26.456
216.0, -680.8341361086532, -4204.340780298803, -1669.6082555780717, -9758.838684420429, -15.132130996242882, 219.51648229557065, -5222.6192024492275, -1232.72105845464, -1144.0963916893472, -4898.92123924747, -3747.918158521433, -2848.2380924508684, -3032.5282254848753, -2143.509941519492, -9218.686427913479, -14322.081425438098, 0.013062500000000001, -0.10337500000000001, 0.992375, 192.0, 0.0, 0.0, 0.0, 0.0, 0.0, 0.0, 0.0, 0.0, 0.0, 1.645922006464076E9, 0.0, 2022-02-27 11:33:26.464
218.0, -732.3772588225912, -4253.067583211373, -1790.4641378479168, -9874.91129337684, -99.08528317037621, 78.1640503602088, -5467.504914701572, -1554.9661582668018, -3583.766947241658, -5566.590197871948, -3618.233337191741, -2963.595445584708, -2778.9253328949612, -2107.4118742241712, -9545.401876616703, -15268.409582186889, 0.013062500000000001, -0.10337500000000001, 0.992375, 192.0, 0.0, 0.0, 0.0, 0.0, 0.0, 0.0, 0.0, 0.0, 0.0, 1.645922006472144E9, 0.0, 2022-02-27 11:33:26.472
220.0, -1018.5242913394322, -4445.694916927208, -1942.8583315442006, -10058.03913569917, -345.5356175345919, -7.331372181340717, -5393.677102765692, -1455.992633818702, -1865.7671649178465, -5417.660524566237, -3945.194655083973, -2979.666349848074, -3202.2450211340215, -2351.492923676124, -9438.471131142513, -14833.668152531167, 0.013062500000000001, -0.10337500000000001, 0.992375, 192.0, 0.0, 0.0, 0.0, 0.0, 0.0, 0.0, 0.0, 0.0, 0.0, 1.645922006480126E9, 0.0, 2022-02-27 11:33:26.480
222.0, -413.9990108011974, -4003.6221150901456, -1535.6542510574163, -9601.907086599718, 177.83047888642298, 307.9176316163101, -5233.862129910246, -1287.8628120258822, -2119.213595296573, -4998.364150329131, -3568.768926712147, -2824.835816006162, -2805.2780396077683, -2006.940782897566, -9293.162440438562, -14582.054565197775, 0.013062500000000001, -0.10337500000000001, 0.992375, 192.0, 0.0, 0.0, 0.0, 0.0, 0.0, 0.0, 0.0, 0.0, 0.0, 1.645922006486566E9, 0.0, 2022-02-27 11:33:26.486
224.0, -1097.1353765887472, -4509.777368280575, -2063.893027769688, -10178.336224357632, -459.6636247233897, -132.81406555343457, -5559.437639646249, -1644.4848948103065, -3560.3870225414066, -5871.423288753425, -3860.9732819763763, -3075.398871350154, -3040.9995366334365, -2353.5939876549232, -9670.951625222162, -15495.235084919344, 0.01453125, -0.1046875, 0.9921875, 192.0, 0.0, 64.0, 126.0, 88.0, 15.5, 0.0, 0.0, 0.0, 0.0, 1.645922006501854E9, 0.0, 2022-02-27 11:33:26.501
226.0, -621.9596412133743, -4156.463343675536, -1654.3420141150968, -9753.83189366244, -21.97176479956684, 219.11415089537513, -5213.164414544633, -1231.424657276232, -1123.622193768286, -4898.4295008694535, -3727.7345332782907, -2813.212908889402, -3029.2648707944004, -2114.251508027495, -9210.572744676203, -14308.64802702046, 0.01453125, -0.1046875, 0.9921875, 192.0, 0.0, 0.0, 0.0, 0.0, 0.0, 0.0, 0.0, 0.0, 0.0, 1.645922006508908E9, 0.0, 2022-02-27 11:33:26.508
228.0, -672.1616592599939, -4204.094911109795, -1770.5710852826937, -9869.4798194742, -106.61782105181469, 78.45462303812779, -5445.354335946362, -1534.9836987237572, -3574.222752359242, -5570.613511873903, -3614.4335406343394, -2938.0026981833817, -2790.9505714119164, -2097.5324031749255, -9544.440751605123, -15267.224939730757, 0.01453125, -0.1046875, 0.9921875, 192.0, 0.0, 0.0, 0.0, 0.0, 0.0, 0.0, 0.0, 0.0, 0.0, 1.645922006516378E9, 0.0, 2022-02-27 11:33:26.516
230.0, -967.1376308366813, -4397.415148903746, -1927.5250348478598, -10060.050792700147, -353.0905071604857, -7.353723925796023, -5387.552724784938, -1450.1588285158668, -1883.201525592986, -5421.393265890273, -3936.0527916017527, -2968.222256686957, -3206.268335135977, -2343.647461372311, -9441.309802688338, -14852.823597529365, 0.01453125, -0.1046875, 0.9921875, 192.0, 0.0, 0.0, 0.0, 0.0, 0.0, 0.0, 0.0, 0.0, 0.0, 1.645922006524453E9, 0.0, 2022-02-27 11:33:26.524
232.0, -365.5851323110023, -3955.6329197446016, -1517.3928758374307, -9599.515449943001, 174.27655151802918, 312.49973922964807, -5206.257725507942, -1260.5042768125866, -2067.3798999047162, -4978.694615208461, -3556.5872259840044, -2809.4578158209106, -2807.021475675282, -1994.6920269360576, -9274.677547774023, -14561.64742251008, 0.01453125, -0.1046875, 0.9921875, 192.0, 0.0, 0.0, 0.0, 0.0, 0.0, 0.0, 0.0, 0.0, 0.0, 1.645922006532343E9, 0.0, 2022-02-27 11:33:26.532
234.0, -1045.1899224746135, -4481.234190611147, -2039.0155361909315, -10173.463544066375, -467.64319749393434, -136.41269641073902, -5584.717462625202, -1702.1523955049988, -3543.7796764111135, -5885.3260738046265, -3842.264871867284, -3038.6973069545397, -3039.7701906883945, -2326.011934997074, -9666.928311220207, -15505.919218768982, 0.015265625000000001, -0.10734375, 0.99009375, 192.0, 0.0, 64.0, 126.0, 72.0, 15.0, 112.0, 0.0, 0.0, 0.0, 1.645922006539034E9, 0.0, 2022-02-27 11:33:26.539
236.0, -574.1492598234726, -4097.119462146695, -1639.8580837080578, -9740.622012689355, -22.73172411104728, 222.7798369860455, -5238.779513690414, -1264.460535581176, -1089.8487078963171, -4852.854293925082, -3704.9804574227883, -2790.749405711819, -3017.1278735551687, -2111.546946948403, -9208.270514997306, -14313.654817778448, 0.015265625000000001, -0.10734375, 0.99009375, 192.0, 0.0, 0.0, 0.0, 0.0, 0.0, 0.0, 0.0, 0.0, 0.0, 1.64592200654712E9, 0.0, 2022-02-27 11:33:26.547
238.0, -634.4095628749803, -4167.549808925368, -1752.265006573797, -9856.76167687913, -99.86759422631195, 83.48376554057188, -5445.622556879825, -1558.5647891241063, -3553.279167804619, -5540.595119070425, -3594.1605084133757, -2923.474064287432, -2777.2713038052684, -2080.5897808778027, -9533.22017588856, -15263.916881551371, 0.015265625000000001, -0.10734375, 0.99009375, 192.0, 0.0, 0.0, 0.0, 0.0, 0.0, 0.0, 0.0, 0.0, 0.0, 1.64592200655415E9, 0.0, 2022-02-27 11:33:26.554
240.0, -942.4613049580223, -4389.2791139220135, -1909.844804983712, -10044.404571581432, -357.6726147738236, -2.548098867905005, -5414.486576853583, -1481.8983056424029, -1842.4989989398719, -5399.175631901698, -3910.035361055775, -2938.3826778391217, -3186.9340761821363, -2346.1285050068504, -9433.129064217695, -14848.532062593946, 0.015265625000000001, -0.10734375, 0.99009375, 192.0, 0.0, 0.0, 0.0, 0.0, 0.0, 0.0, 0.0, 0.0, 0.0, 1.645922006562201E9, 0.0, 2022-02-27 11:33:26.562
