%OpenBCI Raw EEG Data
%Number of channels = 16
%Sample Rate = 125 Hz
%Board = OpenBCI_GUI$BoardCytonSerialDaisy
Sample Index, EXG Channel 0, EXG Channel 1, EXG Channel 2, EXG Channel 3, EXG Channel 4, EXG Channel 5, EXG Channel 6, EXG Channel 7, EXG Channel 8, EXG Channel 9, EXG Channel 10, EXG Channel 11, EXG Channel 12, EXG Channel 13, EXG Channel 14, EXG Channel 15, Accel Channel 0, Accel Channel 1, Accel Channel 2, Other, Other, Other, Other, Other, Other, Other, Analog Channel 0, Analog Channel 1, Analog Channel 2, Timestamp, Other, Timestamp (Formatted)
116.0, -964.7012906910528, -4293.814813353398, -1688.1602034759765, -10018.521251502187, -412.18851950031757, 609.6214782740449, -5234.689144455093, -1508.7874542221373, -1442.1792557453223, -5784.609113289012, -4094.1243283896843, -2924.7481137213845, -3668.8600383830117, -2488.754986376165, -9548.12878944025, -14489.96537804191, 0.0, 0.0, 0.0, 192.0, 0.0, 0.0, 0.0, 0.0, 0.0, 0.0, 0.0, 0.0, 0.0, 1.645921723453461E9, 0.0, 2022-02-27 11:28:43.453
118.0, -798.6501811325767, -4190.661512692155, -1639.2992900966753, -9944.782846544129, -288.71748312920136, 630.3191936396591, -5363.010509373011, -1683.823965051647, -3678.784212921168, -6238.863615854218, -3846.6011102916136, -2969.3621956541774, -3324.464359815641, -2323.88851927382, -9777.658853251798, -15248.963564510772, 0.008, -0.098, 0.986, 192.0, 0.0, 32.0, 126.0, 120.0, 15.0, 104.0, 0.0, 0.0, 0.0, 1.645921723453464E9, 0.0, 2022-02-27 11:28:43.453
0.0, -384.53941160910273, -2171.673139533179, -756.8524190011525, -4903.704512560906, -32.097105037820945, 324.79319868006695, -2539.1581701228824, -611.9013562084862, -793.0175415298393, -3020.2571177789114, -2121.0687900863636, -1488.7379394457269, -1906.5367468043264, -1317.031838540058, -4821.807720876661, -7354.93091999661, 0.006, -0.108, 0.986, 192.0, 0.0, 24.0, 126.0, 80.0, 15.0, 104.0, 0.0, 0.0, 0.0, 1.645921723577916E9, 0.0, 2022-02-27 11:28:43.577
2.0, -912.5770226212768, -4472.271141084569, -1678.660712082471, -9988.92754184336, -228.4795318221488, 469.09606088352933, -5339.719991650581, -1569.8524200740362, -3736.429361871405, -6044.805770493242, -3940.97017538192, -2941.6236807851415, -3057.048089152347, -2070.5314958729145, -9743.438332490723, -15280.077192792558, 0.006, -0.108, 0.986, 192.0, 0.0, 0.0, 0.0, 0.0, 0.0, 0.0, 0.0, 0.0, 0.0, 1.645921723583837E9, 0.0, 2022-02-27 11:28:43.583
4.0, -1375.481650290686, -4832.715372170851, -1993.7532536689346, -10320.04628420428, -645.0713449801618, 189.5874964699145, -5422.68966706868, -1601.9271733674018, -2381.2430955461377, -6090.336273948703, -4334.025601628495, -3034.4951789969423, -3575.630912259926, -2469.040747766584, -9754.5024459961, -15056.470341261667, 0.006, -0.108, 0.986, 192.0, 0.0, 0.0, 0.0, 0.0, 0.0, 0.0, 0.0, 0.0, 0.0, 1.645921723592114E9, 0.0, 2022-02-27 11:28:43.592
6.0, -693.5299269592675, -4287.243400483537, -1486.346302789009, -9770.238074092636, -20.76477059898026, 671.066423781684, -5141.482370076463, -1291.4167393942762, -2118.8559673852883, -5464.040394310999, -3951.6990127204676, -2857.4023076775443, -3182.262561590977, -2068.3186731718392, -9518.490376292513, -14536.836986164688, 0.009000000000000001, -0.109, 0.989, 192.0, 0.0, 48.0, 126.0, 72.0, 15.5, 0.0, 0.0, 0.0, 0.0, 1.645921723600071E9, 0.0, 2022-02-27 11:28:43.600
8.0, -1356.0356326145688, -4828.960279102359, -2017.8260824473005, -10336.407761145563, -644.8254757911534, 156.283397231507, -5544.931357494755, -1788.9218674805009, -4024.163368244573, -6437.704734528629, -4176.1999340295715, -3070.503839314442, -3293.171917578211, -2297.982847450119, -9914.160956640359, -15643.42715065803, 0.009000000000000001, -0.109, 0.989, 192.0, 0.0, 0.0, 0.0, 0.0, 0.0, 0.0, 0.0, 0.0, 0.0, 1.645921723606539E9, 0.0, 2022-02-27 11:28:43.606
10.0, -1034.9304717696275, -4562.661595661831, -1723.207738781898, -10016.196670078834, -321.7757131786005, 454.4333165208479, -5233.884481654702, -1355.8568186589264, -1408.3610663844427, -5531.944993966222, -4171.01432931594, -2897.9483721194715, -3459.603006792427, -2288.371597334337, -9521.17258562715, -14435.248307615318, 0.009000000000000001, -0.109, 0.989, 192.0, 0.0, 0.0, 0.0, 0.0, 0.0, 0.0, 0.0, 0.0, 0.0, 1.645921723614556E9, 0.0, 2022-02-27 11:28:43.614
12.0, -870.8686674676737, -4442.275100025547, -1648.5082088122617, -9950.191968702313, -199.7128367081686, 506.8034537796323, -5337.2612997604965, -1537.5317975916623, -3558.1294963514206, -5991.966246600896, -3951.9225301650204, -2940.2602243733677, -3083.9372377320815, -2064.5635801033472, -9733.06712306346, -15197.040462141093, 0.009000000000000001, -0.109, 0.989, 192.0, 0.0, 0.0, 0.0, 0.0, 0.0, 0.0, 0.0, 0.0, 0.0, 1.645921723622647E9, 0.0, 2022-02-27 11:28:43.622
14.0, -1395.7546825116494, -4856.564683504664, -2006.0467131193536, -10338.911156524558, -656.2695689522707, 173.71775790664648, -5426.690629326181, -1620.3226590541196, -2538.778190467142, -6134.950355881496, -4317.865290387308, -3031.5671004732967, -3544.182007811309, -2432.540349071068, -9762.482018766645, -15114.339007656457, 0.009000000000000001, -0.109, 0.989, 192.0, 0.0, 0.0, 0.0, 0.0, 0.0, 0.0, 0.0, 0.0, 0.0, 1.645921723629189E9, 0.0, 2022-02-27 11:28:43.629
16.0, -728.0857238871722, -4313.99843859654, -1504.4065123088972, -9798.289513384047, -43.652956921214695, 641.2268449338491, -5145.170407911588, -1308.9852105361474, -2065.7258708150234, -5502.530098263037, -3988.132356182618, -2875.3954619640663, -3218.964125986591, -2112.3292580043385, -9524.100664150794, -14541.530852500304, 0.0125, -0.1085, 0.9895, 192.0, 0.0, 64.0, 126.0, 80.0, 15.0, 120.0, 0.0, 0.0, 0.0, 1.645921723644226E9, 0.0, 2022-02-27 11:28:43.644
18.0, -1341.5964056964406, -4813.38111321701, -2002.4480822620492, -10333.211461688456, -630.4086006174804, 166.83342061441192, -5529.352191609406, -1757.0706316316882, -3992.7815190293218, -6424.807777977918, -4158.273834976415, -3061.071403154302, -3272.4071469792307, -2290.7408822465995, -9896.681892476308, -15618.124975934623, 0.0125, -0.1085, 0.9895, 192.0, 0.0, 0.0, 0.0, 0.0, 0.0, 0.0, 0.0, 0.0, 0.0, 1.645921723652255E9, 0.0, 2022-02-27 11:28:43.652
20.0, -1021.7205907965412, -4544.400220441845, -1717.7986166237138, -10021.98577189276, -319.3617247774273, 454.2321508207501, -5215.779568645903, -1363.5458187515521, -1412.674953064317, -5503.692388974713, -4170.2096665155495, -2916.5226717618316, -3459.670062025793, -2287.0975479003846, -9521.999600171996, -14449.665182788991, 0.0125, -0.1085, 0.9895, 192.0, 0.0, 0.0, 0.0, 0.0, 0.0, 0.0, 0.0, 0.0, 0.0, 1.645921723659046E9, 0.0, 2022-02-27 11:28:43.659
22.0, -869.8851907116402, -4432.239166765114, -1650.497514068784, -9953.500026881698, -198.79641518550102, 505.86468051250944, -5315.62481112776, -1531.0721434440784, -3571.89817093589, -5994.179069301971, -3948.9497481524645, -2948.351555866189, -3072.403737593143, -2064.898856270177, -9722.003009558084, -15208.506907046665, 0.0125, -0.1085, 0.9895, 192.0, 0.0, 0.0, 0.0, 0.0, 0.0, 0.0, 0.0, 0.0, 0.0, 1.64592172366687E9, 0.0, 2022-02-27 11:28:43.666
24.0, -1383.2377056166777, -4849.099200856591, -2003.4986142514485, -10328.204670930467, -653.743821828821, 178.5010312200822, -5435.608975363848, -1611.7395891832816, -2508.6033354524775, -6139.018373372362, -4328.862348659319, -3043.2347110789674, -3552.9215398933343, -2449.48297136819, -9758.481056509145, -15106.56060058601, 0.0125, -0.1085, 0.9895, 192.0, 0.0, 0.0, 0.0, 0.0, 0.0, 0.0, 0.0, 0.0, 0.0, 1.645921723674839E9, 0.0, 2022-02-27 11:28:43.674
26.0, -697.5308892167675, -4297.771072121986, -1489.2743813126542, -9779.26817885258, -24.139884011731628, 659.5329236427455, -5132.474617060973, -1301.4079691657985, -2071.5373243734034, -5482.659397442269, -3965.333576838205, -2854.6977465984523, -3198.3781693432534, -2080.455670411071, -9513.662399490166, -14537.619297220625, 0.01125, -0.11225, 0.98875, 192.0, 0.0, 40.0, 126.0, 48.0, 15.0, 112.0, 0.0, 0.0, 0.0, 1.64592172368389E9, 0.0, 2022-02-27 11:28:43.683
28.0, -1357.3096820485214, -4834.48115998282, -2020.1506638706524, -10345.52727288333, -649.6087491045892, 155.54578966448184, -5534.470741089671, -1764.4020038130288, -4023.6269263776458, -6432.876757726283, -4166.722794380521, -3057.6515862526403, -3282.5324872174847, -2286.047015910985, -9902.001607656672, -15639.917926778548, 0.01125, -0.11225, 0.98875, 192.0, 0.0, 0.0, 0.0, 0.0, 0.0, 0.0, 0.0, 0.0, 0.0, 1.645921723690894E9, 0.0, 2022-02-27 11:28:43.690
30.0, -1030.6389368342086, -4556.604272914443, -1720.145549791521, -10016.733111945763, -314.6231549529022, 462.4352410358478, -5218.506481469451, -1354.001623869136, -1398.0345604460908, -5531.408552099294, -4173.003634572463, -2905.570316978731, -3462.2628643826088, -2277.508649529058, -9512.991847156507, -14430.688551746434, 0.01125, -0.11225, 0.98875, 192.0, 0.0, 0.0, 0.0, 0.0, 0.0, 0.0, 0.0, 0.0, 0.0, 1.645921723697021E9, 0.0, 2022-02-27 11:28:43.697
32.0, -870.2204668784699, -4437.916509856762, -1652.7103367698596, -9950.840169291518, -195.53306049502618, 509.30684915862673, -5330.019334556978, -1533.7767045231706, -3601.916563739367, -5960.986728785841, -3955.7893819557885, -2946.719878520951, -3073.6777870270953, -2063.356585902761, -9724.953439826184, -15209.758604736164, 0.01125, -0.11225, 0.98875, 192.0, 0.0, 0.0, 0.0, 0.0, 0.0, 0.0, 0.0, 0.0, 0.0, 1.645921723704542E9, 0.0, 2022-02-27 11:28:43.704
34.0, -1392.737197010183, -4851.289671813211, -2010.293544565862, -10329.590479086695, -665.5902463901338, 182.52434522203748, -5458.653623897269, -1613.0136386172342, -2551.2281121287483, -6147.221463587459, -4340.038220886972, -3070.660301525629, -3560.6775952193257, -2448.946529501263, -9770.483943281644, -15117.80352804703, 0.01125, -0.11225, 0.98875, 192.0, 0.0, 0.0, 0.0, 0.0, 0.0, 0.0, 0.0, 0.0, 0.0, 1.645921723711656E9, 0.0, 2022-02-27 11:28:43.711
36.0, -699.6543049400217, -4302.464938457601, -1486.0110266221795, -9767.488809524633, -22.97759330005566, 669.1888772474382, -5115.688456975038, -1292.5343266170414, -2043.351774615261, -5485.073385843442, -3972.26261761935, -2862.1632292465247, -3205.933058969147, -2087.1164902587525, -9510.421396544147, -14512.16066028603, 0.009625, -0.113125, 0.988375, 192.0, 0.0, 32.0, 126.0, 56.0, 15.0, 112.0, 0.0, 0.0, 0.0, 1.64592172371916E9, 0.0, 2022-02-27 11:28:43.719
38.0, -1352.034670357069, -4819.796063875683, -2016.7308469689904, -10348.85768280717, -647.5970921036115, 156.0151762980433, -5530.067447431976, -1779.1318034090762, -4045.03989756583, -6458.581263849886, -4169.852038604265, -3069.5427143028637, -3285.684083185683, -2302.341437618904, -9908.86359320445, -15647.294002448798, 0.009625, -0.113125, 0.988375, 192.0, 0.0, 0.0, 0.0, 0.0, 0.0, 0.0, 0.0, 0.0, 0.0, 1.645921723727206E9, 0.0, 2022-02-27 11:28:43.727
40.0, -1012.9363552256054, -4544.08729601947, -1707.561517663183, -10006.853640896517, -307.9176316163101, 468.20199110531706, -5204.111958040233, -1340.188245795756, -1375.705167735239, -5516.7011042477025, -4170.142611282184, -2905.5479652342756, -3463.536913816561, -2281.442556553192, -9514.936448924118, -14427.604011011603, 0.009625, -0.113125, 0.988375, 192.0, 0.0, 0.0, 0.0, 0.0, 0.0, 0.0, 0.0, 0.0, 0.0, 1.645921723734367E9, 0.0, 2022-02-27 11:28:43.734
42.0, -882.5586298177993, -4458.614225222376, -1664.5567613311723, -9964.139457242425, -217.03543866103158, 491.201936149828, -5335.763732881991, -1544.214969183799, -3617.272212180163, -5983.450231963424, -3934.06348634523, -2931.9677271804485, -3062.5019147994417, -2059.802658534367, -9721.868899091352, -15218.073453673536, 0.009625, -0.113125, 0.988375, 192.0, 0.0, 0.0, 0.0, 0.0, 0.0, 0.0, 0.0, 0.0, 0.0, 1.645921723741749E9, 0.0, 2022-02-27 11:28:43.741
44.0, -1386.255191118144, -4845.522921743742, -1998.5141752379152, -10324.740150539894, -658.3929846755249, 189.9451243811994, -5425.237765936586, -1596.4509959758516, -2439.402334618847, -6108.463538701956, -4345.715563978621, -3045.8498651802383, -3580.6153512734595, -2462.402279663358, -9762.414963533278, -15078.777382228063, 0.009625, -0.113125, 0.988375, 192.0, 0.0, 0.0, 0.0, 0.0, 0.0, 0.0, 0.0, 0.0, 0.0, 1.645921723749746E9, 0.0, 2022-02-27 11:28:43.749
46.0, -673.7933366052314, -4275.978121278063, -1467.503782213185, -9755.061239607483, -4.425645402150798, 693.8428513816418, -5121.343448322231, -1279.4809078551423, -2084.0095977794645, -5446.941309802689, -3946.6251667291126, -2842.963080759416, -3179.1556691116893, -2064.4071178921604, -9502.26300981796, -14520.855488879144, 0.0098125, -0.11056250000000001, 0.9881875, 192.0, 0.0, 40.0, 126.0, 80.0, 15.0, 112.0, 0.0, 0.0, 0.0, 1.645921723763976E9, 0.0, 2022-02-27 11:28:43.763
48.0, -1379.0579294035351, -4842.952471131382, -2033.7852279883896, -10367.364927216164, -677.4590226959018, 141.64300461328085, -5565.71847983819, -1793.012236715822, -4062.2507407964163, -6476.440307669677, -4183.710120166555, -3084.2948656433664, -3302.425539782708, -2311.1256731898397, -9919.659485776363, -15670.964499826969, 0.0098125, -0.11056250000000001, 0.9881875, 192.0, 0.0, 0.0, 0.0, 0.0, 0.0, 0.0, 0.0, 0.0, 0.0, 1.645921723771515E9, 0.0, 2022-02-27 11:28:43.771
50.0, -993.5797445273096, -4523.724856820686, -1690.7083023438815, -9993.621408178975, -293.47840469818175, 486.4186628363923, -5189.560972399828, -1343.9209871197925, -1318.194129251734, -5474.836286882912, -4154.004651785452, -2886.727796402907, -3458.1054399139216, -2258.934349886698, -9501.100719106284, -14392.981158850333, 0.0098125, -0.11056250000000001, 0.9881875, 192.0, 0.0, 0.0, 0.0, 0.0, 0.0, 0.0, 0.0, 0.0, 0.0, 1.645921723779338E9, 0.0, 2022-02-27 11:28:43.779
52.0, -874.4225948360676, -4439.950518602195, -1659.7064327843707, -9967.603977632998, -213.81678745946735, 490.5090320717135, -5326.1077792772985, -1554.183847210866, -3661.171038290386, -6000.2587437938155, -3937.5056549913475, -2931.2301196134235, -3061.339624087766, -2052.9406729865877, -9721.891250835806, -15234.837262015017, 0.0098125, -0.11056250000000001, 0.9881875, 192.0, 0.0, 0.0, 0.0, 0.0, 0.0, 0.0, 0.0, 0.0, 0.0, 1.645921723787423E9, 0.0, 2022-02-27 11:28:43.787
54.0, -1377.94034218077, -4836.045782094691, -2003.6103729737251, -10329.702237808971, -661.2763597102595, 182.8819731333224, -5432.613841606837, -1607.470405992318, -2443.4256486208023, -6120.0640940742605, -4337.981860397084, -3048.6438332371513, -3581.665883262859, -2471.9017710568633, -9767.757030458097, -15094.46830683569, 0.0098125, -0.11056250000000001, 0.9881875, 192.0, 0.0, 0.0, 0.0, 0.0, 0.0, 0.0, 0.0, 0.0, 0.0, 1.645921723794008E9, 0.0, 2022-02-27 11:28:43.794
56.0, -658.9964817758181, -4264.288158927937, -1462.9216745998472, -9752.69195469522, 0.24586918900837768, 687.9866943343513, -5122.192814611532, -1286.3205416584663, -2046.7492397724677, -5447.276585969518, -3937.0586201022415, -2832.3012986542344, -3177.881619677737, -2057.5227805999257, -9499.044358616395, -14508.092642795164, 0.00790625, -0.11028125, 0.98709375, 192.0, 0.0, 24.0, 126.0, 72.0, 15.0, 104.0, 0.0, 0.0, 0.0, 1.645921723802041E9, 0.0, 2022-02-27 11:28:43.802
58.0, -1362.2717693175996, -4834.034125093714, -2032.4664750655265, -10367.990776060913, -680.4765081973682, 137.9996702670658, -5581.297645723539, -1783.7809662557802, -4074.991235135941, -6461.397583651255, -4173.405965972658, -3073.722490516006, -3300.346827548364, -2295.9264869602307, -9921.380570099422, -15681.000433087402, 0.00790625, -0.11028125, 0.98709375, 192.0, 0.0, 0.0, 0.0, 0.0, 0.0, 0.0, 0.0, 0.0, 0.0, 1.645921723810141E9, 0.0, 2022-02-27 11:28:43.810
60.0, -978.3805582977008, -4502.758920521608, -1690.8647645550686, -9993.59905643452, -303.469634469704, 485.8598692250096, -5236.007897377956, -1361.064775117013, -1300.2680301985777, -5476.713833417158, -4142.717020835522, -2883.0397585677815, -3460.0053381926227, -2264.7234517006223, -9510.26493433296, -14404.961693878377, 0.00790625, -0.11028125, 0.98709375, 192.0, 0.0, 0.0, 0.0, 0.0, 0.0, 0.0, 0.0, 0.0, 0.0, 1.645921723817125E9, 0.0, 2022-02-27 11:28:43.817
62.0, -885.1961356635256, -4441.2245680361475, -1668.5577235886722, -9972.141381757425, -225.17147364276335, 482.9541424458197, -5327.493587433528, -1571.8193735861032, -3643.5131601706935, -5972.743746369332, -3923.0217245843087, -2923.4517125429766, -3066.502877056942, -2039.708440269046, -9725.199309015192, -15234.30082014809, 0.00790625, -0.11028125, 0.98709375, 192.0, 0.0, 0.0, 0.0, 0.0, 0.0, 0.0, 0.0, 0.0, 0.0, 1.645921723823721E9, 0.0, 2022-02-27 11:28:43.823
64.0, -1394.033598188591, -4845.165293832457, -2008.1701288426077, -10334.016124488846, -672.2510662378152, 179.7527289095794, -5422.242632179575, -1612.2983827946643, -2451.762849302632, -6130.681172690532, -4354.723316994109, -3052.89066468366, -3608.510328353683, -2467.8561053104527, -9770.573350259465, -15088.455687577212, 0.00790625, -0.11028125, 0.98709375, 192.0, 0.0, 0.0, 0.0, 0.0, 0.0, 0.0, 0.0, 0.0, 0.0, 1.645921723831845E9, 0.0, 2022-02-27 11:28:43.831
66.0, -670.1276505145611, -4272.826525309864, -1464.3745379894422, -9755.642384963321, -9.164215226675896, 686.6232379225777, -5140.767114253893, -1275.1446694308127, -2068.899818527677, -5454.227978495119, -3947.072201618219, -2834.111789955114, -3198.802852487904, -2054.9299782431103, -9497.367977782247, -14505.656302649535, 0.007953125, -0.10914062499999999, 0.9885468749999999, 192.0, 0.0, 32.0, 126.0, 80.0, 15.0, 120.0, 0.0, 0.0, 0.0, 1.645921723839741E9, 0.0, 2022-02-27 11:28:43.839
68.0, -1383.1035951499457, -4845.6570322104735, -2044.9163967271325, -10377.177343032045, -690.2665722687927, 129.4836556295938, -5564.153857726319, -1797.2143646734196, -4086.90471493062, -6471.679386100696, -4185.900591123175, -3068.2910166133665, -3319.6587347577497, -2313.405551124281, -9927.326134124534, -15681.134543554133, 0.007953125, -0.10914062499999999, 0.9885468749999999, 192.0, 0.0, 0.0, 0.0, 0.0, 0.0, 0.0, 0.0, 0.0, 0.0, 1.645921723846368E9, 0.0, 2022-02-27 11:28:43.846
70.0, -973.6196367287204, -4500.546097820532, -1686.4167674084626, -9989.553390688108, -287.6669511398019, 491.85013673903194, -5190.544449155861, -1336.1425800493455, -1299.3516086759103, -5471.438821725706, -4155.72573610851, -2873.47321194091, -3474.0198819661, -2261.9071318992537, -9493.456422502568, -14381.313548244661, 0.007953125, -0.10914062499999999, 0.9885468749999999, 192.0, 0.0, 0.0, 0.0, 0.0, 0.0, 0.0, 0.0, 0.0, 0.0, 1.645921723854291E9, 0.0, 2022-02-27 11:28:43.854
72.0, -857.1446963721153, -4417.665829380254, -1652.4868193253064, -9961.658413607885, -204.31729606596187, 494.84527049604304, -5338.155369538709, -1573.0487195311453, -3646.888273583445, -5971.715566124388, -3918.484320459881, -2920.322468319234, -3063.1277636441905, -2044.8269897493112, -9720.416035701757, -15238.078264961037, 0.007953125, -0.10914062499999999, 0.9885468749999999, 192.0, 0.0, 0.0, 0.0, 0.0, 0.0, 0.0, 0.0, 0.0, 0.0, 1.645921723862296E9, 0.0, 2022-02-27 11:28:43.862
74.0, -1383.5729817835072, -4826.568642445641, -2008.3042393093397, -10333.390275644097, -664.2938452117259, 184.67011268974696, -5438.134722487298, -1619.1827200868988, -2475.589808891989, -6113.82795737123, -4342.854540688341, -3042.5865104897634, -3596.7756625146467, -2461.262340696137, -9773.79200146103, -15108.214629675704, 0.007953125, -0.10914062499999999, 0.9885468749999999, 192.0, 0.0, 0.0, 0.0, 0.0, 0.0, 0.0, 0.0, 0.0, 0.0, 1.645921723869557E9, 0.0, 2022-02-27 11:28:43.869
76.0, -645.9430630139188, -4231.45344632309, -1456.059689052068, -9746.589928458921, 1.452863389594959, 696.7932816497424, -5120.471730288474, -1266.6733582822512, -2013.7580649564345, -5404.048312192955, -3942.199521326962, -2826.311031140212, -3198.6687420211724, -2033.8969867106662, -9491.087137590306, -14480.57764537068, 0.014, -0.11, 0.986, 192.0, 0.0, 56.0, 126.0, 72.0, 15.0, 104.0, 0.0, 0.0, 0.0, 1.64592172387689E9, 0.0, 2022-02-27 11:28:43.876
78.0, -1369.2678653321107, -4821.025409820725, -2037.383858845694, -10371.120020284656, -682.5105169428011, 126.53322536149328, -5570.099421751431, -1804.4563298769392, -4074.3653862911924, -6450.80285677944, -4169.673224648622, -3078.7292812739947, -3309.3098770749425, -2311.460949356669, -9924.15218641188, -15678.72055515296, 0.014, -0.11, 0.986, 192.0, 0.0, 0.0, 0.0, 0.0, 0.0, 0.0, 0.0, 0.0, 0.0, 1.64592172389207E9, 0.0, 2022-02-27 11:28:43.892
80.0, -984.437881045089, -4508.860946757906, -1684.695683085404, -9992.861448867494, -290.6173814079024, 475.041624908641, -5188.1081090102325, -1348.3466325219433, -1292.1096434723906, -5492.829441169434, -4160.643119888678, -2873.9202468300164, -3475.226876166687, -2278.156850118262, -9493.076442846828, -14384.152219790485, 0.014, -0.11, 0.986, 192.0, 0.0, 0.0, 0.0, 0.0, 0.0, 0.0, 0.0, 0.0, 0.0, 1.645921723899196E9, 0.0, 2022-02-27 11:28:43.899
82.0, -856.764716716375, -4412.591983388899, -1651.9280257139237, -9964.83236132054, -210.86635719136683, 491.9842472057638, -5342.983346341056, -1575.8426875880584, -3634.8406833220347, -5976.6105981601, -3921.725323405901, -2914.153386849569, -3070.8391154812716, -2043.2847193818952, -9718.091454278405, -15229.562250323565, 0.014, -0.11, 0.986, 192.0, 0.0, 0.0, 0.0, 0.0, 0.0, 0.0, 0.0, 0.0, 0.0, 1.645921723906591E9, 0.0, 2022-02-27 11:28:43.906
84.0, -1373.4252898007978, -4822.388866232499, -2003.677428207091, -10334.172586700033, -666.9537028019074, 173.38248173981688, -5434.424332907717, -1626.759961457248, -2457.4848958831903, -6128.378943011635, -4343.748610466553, -3052.756554216928, -3604.509366096183, -2479.2778467271146, -9771.400364804313, -15106.605304074921, 0.014, -0.11, 0.986, 192.0, 0.0, 0.0, 0.0, 0.0, 0.0, 0.0, 0.0, 0.0, 0.0, 1.645921723914552E9, 0.0, 2022-02-27 11:28:43.914
86.0, -639.9751472443518, -4235.588519047323, -1457.1549245303781, -9746.008783103083, -0.9164215226675896, 682.5552204317117, -5118.8400529432365, -1286.611114336385, -2023.5257772834036, -5431.451550895161, -3932.454160744448, -2821.4159991045, -3192.7678814849714, -2066.3740714042274, -9487.577913710824, -14499.800145602245, 0.016, -0.10200000000000001, 0.986, 192.0, 0.0, 64.0, 126.0, 104.0, 15.0, 104.0, 0.0, 0.0, 0.0, 1.645921723922615E9, 0.0, 2022-02-27 11:28:43.922
88.0, -1355.0521558585353, -4812.755264372261, -2036.4450855785713, -10367.05200279379, -679.51538318579, 139.83251331240098, -5583.219895746696, -1833.357135457651, -4075.5276770028686, -6471.94760703416, -4170.835515360298, -3059.9985194204473, -3308.1475863632663, -2296.1947078936946, -9921.738198010707, -15684.911988367081, 0.016, -0.10200000000000001, 0.986, 192.0, 0.0, 0.0, 0.0, 0.0, 0.0, 0.0, 0.0, 0.0, 0.0, 1.645921723929252E9, 0.0, 2022-02-27 11:28:43.929
90.0, -970.6021512272539, -4482.12826038936, -1687.2661336977642, -9989.866315110483, -291.7796721195784, 481.6577412674119, -5203.374350473207, -1342.423420241287, -1273.4012333632986, -5442.247443467074, -4151.568311639823, -2860.151572245547, -3473.25992265462, -2258.8002394199657, -9499.31257954986, -14389.360176248572, 0.016, -0.10200000000000001, 0.986, 192.0, 0.0, 0.0, 0.0, 0.0, 0.0, 0.0, 0.0, 0.0, 0.0, 1.645921723937179E9, 0.0, 2022-02-27 11:28:43.937
92.0, -832.5130739823669, -4386.44044237619, -1643.4790663098177, -9949.342602413011, -203.1773570987412, 487.78211924816605, -5340.189378284143, -1585.4539377038407, -3610.8796132659454, -5958.796257829221, -3914.39395122456, -2913.9075176605606, -3067.3969468351543, -2041.7871525033895, -9715.655114132776, -15221.4932705752, 0.016, -0.10200000000000001, 0.986, 192.0, 0.0, 0.0, 0.0, 0.0, 0.0, 0.0, 0.0, 0.0, 0.0, 1.645921723944239E9, 0.0, 2022-02-27 11:28:43.944
94.0, -1359.8801326608816, -4799.031293276703, -2000.9952188724542, -10324.114301695145, -664.5173626562789, 183.06078708896484, -5442.560367889449, -1634.5830720166055, -2463.9892535196846, -6126.188472055015, -4332.125703349794, -3025.7109434260065, -3598.2061741597863, -2472.549971646067, -9776.474210795666, -15118.384673402868, 0.016, -0.10200000000000001, 0.986, 192.0, 0.0, 0.0, 0.0, 0.0, 0.0, 0.0, 0.0, 0.0, 0.0, 1.645921723952284E9, 0.0, 2022-02-27 11:28:43.952
96.0, -629.4921790948129, -4215.159024615172, -1457.6019594194843, -9741.225509789647, 5.520880880460845, 703.1411770750495, -5097.203564310499, -1294.5459836180191, -1984.5666866978036, -5390.190230630664, -3923.267593773317, -2811.4918245663434, -3195.941829197625, -2057.5898358332915, -9485.722718921032, -14488.065479763209, 0.012, -0.10400000000000001, 0.984, 192.0, 0.0, 48.0, 126.0, 96.0, 15.0, 96.0, 0.0, 0.0, 0.0, 1.645921723958803E9, 0.0, 2022-02-27 11:28:43.958
98.0, -1347.832542399471, -4804.2839532237, -2034.5451872998701, -10360.838217835215, -674.5756476611672, 132.83641729788988, -5567.305453694517, -1811.7429985693693, -4087.061177141807, -6474.0710227574145, -4161.693651878078, -3065.9887869344698, -3305.5994874953617, -2298.6086962948675, -9921.000590443682, -15681.626281932151, 0.012, -0.10400000000000001, 0.984, 192.0, 0.0, 0.0, 0.0, 0.0, 0.0, 0.0, 0.0, 0.0, 0.0, 1.645921723966811E9, 0.0, 2022-02-27 11:28:43.966
100.0, -974.8936861626728, -4483.871696456873, -1694.9104303014792, -9998.181164047857, -298.23932626716214, 472.0464911516299, -5181.491992651462, -1339.9647283512031, -1282.2525241676003, -5466.633196667814, -4156.373936697714, -2884.537325446287, -3479.808983780025, -2288.0363211675076, -9497.815012671354, -14392.109440816575, 0.012, -0.10400000000000001, 0.984, 192.0, 0.0, 0.0, 0.0, 0.0, 0.0, 0.0, 0.0, 0.0, 0.0, 1.645921723974936E9, 0.0, 2022-02-27 11:28:43.974
102.0, -830.635527448121, -4383.512363852545, -1643.367307587541, -9943.262927921169, -193.94608663869937, 505.4847008567692, -5313.993133782522, -1553.3344809215644, -3589.1984211442973, -5948.916786779975, -3911.912907590021, -2912.0970263596805, -3071.822592237305, -2054.460591609549, -9708.659018118266, -15204.4388895558, 0.012, -0.10400000000000001, 0.984, 192.0, 0.0, 0.0, 0.0, 0.0, 0.0, 0.0, 0.0, 0.0, 0.0, 1.645921723981554E9, 0.0, 2022-02-27 11:28:43.981
104.0, -1366.5633042530185, -4799.567735143631, -2007.1643003421188, -10330.417493631541, -668.0936417691281, 180.1103568208643, -5428.635231093792, -1627.564624257639, -2486.8997915863742, -6137.632565216132, -4336.394886540757, -3036.663298209107, -3593.1323281684317, -2452.455753380746, -9773.635539249843, -15120.4186821483, 0.012, -0.10400000000000001, 0.984, 192.0, 0.0, 0.0, 0.0, 0.0, 0.0, 0.0, 0.0, 0.0, 0.0, 1.645921723989535E9, 0.0, 2022-02-27 11:28:43.989
106.0, -639.3492983996032, -4222.6915624966105, -1458.6301396644283, -9743.840663890918, -0.9834767560335107, 695.742749660343, -5104.8702126586695, -1281.6937305562176, -1977.7270528944796, -5418.755760044546, -3929.190806053973, -2820.8348537486618, -3193.4384338186305, -2055.801696276867, -9484.023986342429, -14478.29776743624, 0.01, -0.10400000000000001, 0.984, 192.0, 0.0, 40.0, 126.0, 96.0, 15.0, 96.0, 0.0, 0.0, 0.0, 1.64592172399752E9, 0.0, 2022-02-27 11:28:43.997
108.0, -1332.8568736144155, -4793.130432740501, -2025.1798063730964, -10349.483531651918, -665.1208597565723, 145.71102210414674, -5554.810828544, -1822.270670207819, -4098.147642391639, -6462.1575429627355, -4154.6305006302, -3060.5126095429196, -3295.1165193458223, -2294.40656833727, -9916.910221208362, -15686.655424434593, 0.01, -0.10400000000000001, 0.984, 192.0, 0.0, 0.0, 0.0, 0.0, 0.0, 0.0, 0.0, 0.0, 0.0, 1.645921724011147E9, 0.0, 2022-02-27 11:28:44.011
110.0, -1000.7099510085525, -4511.945487492739, -1712.3447909766187, -10009.289981042146, -318.0653235990195, 465.36331955949305, -5204.961324329534, -1352.2805395460773, -1296.2447161966224, -5497.947990649699, -4161.984224555997, -2883.799717879262, -3488.59321935096, -2291.0538066689737, -9502.419472029147, -14408.314455546673, 0.01, -0.10400000000000001, 0.984, 192.0, 0.0, 0.0, 0.0, 0.0, 0.0, 0.0, 0.0, 0.0, 0.0, 1.645921724019147E9, 0.0, 2022-02-27 11:28:44.019
112.0, -835.0835245947271, -4401.527869883522, -1640.081601152611, -9933.58462257202, -181.45146148818273, 518.0687329851071, -5319.558718151894, -1561.604626370028, -3558.8447521739904, -5951.107257736595, -3911.197651767451, -2918.042590384792, -3065.0947171562575, -2049.0738211958196, -9697.483145890612, -15182.936511389795, 0.01, -0.10400000000000001, 0.984, 192.0, 0.0, 0.0, 0.0, 0.0, 0.0, 0.0, 0.0, 0.0, 0.0, 1.645921724027165E9, 0.0, 2022-02-27 11:28:44.027
114.0, -1403.0860546929903, -4852.340203802611, -2021.424713304605, -10338.911156524558, -671.7369761153432, 178.05399633097605, -5426.4224083927165, -1623.5860137445943, -2559.2747401326587, -6175.496420323422, -4340.61936624281, -3050.6107867492187, -3588.28199962163, -2471.8570675679525, -9776.74243172913, -15144.223289993202, 0.01, -0.10400000000000001, 0.984, 192.0, 0.0, 0.0, 0.0, 0.0, 0.0, 0.0, 0.0, 0.0, 0.0, 1.645921724034198E9, 0.0, 2022-02-27 11:28:44.034
116.0, -700.3919125070468, -4286.528144660967, -1472.1752968043443, -9749.495655238112, 6.258488447485978, 699.1849183064602, -5090.743910162915, -1262.5382855580194, -1955.5988258837256, -5426.1318357147975, -3951.900178420565, -2842.2701766813016, -3209.2187654040777, -2066.9999202489757, -9471.775230380921, -14454.649621802524, 0.008, -0.108, 0.984, 192.0, 0.0, 32.0, 126.0, 80.0, 15.0, 96.0, 0.0, 0.0, 0.0, 1.645921724041776E9, 0.0, 2022-02-27 11:28:44.041
118.0, -1430.578700373018, -4887.29833213071, -2035.0369256778868, -10356.591386388705, -643.9761095018517, 156.90924607625558, -5535.051886445509, -1797.5719925847045, -4152.238863973483, -6486.230371741101, -4180.849096876275, -3094.7331303039946, -3289.7968041654594, -2299.2568968840715, -9904.90733443586, -15672.327956238743, 0.008, -0.108, 0.984, 192.0, 0.0, 0.0, 0.0, 0.0, 0.0, 0.0, 0.0, 0.0, 0.0, 1.645921724049842E9, 0.0, 2022-02-27 11:28:44.049
120.0, -1147.1585806797243, -4652.001518249693, -1731.5449394637276, -10023.818614938094, -305.1013118149414, 477.12033714298457, -5187.370501443208, -1350.738269178661, -1369.4019757988426, -5543.657308060802, -4213.2367745920155, -2934.091142903703, -3491.186021707776, -2293.601905536879, -9495.557486481368, -14406.816888668167, 0.008, -0.108, 0.984, 192.0, 0.0, 0.0, 0.0, 0.0, 0.0, 0.0, 0.0, 0.0, 0.0, 1.645921724057825E9, 0.0, 2022-02-27 11:28:44.057
122.0, -1025.1851111871138, -4573.4127847448335, -1656.1078019270662, -9947.934442512327, -164.17356302423036, 529.3116604461266, -5297.6987120746035, -1530.2227771547768, -3602.1400811839203, -5980.745670884332, -3956.6610999895456, -2970.3456724102107, -3055.014080406914, -2044.0223269489202, -9683.066270716938, -15166.127999559403, 0.008, -0.108, 0.984, 192.0, 0.0, 0.0, 0.0, 0.0, 0.0, 0.0, 0.0, 0.0, 0.0, 1.645921724063979E9, 0.0, 2022-02-27 11:28:44.063
124.0, -1652.598578047583, -5086.586485694228, -2043.5305885709035, -10357.463104422462, -648.7370310708321, 196.58359248442562, -5407.222259905608, -1611.2031473163543, -2630.8897293674627, -6234.370915218701, -4418.604602647377, -3126.405552197165, -3587.9467234548, -2472.8405443239863, -9762.482018766645, -15127.370074673901, 0.008, -0.108, 0.984, 192.0, 0.0, 0.0, 0.0, 0.0, 0.0, 0.0, 0.0, 0.0, 0.0, 1.64592172407139E9, 0.0, 2022-02-27 11:28:44.071
126.0, -947.9598340940279, -4530.430380157278, -1486.5921719780174, -9768.338175813935, 24.095180522821014, 714.6076219806221, -5083.121965303656, -1261.2865878685222, -2058.685071311602, -5503.267705830062, -4019.447150164503, -2917.5732037512307, -3194.846593719315, -2064.898856270177, -9460.554654664356, -14456.504816592314, 0.008, -0.108, 0.982, 192.0, 0.0, 32.0, 126.0, 80.0, 15.0, 88.0, 0.0, 0.0, 0.0, 1.64592172407936E9, 0.0, 2022-02-27 11:28:44.079
128.0, -1654.3867176040076, -5106.68070395955, -2057.4333736221047, -10380.753622144894, -645.9877665028295, 161.67016764523598, -5532.481435833149, -1790.1512134255427, -4222.021010162951, -6543.361430568866, -4245.266824396471, -3166.191657327611, -3284.298275029454, -2296.3288183604263, -9898.022997143627, -15672.707935894483, 0.008, -0.108, 0.982, 192.0, 0.0, 0.0, 0.0, 0.0, 0.0, 0.0, 0.0, 0.0, 0.0, 1.64592172408653E9, 0.0, 2022-02-27 11:28:44.086
130.0, -1281.0902334559244, -4785.799060559161, -1737.468151744384, -10022.969248648793, -297.6805326557795, 483.11060465700683, -5184.777699086392, -1343.228083041678, -1422.7779415581158, -5567.260750205606, -4263.394089149724, -2991.40101568711, -3486.290989672064, -2297.111129416362, -9487.77907941092, -14392.221199538852, 0.008, -0.108, 0.982, 192.0, 0.0, 0.0, 0.0, 0.0, 0.0, 0.0, 0.0, 0.0, 0.0, 1.64592172409407E9, 0.0, 2022-02-27 11:28:44.094
132.0, -1094.1178910872807, -4653.58849210602, -1664.2214851643428, -9953.231805948235, -180.13270856531963, 520.393314408459, -5301.0961772318105, -1545.0419837286454, -3659.8075818786124, -6031.595889520156, -3991.261600406361, -3001.101672780713, -3066.6369875236737, -2058.483905611504, -9689.749442309076, -15182.355366033957, 0.008, -0.108, 0.982, 192.0, 0.0, 0.0, 0.0, 0.0, 0.0, 0.0, 0.0, 0.0, 0.0, 1.645921724102111E9, 0.0, 2022-02-27 11:28:44.102
134.0, -1628.1681213579325, -5064.167686005555, -2049.0514694513645, -10360.391182946109, -677.6825401404549, 178.94806610918835, -5423.382571146795, -1636.4159150619407, -2652.5038662557445, -6244.51860720141, -4412.703742111175, -3128.104284775768, -3593.4229008463503, -2487.4809369422123, -9772.897931682817, -15149.252432495647, 0.008, -0.108, 0.982, 192.0, 0.0, 0.0, 0.0, 0.0, 0.0, 0.0, 0.0, 0.0, 0.0, 1.645921724110108E9, 0.0, 2022-02-27 11:28:44.110
136.0, -865.2136761204811, -4436.173073789248, -1491.5542592470956, -9761.655004221799, -5.319715180363081, 700.6601334405105, -5102.389169024131, -1282.4313381232428, -2039.3284606133059, -5465.493257700594, -4006.684304080523, -2896.8754883856163, -3204.3460851128207, -2059.869713767733, -9472.132858292205, -14461.533959094759, 0.01, -0.108, 0.978, 192.0, 0.0, 40.0, 126.0, 80.0, 15.0, 72.0, 0.0, 0.0, 0.0, 1.645921724117323E9, 0.0, 2022-02-27 11:28:44.117
138.0, -1526.9370707198466, -4983.70140596645, -2052.4265828641155, -10359.899444568091, -663.7350516003432, 158.65268214376954, -5546.674793562269, -1807.9879055008778, -4185.073576578328, -6506.101072561869, -4205.458367521568, -3129.6018516542736, -3288.4780512425964, -2310.6786383007334, -9908.640075759897, -15677.893540608115, 0.01, -0.108, 0.978, 192.0, 0.0, 0.0, 0.0, 0.0, 0.0, 0.0, 0.0, 0.0, 0.0, 1.645921724124474E9, 0.0, 2022-02-27 11:28:44.124
140.0, -1159.072060474403, -4677.25898948419, -1735.5235499767723, -10017.873050912984, -323.02741086809766, 472.24765685172764, -5203.88844059568, -1373.581752011985, -1364.12696410739, -5551.882750020355, -4214.3543618147805, -2938.561491794764, -3489.0402542400666, -2292.461966569658, -9495.6915969481, -14400.826621154145, 0.01, -0.108, 0.978, 192.0, 0.0, 0.0, 0.0, 0.0, 0.0, 0.0, 0.0, 0.0, 0.0, 1.645921724139033E9, 0.0, 2022-02-27 11:28:44.139
142.0, -963.7848691683853, -4529.044572001048, -1653.3138338701528, -9936.713866795762, -179.01512134255427, 530.7421720912662, -5304.940677278123, -1542.1809604383661, -3582.962284441267, -5971.045013790729, -3948.0556783742522, -2959.147448438102, -3060.6020165207406, -2047.3303851283058, -9688.140116708293, -15167.357345504446, 0.01, -0.108, 0.978, 192.0, 0.0, 0.0, 0.0, 0.0, 0.0, 0.0, 0.0, 0.0, 0.0, 1.645921724146985E9, 0.0, 2022-02-27 11:28:44.146
144.0, -1512.9448786908245, -4949.257367760822, -2036.35567860075, -10354.870302065649, -679.3589209746028, 181.54086846600396, -5439.341716687884, -1655.3925461044964, -2638.9587091158282, -6210.700417840531, -4377.4773928496115, -3107.205403710056, -3587.3655780989625, -2465.2856546980925, -9779.670510252776, -15161.456484968245, 0.01, -0.108, 0.978, 192.0, 0.0, 0.0, 0.0, 0.0, 0.0, 0.0, 0.0, 0.0, 0.0, 1.645921724154196E9, 0.0, 2022-02-27 11:28:44.154
146.0, -760.4510498584569, -4336.551348751945, -1483.954666132291, -9757.676393708754, -11.064113505376996, 706.2033660654266, -5107.150090593111, -1266.1145646708685, -1964.584227154759, -5438.537053887493, -3970.876809463121, -2867.4382409379773, -3204.4354920906417, -2066.1058504707635, -9470.858808858253, -14453.800255513223, 0.016, -0.106, 0.984, 192.0, 0.0, 64.0, 126.0, 88.0, 15.0, 96.0, 0.0, 0.0, 0.0, 1.645921724161561E9, 0.0, 2022-02-27 11:28:44.161
148.0, -1415.08894146549, -4873.507305801786, -2031.5277017984035, -10349.461179907463, -649.2734729377596, 172.7566328950683, -5543.500845849615, -1800.790643786269, -4169.673224648622, -6458.380098149789, -4165.091117035284, -3087.3123511448325, -3276.206943536633, -2287.321065344938, -9905.086148391503, -15679.81579063127, 0.016, -0.106, 0.984, 192.0, 0.0, 0.0, 0.0, 0.0, 0.0, 0.0, 0.0, 0.0, 0.0, 1.645921724169601E9, 0.0, 2022-02-27 11:28:44.169
150.0, -1081.8691351257723, -4576.631435946398, -1736.976413366367, -10031.574670264086, -329.7999894380557, 469.364281816993, -5228.944746130079, -1389.675008019806, -1347.5866732104628, -5532.839063744434, -4187.644027190689, -2924.189320110002, -3491.45424264124, -2296.060597426963, -9504.02879762993, -14423.04425514272, 0.016, -0.106, 0.984, 192.0, 0.0, 0.0, 0.0, 0.0, 0.0, 0.0, 0.0, 0.0, 0.0, 1.645921724177746E9, 0.0, 2022-02-27 11:28:44.177
152.0, -871.3157023567799, -4435.100190055393, -1641.4227058199294, -9926.92380272434, -172.53311545051523, 532.3962011809589, -5288.780366036936, -1526.8253119975702, -3506.3628561929295, -5901.844012957098, -3909.320105233205, -2943.210654641468, -3055.6622809961177, -2037.8755972237109, -9684.876762017819, -15152.828711608496, 0.016, -0.106, 0.984, 192.0, 0.0, 0.0, 0.0, 0.0, 0.0, 0.0, 0.0, 0.0, 0.0, 1.645921724184577E9, 0.0, 2022-02-27 11:28:44.184
154.0, -1450.2929389825988, -4897.736596791339, -2050.124353185219, -10356.233758477421, -699.0284560952731, 168.55450493747057, -5451.3669552048395, -1643.2331971208093, -2657.421250035912, -6220.401074934134, -4356.399697828258, -3081.590304564274, -3593.825232246546, -2477.9590938042516, -9791.405176091812, -15181.57305497802, 0.013000000000000001, -0.106, 0.983, 192.0, 0.0, 40.0, 126.0, 88.0, 15.0, 88.0, 0.0, 0.0, 0.0, 1.645921724191213E9, 0.0, 2022-02-27 11:28:44.191
156.0, -703.0741218416837, -4279.934380046651, -1488.96145689028, -9759.553940242999, -16.249718219008233, 691.2053455359156, -5095.661293943083, -1288.198088192712, -1910.4035985950945, -5422.756722302047, -3957.711631978945, -2842.6501563370416, -3218.673553308672, -2069.12333597223, -9470.076497802318, -14449.86634848909, 0.013000000000000001, -0.106, 0.983, 192.0, 0.0, 0.0, 0.0, 0.0, 0.0, 0.0, 0.0, 0.0, 0.0, 1.645921724199324E9, 0.0, 2022-02-27 11:28:44.199
158.0, -1360.193057083256, -4815.750398129273, -2034.9251669556104, -10343.157987971066, -653.8779322955528, 166.52049619203763, -5546.093648206431, -1810.9606875134334, -4156.195122742071, -6436.073057183392, -4146.606224370745, -3071.1967433925565, -3273.1894580351664, -2276.234600095105, -9904.72852048022, -15685.806058145292, 0.013000000000000001, -0.106, 0.983, 192.0, 0.0, 0.0, 0.0, 0.0, 0.0, 0.0, 0.0, 0.0, 0.0, 1.645921724207428E9, 0.0, 2022-02-27 11:28:44.207
160.0, -1052.1189632557587, -4550.99398505616, -1747.1688088379872, -10034.055713898626, -344.75330647865616, 457.204932833306, -5216.114844812732, -1386.1210806514123, -1344.032745842069, -5531.922642221766, -4186.034701589907, -2899.803566909262, -3506.9440015487676, -2296.082949171418, -9513.483585534525, -14438.556365794704, 0.013000000000000001, -0.106, 0.983, 192.0, 0.0, 0.0, 0.0, 0.0, 0.0, 0.0, 0.0, 0.0, 0.0, 1.645921724213903E9, 0.0, 2022-02-27 11:28:44.213
162.0, -827.7074489244758, -4393.883573279807, -1631.9008626819686, -9921.626439288431, -166.67695840322477, 542.2756722302047, -5288.33333114783, -1537.665908058394, -3478.6243413238935, -5892.456280285869, -3902.9275063189875, -2918.2437560848903, -3058.411545564121, -2025.224509862007, -9679.780564282008, -15143.016295792617, 0.013000000000000001, -0.106, 0.983, 192.0, 0.0, 0.0, 0.0, 0.0, 0.0, 0.0, 0.0, 0.0, 0.0, 1.645921724222019E9, 0.0, 2022-02-27 11:28:44.222
164.0, -1415.4018658878645, -4848.741572945306, -2041.3401176142834, -10354.33386019872, -694.8039763932201, 167.19104852569683, -5447.433048180706, -1653.5820548036165, -2645.5301219856888, -6199.077510723771, -4339.457075531134, -3063.038356666369, -3586.5162118096605, -2469.688948355788, -9792.589818547944, -15188.569150992531, 0.0125, -0.106, 0.9835, 192.0, 0.0, 48.0, 126.0, 88.0, 15.0, 96.0, 0.0, 0.0, 0.0, 1.645921724229919E9, 0.0, 2022-02-27 11:28:44.229
166.0, -672.0946040266281, -4248.50782734249, -1486.5921719780174, -9752.066105850472, -17.43436067513951, 692.6582089255106, -5119.577660510262, -1287.773405048061, -1894.779729220835, -5399.086224923876, -3940.836064915188, -2828.1438741855472, -3211.9456782276247, -2069.5927226057916, -9476.200875783072, -14447.698229276924, 0.0125, -0.106, 0.9835, 192.0, 0.0, 0.0, 0.0, 0.0, 0.0, 0.0, 0.0, 0.0, 0.0, 1.645921724236803E9, 0.0, 2022-02-27 11:28:44.236
168.0, -1341.1493708073344, -4801.244115977778, -2040.3342891137945, -10346.287232194809, -654.9731677738629, 149.53317040600425, -5552.463895376193, -1828.1268272551094, -4147.410887171136, -6445.416086365711, -4132.815198041821, -3052.309519327822, -3268.3838329772752, -2274.625274494323, -9919.570078798542, -15687.258921534887, 0.0125, -0.106, 0.9835, 192.0, 0.0, 0.0, 0.0, 0.0, 0.0, 0.0, 0.0, 0.0, 0.0, 1.645921724244619E9, 0.0, 2022-02-27 11:28:44.244
170.0, -1035.1316374697253, -4538.052325016538, -1749.4039832835178, -10028.93716441836, -348.3519373359606, 440.99991810320836, -5215.690161668082, -1397.0063802011466, -1325.5031496886195, -5525.9770781966545, -4177.943370097086, -2890.7734621493178, -3503.3006672025526, -2299.1227864173397, -9521.060826904873, -14436.47765356036, 0.0125, -0.106, 0.9835, 192.0, 0.0, 0.0, 0.0, 0.0, 0.0, 0.0, 0.0, 0.0, 0.0, 1.645921724259684E9, 0.0, 2022-02-27 11:28:44.259
172.0, -815.7492656408865, -4380.964264984639, -1636.3488598285749, -9917.15609039737, -171.68374916121354, 523.5449103766573, -5310.930944792145, -1565.694995605349, -3479.7195768022034, -5911.164690394961, -3907.062579043219, -2911.515881003843, -3071.5543713038414, -2035.4616088225378, -9696.142041223293, -15156.650859910353, 0.0125, -0.106, 0.9835, 192.0, 0.0, 0.0, 0.0, 0.0, 0.0, 0.0, 0.0, 0.0, 0.0, 1.645921724266251E9, 0.0, 2022-02-27 11:28:44.266
174.0, -1420.1180839679341, -4856.832904438127, -2057.612187577747, -10369.600101661696, -703.6999706864323, 144.3028622034624, -5455.233806995608, -1686.3497121750966, -2677.2025438788587, -6210.834528307263, -4344.687383733676, -3072.6496067821513, -3594.5181363246606, -2478.048500782073, -9811.007655979116, -15222.58850605351, 0.013250000000000001, -0.10500000000000001, 0.98575, 192.0, 0.0, 56.0, 126.0, 96.0, 15.0, 112.0, 0.0, 0.0, 0.0, 1.645921724274225E9, 0.0, 2022-02-27 11:28:44.274
176.0, -691.4065112360133, -4268.579693863356, -1502.506614030196, -9771.757992715597, -22.59761364431544, 669.1441737585276, -5107.083035359745, -1297.16113771929, -1883.4473947819943, -5402.014303447521, -3962.003166914364, -2834.156493444025, -3233.917443027192, -2080.232152966518, -9482.034681085906, -14456.795389270233, 0.013250000000000001, -0.10500000000000001, 0.98575, 192.0, 0.0, 0.0, 0.0, 0.0, 0.0, 0.0, 0.0, 0.0, 0.0, 1.645921724282235E9, 0.0, 2022-02-27 11:28:44.282
178.0, -1346.4690859876976, -4808.530784670208, -2039.0155361909315, -10349.148255485088, -647.5970921036115, 152.03656578499863, -5552.173322698274, -1805.8868415220788, -4179.060957319851, -6475.94856929166, -4151.702422106555, -3073.99071144947, -3279.492649971563, -2286.5834577779124, -9919.01128518716, -15694.165610571577, 0.013250000000000001, -0.10500000000000001, 0.98575, 192.0, 0.0, 0.0, 0.0, 0.0, 0.0, 0.0, 0.0, 0.0, 0.0, 1.645921724289376E9, 0.0, 2022-02-27 11:28:44.289
180.0, -1066.2452657515128, -4565.589674185476, -1761.9433119229452, -10054.552263564143, -359.5278095636141, 430.87457786495423, -5223.0885890827885, -1384.13177539489, -1366.0045106416358, -5548.552340096515, -4205.190146588105, -2914.8462909276836, -3516.4658446867284, -2326.7718943085547, -9527.967515941562, -14457.376534626072, 0.013250000000000001, -0.10500000000000001, 0.98575, 192.0, 0.0, 0.0, 0.0, 0.0, 0.0, 0.0, 0.0, 0.0, 0.0, 1.645921724296933E9, 0.0, 2022-02-27 11:28:44.296
182.0, -816.7327423969201, -4381.098375451372, -1628.8163219471362, -9920.888831721406, -156.86454258734497, 541.8956925744644, -5294.368302150763, -1532.0109167112014, -3449.924701443279, -5910.807062483676, -3914.7068756469343, -2922.2000148534794, -3067.553409046341, -2039.8649024802332, -9680.607578826855, -15127.928868285284, 0.013250000000000001, -0.10500000000000001, 0.98575, 192.0, 0.0, 0.0, 0.0, 0.0, 0.0, 0.0, 0.0, 0.0, 0.0, 1.645921724304838E9, 0.0, 2022-02-27 11:28:44.304
184.0, -1425.8624822929482, -4855.4023927929875, -2056.2710829104285, -10372.081145296233, -699.319028773192, 162.76540312354604, -5458.36305121935, -1672.826906779636, -2712.7194658183416, -6235.823778608296, -4350.722354736609, -3086.395929622165, -3586.4268048318395, -2472.4382129237906, -9809.37597863388, -15223.3931688539, 0.013625000000000002, -0.10450000000000001, 0.9878750000000001, 192.0, 0.0, 56.0, 126.0, 96.0, 15.0, 120.0, 0.0, 0.0, 0.0, 1.645921724312038E9, 0.0, 2022-02-27 11:28:44.312
186.0, -690.870069369086, -4262.097687971316, -1497.9021546724027, -9761.811466432986, -8.180738470642385, 689.0595780682062, -5092.085014830233, -1280.9561229891924, -1862.0791270827208, -5407.579887816893, -3962.9642919259422, -2843.6559848375305, -3226.451960379119, -2071.3361586733054, -9474.189218782094, -14435.494176804326, 0.013625000000000002, -0.10450000000000001, 0.9878750000000001, 192.0, 0.0, 0.0, 0.0, 0.0, 0.0, 0.0, 0.0, 0.0, 0.0, 1.645921724319066E9, 0.0, 2022-02-27 11:28:44.319
188.0, -1341.2611295296108, -4804.552174157164, -2033.8969867106662, -10337.748865812882, -641.6068245895892, 153.10944951885338, -5529.933336965244, -1815.7439608268692, -4171.371957227225, -6461.129362717791, -4145.0863057477845, -3068.5145340579193, -3262.907655585725, -2276.860448939854, -9909.377683326922, -15682.274482521354, 0.013625000000000002, -0.10450000000000001, 0.9878750000000001, 192.0, 0.0, 0.0, 0.0, 0.0, 0.0, 0.0, 0.0, 0.0, 0.0, 1.645921724326429E9, 0.0, 2022-02-27 11:28:44.326
190.0, -1051.2025417330913, -4551.530426923087, -1756.0871548756547, -10038.816635467605, -354.00692868315326, 438.47417097975864, -5208.627010420205, -1384.7129207507278, -1343.608062697418, -5551.055735475509, -4195.556544727868, -2905.8161861677395, -3503.4347776692844, -2311.4833011011247, -9517.059864647374, -14441.596203040624, 0.013625000000000002, -0.10450000000000001, 0.9878750000000001, 192.0, 0.0, 0.0, 0.0, 0.0, 0.0, 0.0, 0.0, 0.0, 0.0, 1.645921724334416E9, 0.0, 2022-02-27 11:28:44.334
192.0, -805.735684124909, -4362.077040919905, -1621.6414119769827, -9899.34175006649, -155.59049315339246, 534.1172855040176, -5286.992226480512, -1536.4812656022627, -3441.5875007614495, -5883.873210415031, -3907.8001866102445, -2900.921154132027, -3069.766231747417, -2041.5189315699258, -9681.434593371701, -15124.263182194612, 0.013625000000000002, -0.10450000000000001, 0.9878750000000001, 192.0, 0.0, 0.0, 0.0, 0.0, 0.0, 0.0, 0.0, 0.0, 0.0, 1.64592172434255E9, 0.0, 2022-02-27 11:28:44.342
194.0, -1424.3649154144425, -4853.368384047554, -2057.8804085112106, -10366.068526037756, -699.7660636622982, 139.78780982349036, -5444.773190590524, -1681.7229010728481, -2751.0750593036487, -6232.560423917821, -4347.168427368215, -3068.7156997580173, -3581.956455940778, -2483.234105495704, -9807.118452443892, -15239.844052773005, 0.010812500000000001, -0.10625000000000001, 0.9889375, 192.0, 0.0, 32.0, 126.0, 80.0, 15.0, 120.0, 0.0, 0.0, 0.0, 1.64592172434923E9, 0.0, 2022-02-27 11:28:44.349
196.0, -683.7622146322983, -4256.822676279864, -1496.0693116270677, -9763.554902500498, -13.612212373282, 673.1674877604828, -5092.844974141714, -1285.2253061801562, -1835.4358476919947, -5393.632399276781, -3960.5950070136796, -2840.213816191413, -3224.037971977946, -2086.9823797920203, -9460.711116875544, -14435.829452971157, 0.010812500000000001, -0.10625000000000001, 0.9889375, 192.0, 0.0, 0.0, 0.0, 0.0, 0.0, 0.0, 0.0, 0.0, 0.0, 1.645921724357095E9, 0.0, 2022-02-27 11:28:44.357
198.0, -1319.8928618303373, -4779.808793045138, -2019.1671871146189, -10330.28338316481, -623.6360220475224, 160.7537461225684, -5531.699124777213, -1816.1686439715202, -4165.784021113399, -6450.735801546073, -4129.529491606891, -3075.8459062392603, -3247.26143446701, -2263.181181333206, -9895.966636653739, -15682.028613332346, 0.010812500000000001, -0.10625000000000001, 0.9889375, 192.0, 0.0, 0.0, 0.0, 0.0, 0.0, 0.0, 0.0, 0.0, 0.0, 1.645921724365061E9, 0.0, 2022-02-27 11:28:44.365
200.0, -1066.915818085172, -4557.967729326217, -1772.0015969278334, -10044.091647159059, -370.5248678356252, 419.51989168165824, -5227.760103673948, -1393.9888946996803, -1369.3796240543872, -5536.214177157185, -4200.317466296848, -2903.983343122404, -3511.7496266066587, -2325.2519756855936, -9522.200765872094, -14465.95960449691, 0.010812500000000001, -0.10625000000000001, 0.9889375, 192.0, 0.0, 0.0, 0.0, 0.0, 0.0, 0.0, 0.0, 0.0, 0.0, 1.645921724371783E9, 0.0, 2022-02-27 11:28:44.371
202.0, -797.6890561209984, -4353.426915815701, -1623.921289911424, -9890.468107517732, -150.69546111768022, 539.682869873389, -5280.800793266391, -1537.0400592136455, -3404.3941979878186, -5877.547666734179, -3910.2812302447833, -2902.5528314772646, -3068.2239613800007, -2044.8940449826773, -9671.577474066911, -15103.431356362267, 0.010812500000000001, -0.10625000000000001, 0.9889375, 192.0, 0.0, 0.0, 0.0, 0.0, 0.0, 0.0, 0.0, 0.0, 0.0, 1.645921724386752E9, 0.0, 2022-02-27 11:28:44.386
204.0, -1420.0063252456578, -4849.479180512331, -2064.1165452142413, -10366.515560926862, -715.8593196701192, 133.50696963154908, -5478.881952629323, -1694.530450645739, -2783.641550975031, -6246.396153735656, -4343.614499999821, -3065.944083445559, -3573.3957378143955, -2477.757928104154, -9816.148557203836, -15259.223015215757, 0.01040625, -0.106125, 0.98746875, 192.0, 0.0, 40.0, 126.0, 88.0, 15.0, 104.0, 0.0, 0.0, 0.0, 1.645921724394741E9, 0.0, 2022-02-27 11:28:44.394
206.0, -682.7787378762648, -4250.31831864337, -1500.1596808623888, -9765.03011763455, -32.74530562702485, 667.9818830468515, -5114.749683707915, -1295.5741638629634, -1798.1307861960872, -5392.246591120553, -3959.1197918796292, -2822.51123458281, -3230.2070534476106, -2090.1116240157635, -9469.718869891032, -14432.521394791771, 0.01040625, -0.106125, 0.98746875, 192.0, 0.0, 0.0, 0.0, 0.0, 0.0, 0.0, 0.0, 0.0, 0.0, 1.645921724401301E9, 0.0, 2022-02-27 11:28:44.401
208.0, -1300.4468441542201, -4763.916702737415, -2008.192480587063, -10316.671170791527, -624.3065743811816, 166.185220025208, -5542.629127815858, -1830.2278912339082, -4157.603282642756, -6420.091559897847, -4116.543128078357, -3049.001461148436, -3236.6667075951946, -2263.9411406446866, -9899.587619255499, -15685.135505811633, 0.01040625, -0.106125, 0.98746875, 192.0, 0.0, 0.0, 0.0, 0.0, 0.0, 0.0, 0.0, 0.0, 0.0, 1.645921724409375E9, 0.0, 2022-02-27 11:28:44.409
210.0, -1072.146126287714, -4564.76265964063, -1774.9743789403892, -10057.010955454225, -381.5889813410022, 414.42369394584824, -5239.7629904464475, -1411.3114966525432, -1377.3368450804765, -5570.993491529643, -4203.759634942965, -2909.571279236231, -3508.1733474938096, -2324.737885563122, -9531.208518887583, -14484.48920065036, 0.01040625, -0.106125, 0.98746875, 192.0, 0.0, 0.0, 0.0, 0.0, 0.0, 0.0, 0.0, 0.0, 0.0, 1.645921724417432E9, 0.0, 2022-02-27 11:28:44.417
212.0, -781.2381722018924, -4345.469694789612, -1608.8115106596365, -9887.785898183096, -138.17848422270825, 546.5448554211683, -5280.130240932732, -1540.7280970487711, -3362.1046974783776, -5842.276613983705, -3906.9061168320322, -2892.8521743836613, -3058.5903595197633, -2034.902815211155, -9664.916654219229, -15092.568408556988, 0.01040625, -0.106125, 0.98746875, 192.0, 0.0, 0.0, 0.0, 0.0, 0.0, 0.0, 0.0, 0.0, 0.0, 1.645921724424333E9, 0.0, 2022-02-27 11:28:44.424
214.0, -1420.0063252456578, -4851.312023557666, -2067.6481208381797, -10370.136543528622, -722.7883604512645, 133.46226614263847, -5492.471813258149, -1697.9949710363117, -2839.9455952579497, -6259.918959131117, -4341.580491254388, -3059.685594998073, -3561.437554530806, -2469.0630995110396, -9820.395388650346, -15281.351242226512, 0.011203125000000001, -0.1040625, 0.9867343749999999, 192.0, 0.0, 48.0, 126.0, 104.0, 15.0, 104.0, 0.0, 0.0, 0.0, 1.645921724431966E9, 0.0, 2022-02-27 11:28:44.431
216.0, -684.678636154966, -4254.185170434138, -1502.8418901970256, -9767.399402546813, -44.07764006586553, 663.6232928780666, -5118.169500609577, -1306.2359459681447, -1753.5167042632943, -5386.524544539994, -3972.754355997367, -2823.829987505673, -3244.8027425769264, -2100.03579855392, -9468.400116968169, -14418.775071951757, 0.011203125000000001, -0.1040625, 0.9867343749999999, 192.0, 0.0, 0.0, 0.0, 0.0, 0.0, 0.0, 0.0, 0.0, 0.0, 1.645921724439002E9, 0.0, 2022-02-27 11:28:44.439
218.0, -1296.0435504965246, -4755.8477229890495, -2009.4441782765603, -10311.910249222547, -630.1627314284721, 177.18227829721909, -5541.310374892995, -1803.137576954076, -4143.320517935815, -6420.046856408937, -4117.7948257678545, -3052.331871072277, -3237.180797717667, -2257.9732248751193, -9895.698415720275, -15662.984927056425, 0.011203125000000001, -0.1040625, 0.9867343749999999, 192.0, 0.0, 0.0, 0.0, 0.0, 0.0, 0.0, 0.0, 0.0, 0.0, 1.645921724447E9, 0.0, 2022-02-27 11:28:44.447
220.0, -1061.0149575489709, -4554.011470557627, -1772.8286114726798, -10057.010955454225, -389.9708855117423, 413.9096038233762, -5232.99041187649, -1419.9392700122917, -1370.4748595326973, -5560.0187850020875, -4206.464196022057, -2900.5858779651976, -3516.7564173646474, -2326.369562908359, -9529.018047930962, -14479.884741292566, 0.011203125000000001, -0.1040625, 0.9867343749999999, 192.0, 0.0, 0.0, 0.0, 0.0, 0.0, 0.0, 0.0, 0.0, 0.0, 1.645921724454102E9, 0.0, 2022-02-27 11:28:44.454
222.0, -763.2450179153702, -4322.939136378663, -1598.1720802989103, -9879.783973668096, -137.61969061132558, 560.6935096613777, -5271.658929784171, -1528.6134515539948, -3333.0697814309337, -5829.58082313309, -3903.6427621415573, -2884.514973701832, -3065.2735311119, -2043.1729606596186, -9659.395773338769, -15081.70546075171, 0.011203125000000001, -0.1040625, 0.9867343749999999, 192.0, 0.0, 0.0, 0.0, 0.0, 0.0, 0.0, 0.0, 0.0, 0.0, 1.645921724461534E9, 0.0, 2022-02-27 11:28:44.461
224.0, -1400.4932523361747, -4829.876700625026, -2051.4654578525374, -10360.81586609076, -711.8136539237087, 141.8218185689233, -5460.642929153792, -1687.6684650979598, -2792.6269522460643, -6230.012325049916, -4330.359915537824, -3056.6457577521514, -3561.7281272087253, -2465.687986098288, -9809.018350722594, -15264.699192607308, 0.008, -0.098, 0.994, 192.0, 0.0, 32.0, 126.0, 120.0, 15.5, 8.0, 0.0, 0.0, 0.0, 1.645921724469548E9, 0.0, 2022-02-27 11:28:44.469
226.0, -693.4852234703569, -4255.660385568188, -1500.1149773734783, -9765.164228101281, -42.200093531619736, 665.3890806900359, -5096.823584654759, -1287.8851637703376, -1794.263934405319, -5392.179535887187, -3965.668853005034, -2822.8018072607288, -3230.095294725334, -2094.5596211623697, -9458.520645918923, -14426.66523774448, 0.008, -0.098, 0.994, 192.0, 0.0, 0.0, 0.0, 0.0, 0.0, 0.0, 0.0, 0.0, 0.0, 1.645921724476751E9, 0.0, 2022-02-27 11:28:44.476
228.0, -1293.2719341840666, -4758.731098023784, -1997.3742362706944, -10303.75186249636, -620.6855917794218, 176.62348468583642, -5548.619395329881, -1827.590385388182, -4161.425430944613, -6432.943812959649, -4123.874500259698, -3048.7332402149727, -3242.075829753379, -2261.8400766658874, -9892.859744174451, -15670.964499826969, 0.008, -0.098, 0.994, 192.0, 0.0, 0.0, 0.0, 0.0, 0.0, 0.0, 0.0, 0.0, 0.0, 1.645921724484324E9, 0.0, 2022-02-27 11:28:44.484
230.0, -1070.7826698759402, -4560.873456105406, -1775.8013934852356, -10061.593063067563, -395.89409779239867, 412.3002782225941, -5266.89800821519, -1414.6866100652946, -1392.3125138655323, -5576.559075899015, -4212.342704813803, -2900.3623605206444, -3522.41140871184, -2333.0527345004957, -9534.561280555878, -14491.932331553977, 0.008, -0.098, 0.994, 192.0, 0.0, 0.0, 0.0, 0.0, 0.0, 0.0, 0.0, 0.0, 0.0, 1.645921724492195E9, 0.0, 2022-02-27 11:28:44.492
232.0, -765.8154685277306, -4329.242328315059, -1594.3946354859634, -9880.454526001755, -140.4583621571496, 548.4000502109587, -5268.663796027159, -1504.7194367312716, -3317.1106358898446, -5848.088067542085, -3910.5047476893365, -2890.706406915952, -3072.090813170769, -2045.385783360694, -9658.457000071645, -15067.579158255954, 0.008, -0.098, 0.994, 192.0, 0.0, 0.0, 0.0, 0.0, 0.0, 0.0, 0.0, 0.0, 0.0, 1.645921724506282E9, 0.0, 2022-02-27 11:28:44.506
234.0, -1407.3552378839538, -4834.548215216186, -2054.997033476476, -10375.679776153538, -722.4307325399795, 133.64108009828092, -5486.928580633233, -1708.9920293083228, -2854.4965808983543, -6248.631328181187, -4336.126665607294, -3062.6136735217183, -3562.0186998866443, -2477.4450036817793, -9814.494528114144, -15293.64470167693, 0.012, -0.098, 0.992, 192.0, 0.0, 48.0, 126.0, 120.0, 15.5, 0.0, 0.0, 0.0, 0.0, 1.645921724513925E9, 0.0, 2022-02-27 11:28:44.513
236.0, -676.1849732619493, -4244.529216829445, -1494.5493930041068, -9773.322614827468, -44.68113716615882, 661.7233945993656, -5129.501835048418, -1303.6654953557845, -1744.620709970082, -5377.628550246782, -3967.92637919502, -2815.4033798460223, -3246.5685303888954, -2110.9434498481096, -9465.87436984472, -14423.75951096529, 0.012, -0.098, 0.992, 192.0, 0.0, 0.0, 0.0, 0.0, 0.0, 0.0, 0.0, 0.0, 0.0, 1.645921724521886E9, 0.0, 2022-02-27 11:28:44.521
238.0, -1271.9483699737036, -4744.783609483673, -1988.3664832552056, -10300.600266528161, -612.035466675218, 182.054958588476, -5525.775912496557, -1800.142443197065, -4160.3525472107585, -6419.353952330823, -4108.76472100791, -3035.433952264065, -3232.598690104329, -2255.670995196223, -9888.858781916952, -15671.38918297162, 0.012, -0.098, 0.992, 192.0, 0.0, 0.0, 0.0, 0.0, 0.0, 0.0, 0.0, 0.0, 0.0, 1.645921724529962E9, 0.0, 2022-02-27 11:28:44.529
240.0, -1074.0460245664149, -4558.638281659875, -1783.4680418334058, -10076.725194063807, -407.3605426979712, 402.8454903179992, -5255.163342376154, -1421.3474299129762, -1404.7847872715936, -5579.733023611668, -4220.523443284445, -2907.760787935351, -3533.9672605952337, -2332.493940889113, -9538.204614902093, -14507.690311394968, 0.012, -0.098, 0.992, 192.0, 0.0, 0.0, 0.0, 0.0, 0.0, 0.0, 0.0, 0.0, 0.0, 1.645921724536582E9, 0.0, 2022-02-27 11:28:44.536
242.0, -756.3606806231357, -4325.241366057559, -1594.1934697858655, -9877.660557944842, -135.85390279935632, 556.7819543816989, -5284.511182845972, -1526.1994631528216, -3292.300199544454, -5840.376715705003, -3904.3356662196716, -2895.2661627848343, -3073.007234693436, -2041.7871525033895, -9654.85836921434, -15064.65107973231, 0.012, -0.098, 0.992, 192.0, 0.0, 0.0, 0.0, 0.0, 0.0, 0.0, 0.0, 0.0, 0.0, 1.645921724544421E9, 0.0, 2022-02-27 11:28:44.544
244.0, -1415.7594937991494, -4846.886378155516, -2064.965911503543, -10377.043232565313, -729.516235532312, 111.51285308752693, -5498.70794996118, -1721.7548753923031, -2860.419793179011, -6267.697366201564, -4341.647546487755, -3068.5815892912856, -3567.2937115780965, -2493.9182393453407, -9827.704409087231, -15300.529038969165, 0.012, -0.1, 0.986, 192.0, 0.0, 48.0, 126.0, 112.0, 15.0, 104.0, 0.0, 0.0, 0.0, 1.645921724552531E9, 0.0, 2022-02-27 11:28:44.552
246.0, -690.1101100576055, -4256.2638826684815, -1503.0654076415788, -9773.099097382916, -52.19132330314199, 639.1034292105949, -5133.34633509473, -1311.4662541706866, -1753.5837594966604, -5389.899657952745, -3980.8903909790984, -2820.1419496705475, -3252.7599636030154, -2108.7976823804, -9464.935596577598, -14421.144356864019, 0.012, -0.1, 0.986, 192.0, 0.0, 0.0, 0.0, 0.0, 0.0, 0.0, 0.0, 0.0, 0.0, 1.645921724559605E9, 0.0, 2022-02-27 11:28:44.559
248.0, -1288.3321986594437, -4749.991565941759, -2005.5996782302475, -10314.838327746193, -627.1452459270056, 151.54482740698188, -5558.074183234476, -1824.8634725646345, -4180.156192798161, -6393.783556673951, -4119.828834513287, -3040.306632555322, -3240.153579730222, -2273.507687271558, -9899.207639599757, -15682.118020310167, 0.012, -0.1, 0.986, 192.0, 0.0, 0.0, 0.0, 0.0, 0.0, 0.0, 0.0, 0.0, 0.0, 1.645921724566184E9, 0.0, 2022-02-27 11:28:44.566
250.0, -1059.6738528816525, -4553.810304857529, -1777.4554225749282, -10066.353984636544, -393.4354059023149, 393.368350668949, -5257.6667377551485, -1423.739066569694, -1383.774147483605, -5603.425872734293, -4216.924812427141, -2905.4585582564546, -3526.3006122470633, -2335.6231851128564, -9534.181300900138, -14490.658282120025, 0.012, -0.1, 0.986, 192.0, 0.0, 0.0, 0.0, 0.0, 0.0, 0.0, 0.0, 0.0, 0.0, 1.645921724574177E9, 0.0, 2022-02-27 11:28:44.574
252.0, -743.9778141948956, -4316.0771508308835, -1591.5783156845946, -9870.060964830038, -130.40007715226142, 553.0268613132073, -5280.420813610651, -1505.0547128981011, -3303.7219409611157, -5844.82471285161, -3901.720512118401, -2886.280761513801, -3064.17829563359, -2047.933882228599, -9656.467694815123, -15067.132123366848, 0.012, -0.1, 0.986, 192.0, 0.0, 0.0, 0.0, 0.0, 0.0, 0.0, 0.0, 0.0, 0.0, 1.645921724582319E9, 0.0, 2022-02-27 11:28:44.582
254.0, -1413.8595955204482, -4843.980651376325, -2069.8832952837106, -10377.043232565313, -734.7241919903985, 114.50798684453808, -5486.481545744127, -1720.9949160808226, -2884.962008590938, -6278.850886684762, -4341.356973809836, -3067.1287259016904, -3559.314138807552, -2475.813326336542, -9828.576127120987, -15306.496954738732, 0.012, -0.1, 0.988, 192.0, 0.0, 48.0, 126.0, 112.0, 15.0, 112.0, 0.0, 0.0, 0.0, 1.645921724588867E9, 0.0, 2022-02-27 11:28:44.588
0.0, -684.969208832885, -4257.403821635702, -1502.998352408213, -9771.534475271044, -50.336128513351504, 649.3628799155808, -5125.478521046462, -1300.938582532237, -1740.396230268029, -5393.118309154309, -3976.5318008103136, -2821.930089226972, -3245.674460610683, -2098.6276386532354, -9465.203817511061, -14414.103557360597, 0.012, -0.1, 0.988, 192.0, 0.0, 0.0, 0.0, 0.0, 0.0, 0.0, 0.0, 0.0, 0.0, 1.645921724596661E9, 0.0, 2022-02-27 11:28:44.596
2.0, -1258.1573436447793, -4732.087818633058, -1980.744538395946, -10292.732452479893, -593.5058705217684, 186.23473480161846, -5524.054828173498, -1818.1132457391318, -4189.968608614041, -6421.253850609523, -4109.837604741765, -3042.1618273451127, -3214.337314884343, -2247.5573119589462, -9889.261113317147, -15673.087915550223, 0.012, -0.1, 0.988, 192.0, 0.0, 0.0, 0.0, 0.0, 0.0, 0.0, 0.0, 0.0, 0.0, 1.645921724604839E9, 0.0, 2022-02-27 11:28:44.604
4.0, -1084.1490130602137, -4574.731537667696, -1792.364036126618, -10086.068223246124, -410.1545107548846, 394.0612547470635, -5254.537493531406, -1428.9693747722358, -1422.8002933025712, -5613.551212972548, -4225.418475320158, -2913.594593238186, -3519.483330188195, -2344.630938128345, -9539.74688526951, -14518.7767766448, 0.012, -0.1, 0.988, 192.0, 0.0, 0.0, 0.0, 0.0, 0.0, 0.0, 0.0, 0.0, 0.0, 1.645921724611976E9, 0.0, 2022-02-27 11:28:44.611
6.0, -746.8611892296302, -4313.976086852084, -1585.051606303645, -9869.278653774101, -123.04635322646538, 567.0637568311402, -5263.411136080163, -1507.0663698990786, -3260.963053818113, -5815.655686337434, -3904.0003900528422, -2889.119433059625, -3055.505818784931, -2037.9203007126214, -9642.85548244184, -15034.431521228735, 0.012, -0.1, 0.988, 192.0, 0.0, 0.0, 0.0, 0.0, 0.0, 0.0, 0.0, 0.0, 0.0, 1.645921724619296E9, 0.0, 2022-02-27 11:28:44.619
8.0, -1431.539825384596, -4855.380041048532, -2074.577161619325, -10386.38626174763, -737.741677491865, 116.00555372304366, -5485.0063306100765, -1724.884119616046, -2954.5206373358533, -6297.1569653936585, -4345.29088083397, -3078.930446974093, -3553.346223037985, -2485.201059007771, -9833.42645566779, -15325.317123570101, 0.01, -0.10200000000000001, 0.98, 192.0, 0.0, 40.0, 126.0, 104.0, 15.0, 80.0, 0.0, 0.0, 0.0, 1.645921724634746E9, 0.0, 2022-02-27 11:28:44.634
10.0, -711.5230812457897, -4278.034481767951, -1511.603774023506, -9783.760879488096, -62.45077400812794, 646.8818362810417, -5115.755512208404, -1302.4361494107425, -1723.632421926549, -5388.759718985524, -3998.7270830544335, -2834.8270457776844, -3263.220580008099, -2118.587746451825, -9462.186332009594, -14400.066661842664, 0.01, -0.10200000000000001, 0.98, 192.0, 0.0, 0.0, 0.0, 0.0, 0.0, 0.0, 0.0, 0.0, 0.0, 1.64592172464147E9, 0.0, 2022-02-27 11:28:44.641
12.0, -1288.354550403899, -4759.3122433796225, -1994.8931926361554, -10311.530269566807, -611.7672457417543, 175.75176665207943, -5536.61650855738, -1823.5447196417715, -4194.237791805004, -6429.8145687359065, -4119.560613579823, -3056.2881298408665, -3227.390733646242, -2255.738050429589, -9891.920970907328, -15662.649650889594, 0.01, -0.10200000000000001, 0.98, 192.0, 0.0, 0.0, 0.0, 0.0, 0.0, 0.0, 0.0, 0.0, 0.0, 1.645921724649024E9, 0.0, 2022-02-27 11:28:44.649
14.0, -1081.3550450033003, -4574.932703367795, -1783.1104139221209, -10076.501676619253, -391.8931355348987, 403.9854292852198, -5236.656097967159, -1422.0179822466353, -1406.9752582282138, -5603.559983201026, -4226.2678416094595, -2918.891956674094, -3521.494987189172, -2340.8534933153983, -9532.482568321535, -14494.279264721783, 0.01, -0.10200000000000001, 0.98, 192.0, 0.0, 0.0, 0.0, 0.0, 0.0, 0.0, 0.0, 0.0, 0.0, 1.645921724657251E9, 0.0, 2022-02-27 11:28:44.657
16.0, -753.6784712884988, -4322.76032242302, -1588.0020365717455, -9866.90936886184, -111.33403913188448, 580.0501203596735, -5251.0282696519225, -1502.2607448411877, -3285.8628971413254, -5838.767390104222, -3915.48918670287, -2897.9483721194715, -3061.071403154302, -2042.3012426258617, -9643.883662686785, -15036.174957296249, 0.01, -0.10200000000000001, 0.98, 192.0, 0.0, 0.0, 0.0, 0.0, 0.0, 0.0, 0.0, 0.0, 0.0, 1.645921724665231E9, 0.0, 2022-02-27 11:28:44.665
18.0, -1437.1501132428782, -4858.3975265499985, -2076.275894197928, -10389.493154226919, -730.7008779884432, 127.15907420624188, -5476.736185161613, -1723.4759597153616, -2946.049326187292, -6286.495183288477, -4353.0022326710505, -3094.531964603897, -3553.36857478244, -2487.3691782199357, -9830.476025399688, -15313.73891994225, 0.012, -0.106, 0.984, 192.0, 0.0, 48.0, 126.0, 88.0, 15.0, 96.0, 0.0, 0.0, 0.0, 1.645921724671693E9, 0.0, 2022-02-27 11:28:44.671
20.0, -714.4958632583456, -4277.475688156568, -1516.4541025703077, -9790.824030735974, -57.846314650334676, 657.6553771084997, -5110.078169116756, -1295.2388876961336, -1729.980317351856, -5394.325303354896, -3990.613399817157, -2850.629729107586, -3251.932949058169, -2113.022162082453, -9459.124143019217, -14397.85383914159, 0.012, -0.106, 0.984, 192.0, 0.0, 0.0, 0.0, 0.0, 0.0, 0.0, 0.0, 0.0, 0.0, 1.645921724679631E9, 0.0, 2022-02-27 11:28:44.679
22.0, -1277.5586578319858, -4750.282138619678, -1983.3596924972169, -10294.162964125033, -599.2949723356929, 190.92860113723293, -5530.313316620984, -1814.8051875597464, -4202.507937253468, -6429.099312913337, -4107.62478204069, -3066.301711356844, -3213.8008730174156, -2250.597149204868, -9890.512811006643, -15660.839159588715, 0.012, -0.106, 0.984, 192.0, 0.0, 0.0, 0.0, 0.0, 0.0, 0.0, 0.0, 0.0, 0.0, 1.645921724686747E9, 0.0, 2022-02-27 11:28:44.686
24.0, -1111.686362229152, -4593.931686154805, -1803.718722309914, -10094.271313461222, -420.74923762670016, 387.0651587325524, -5253.509313286461, -1444.0344505351127, -1450.5835116605178, -5634.2712800826175, -4239.880053982742, -2924.1446166210912, -3530.7709611381247, -2354.979795811152, -9551.325088897358, -14525.996390103865, 0.012, -0.106, 0.984, 192.0, 0.0, 0.0, 0.0, 0.0, 0.0, 0.0, 0.0, 0.0, 0.0, 1.645921724693768E9, 0.0, 2022-02-27 11:28:44.693
26.0, -763.7144045489317, -4333.869139417307, -1586.6162284155166, -9865.121229305414, -115.71498104512466, 576.6750069469222, -5256.973833677034, -1503.9371256753357, -3241.3829256752642, -5812.146462457951, -3907.844890099155, -2901.5470029767757, -3059.1938566200565, -2041.4742280810153, -9645.358877820836, -15022.78626236752, 0.012, -0.106, 0.984, 192.0, 0.0, 0.0, 0.0, 0.0, 0.0, 0.0, 0.0, 0.0, 0.0, 1.645921724701307E9, 0.0, 2022-02-27 11:28:44.701
28.0, -1452.0810785390233, -4888.460622842386, -2071.1796964621185, -10388.599084448706, -732.4890175448678, 126.68968757268043, -5485.453365499183, -1725.107637060599, -2950.854951245183, -6310.8362330003065, -4351.303500092447, -3088.8099180233385, -3549.6805369473145, -2472.7511373461653, -9835.907499302328, -15318.857469422517, 0.016, -0.106, 0.99, 192.0, 0.0, 64.0, 126.0, 88.0, 15.0, 120.0, 0.0, 0.0, 0.0, 1.645921724709376E9, 0.0, 2022-02-27 11:28:44.709
30.0, -738.7698577368091, -4310.668028672699, -1507.021666410168, -9784.118507399382, -52.99598610353305, 660.4940486543237, -5109.675837716561, -1308.225251224667, -1742.2737768022748, -5402.796614503457, -3988.3335218827156, -2846.7181738279073, -3245.5627018884065, -2101.309847987872, -9460.73346862, -14400.558400220682, 0.016, -0.106, 0.99, 192.0, 0.0, 0.0, 0.0, 0.0, 0.0, 0.0, 0.0, 0.0, 0.0, 1.645921724717827E9, 0.0, 2022-02-27 11:28:44.717
32.0, -1336.768428894094, -4804.552174157164, -1991.003989100932, -10303.640103774083, -607.4310073174247, 191.7779674265346, -5541.66800280428, -1821.5330626407938, -4210.822786190843, -6433.681420526675, -4114.486767588469, -3069.6097695362296, -3211.744512527527, -2245.277434024505, -9891.429232529312, -15663.655479390083, 0.016, -0.106, 0.99, 192.0, 0.0, 0.0, 0.0, 0.0, 0.0, 0.0, 0.0, 0.0, 0.0, 1.645921724723978E9, 0.0, 2022-02-27 11:28:44.723
34.0, -1199.461662705143, -4676.610788894986, -1800.4553676194391, -10083.833048800594, -407.82992933153264, 403.0019525291863, -5279.035005454422, -1448.996537804191, -1449.5553314155736, -5633.466617282226, -4250.675946554655, -2953.984195468926, -3531.6203274274267, -2349.3248044639595, -9549.402838874203, -14510.573686429703, 0.016, -0.106, 0.99, 192.0, 0.0, 0.0, 0.0, 0.0, 0.0, 0.0, 0.0, 0.0, 0.0, 1.645921724731912E9, 0.0, 2022-02-27 11:28:44.731
36.0, -907.570231863288, -4466.191466592725, -1594.50639420824, -9865.90354036135, -105.3661233623175, 583.1570128389612, -5239.651231724171, -1485.2063638217885, -3311.7909207094817, -5865.835352639599, -3948.0556783742522, -2931.498340546887, -3069.475659069498, -2039.931957713599, -9655.014831425528, -15032.576326438944, 0.015, -0.10500000000000001, 0.989, 192.0, 0.0, 56.0, 126.0, 96.0, 15.0, 112.0, 0.0, 0.0, 0.0, 1.645921724740105E9, 0.0, 2022-02-27 11:28:44.740
38.0, -1649.9163687129462, -5063.787706349815, -2092.547964161392, -10396.757471174893, -717.0216103817953, 131.0035742525547, -5463.146324532786, -1698.1514332474987, -3083.6019615652517, -6361.440582447122, -4396.230506447614, -3129.7359621210057, -3546.0148508566444, -2474.785146091598, -9835.192243479758, -15344.56197554612, 0.015, -0.10500000000000001, 0.989, 192.0, 0.0, 0.0, 0.0, 0.0, 0.0, 0.0, 0.0, 0.0, 0.0, 1.645921724753584E9, 0.0, 2022-02-27 11:28:44.753
40.0, -971.0268343719047, -4519.634487585365, -1531.1168469329891, -9793.528591815066, -37.95326208511139, 676.7214151288766, -5095.616590454172, -1261.6665675242625, -1750.946253650934, -5437.799446320468, -4063.1448105746285, -2905.503261745365, -3263.3099869859207, -2108.864737613766, -9451.166921993128, -14373.959824318867, 0.015, -0.10500000000000001, 0.989, 192.0, 0.0, 0.0, 0.0, 0.0, 0.0, 0.0, 0.0, 0.0, 0.0, 1.645921724761712E9, 0.0, 2022-02-27 11:28:44.761
42.0, -1533.4861318452517, -5002.901554453559, -1988.969980355499, -10298.2309816159, -555.3067392476487, 222.60102303040304, -5489.0519963564875, -1785.7032162789365, -4286.014054538495, -6451.048725968448, -4171.237846760493, -3124.103322518268, -3202.6026490453064, -2226.6807826376894, -9876.297101533068, -15640.1414442231, 0.015, -0.10500000000000001, 0.989, 192.0, 0.0, 0.0, 0.0, 0.0, 0.0, 0.0, 0.0, 0.0, 0.0, 1.645921724769655E9, 0.0, 2022-02-27 11:28:44.769
44.0, -1418.9781450007135, -4887.097166430613, -1836.978118059411, -10124.803796387172, -414.40134220139294, 382.594809841491, -5252.414077808151, -1433.9091102968587, -1565.2703124606983, -5714.55874616608, -4319.85459564383, -3030.918899884093, -3541.991536854689, -2361.8417813589313, -9547.972327229063, -14534.177128574507, 0.015, -0.10500000000000001, 0.989, 192.0, 0.0, 0.0, 0.0, 0.0, 0.0, 0.0, 0.0, 0.0, 0.0, 1.645921724776749E9, 0.0, 2022-02-27 11:28:44.776
46.0, -1033.276442679935, -4590.020130875127, -1605.212879802332, -9876.162991066336, -105.52258557350464, 583.8946204059864, -5252.391726063696, -1486.6592272113833, -3300.771510693015, -5867.221160795827, -3988.869963749643, -2980.5827713707413, -3080.875048741704, -2073.906609285666, -9636.641697483266, -14993.192552708693, 0.0155, -0.10550000000000001, 0.9855, 192.0, 0.0, 64.0, 126.0, 88.0, 15.0, 88.0, 0.0, 0.0, 0.0, 1.645921724784194E9, 0.0, 2022-02-27 11:28:44.784
48.0, -1705.594564151116, -5114.34735230772, -2113.022162082453, -10410.481442270451, -741.3403083491694, 127.00261199505474, -5476.937350861711, -1719.1397212910322, -3110.267592700433, -6372.392937230223, -4430.093399297404, -3177.3898812997204, -3574.513325037161, -2494.6111434234554, -9849.162083764326, -15340.583365033075, 0.0155, -0.10550000000000001, 0.9855, 192.0, 0.0, 0.0, 0.0, 0.0, 0.0, 0.0, 0.0, 0.0, 0.0, 1.645921724792708E9, 0.0, 2022-02-27 11:28:44.792
50.0, -946.7081364045306, -4500.143766420337, -1541.890387760447, -9795.227324393669, -58.09218383934306, 663.8021068337091, -5104.937267892035, -1290.4779661271532, -1783.4456900889506, -5472.556408948471, -4072.2643223123937, -2891.4887179718876, -3282.711301173127, -2124.6897726881234, -9462.543959920878, -14388.17553379244, 0.0155, -0.10550000000000001, 0.9855, 192.0, 0.0, 0.0, 0.0, 0.0, 0.0, 0.0, 0.0, 0.0, 0.0, 1.645921724799291E9, 0.0, 2022-02-27 11:28:44.799
52.0, -1465.022738578646, -4927.464416916897, -2003.029227617887, -10294.431185058498, -581.3688732825367, 222.69043000822427, -5527.117017163875, -1794.6662658055147, -4271.954807276107, -6456.5249033599985, -4156.955082053552, -3086.015949966425, -3214.6725910511723, -2228.603032660846, -9890.289293562091, -15649.305659449776, 0.0155, -0.10550000000000001, 0.9855, 192.0, 0.0, 0.0, 0.0, 0.0, 0.0, 0.0, 0.0, 0.0, 0.0, 1.645921724806044E9, 0.0, 2022-02-27 11:28:44.806
54.0, -1284.8229747799605, -4761.614473058519, -1819.2084812174419, -10092.90785704945, -400.36444668346013, 411.5403189111136, -5237.863092167747, -1424.0072875031576, -1497.6786372278498, -5658.433515838804, -4285.052929526917, -2967.596407842208, -3540.2928042760855, -2348.6095486413897, -9550.475722608056, -14515.781642887789, 0.0155, -0.10550000000000001, 0.9855, 192.0, 0.0, 0.0, 0.0, 0.0, 0.0, 0.0, 0.0, 0.0, 0.0, 1.645921724813878E9, 0.0, 2022-02-27 11:28:44.813
56.0, -912.5770226212768, -4475.400385308312, -1594.2381732747763, -9858.594519924465, -87.55178303143776, 605.7993299721874, -5233.75037118797, -1469.2919217696099, -3271.1778010341886, -5829.603174877546, -3950.5590737532466, -2932.6829830030183, -3067.3298916017884, -2041.3401176142834, -9634.183005593182, -15001.462698157156, 0.01375, -0.10575000000000001, 0.98675, 192.0, 0.0, 48.0, 126.0, 88.0, 15.0, 112.0, 0.0, 0.0, 0.0, 1.645921724822441E9, 0.0, 2022-02-27 11:28:44.822
58.0, -1603.8047199016476, -5026.8626245096475, -2100.371074720749, -10406.189907335032, -723.5483197627449, 137.46322840013843, -5490.258990557074, -1719.5197009467722, -3070.0568044253355, -6368.906065095194, -4383.2888464079915, -3130.2947557323882, -3556.2295980727195, -2471.521791401123, -9840.355496448934, -15334.906021941428, 0.01375, -0.10575000000000001, 0.98675, 192.0, 0.0, 0.0, 0.0, 0.0, 0.0, 0.0, 0.0, 0.0, 0.0, 1.64592172482889E9, 0.0, 2022-02-27 11:28:44.828
60.0, -867.8511819662074, -4427.947631829695, -1535.6542510574163, -9802.55869657501, -52.839523892345895, 660.739917843332, -5119.220032598977, -1305.4759866566642, -1735.0988668321213, -5437.754742831557, -4027.5608334017797, -2885.0737673132144, -3266.618045165306, -2115.123226061252, -9456.486637173492, -14378.519580187749, 0.01375, -0.10575000000000001, 0.98675, 192.0, 0.0, 0.0, 0.0, 0.0, 0.0, 0.0, 0.0, 0.0, 0.0, 1.645921724836541E9, 0.0, 2022-02-27 11:28:44.836
62.0, -1374.900504934848, -4846.975785133336, -1982.8456023747449, -10280.03666162928, -568.2483992872715, 225.0597149204868, -5534.560148067492, -1795.6720943060036, -4248.373716875758, -6447.740667789062, -4127.495482861457, -3082.171449920112, -3209.174061915167, -2236.560253686935, -9887.271808060625, -15647.495168148896, 0.01375, -0.10575000000000001, 0.98675, 192.0, 0.0, 0.0, 0.0, 0.0, 0.0, 0.0, 0.0, 0.0, 0.0, 1.645921724844575E9, 0.0, 2022-02-27 11:28:44.844
64.0, -1248.322576084444, -4722.02953362817, -1836.4863796813943, -10116.62305791653, -428.1923685303174, 383.10889996396304, -5268.999072193989, -1438.7594388436603, -1519.2257188827657, -5689.122460975941, -4272.155972976205, -2964.4895153629204, -3546.9759758682226, -2367.273255261571, -9563.439734392136, -14544.794207190778, 0.01375, -0.10575000000000001, 0.98675, 192.0, 0.0, 0.0, 0.0, 0.0, 0.0, 0.0, 0.0, 0.0, 0.0, 1.645921724852495E9, 0.0, 2022-02-27 11:28:44.852
66.0, -831.507245481878, -4397.817480303941, -1579.2848562341758, -9850.458484942734, -79.79572770544621, 610.3590858410699, -5229.816464163836, -1469.157811302878, -3182.3296168243432, -5811.632372335479, -3926.1286170635963, -2911.6723432150297, -3062.993653177459, -2033.6287657772025, -9624.683514199676, -14963.129456416305, 0.010875, -0.105875, 0.989375, 192.0, 0.0, 32.0, 126.0, 88.0, 15.5, 0.0, 0.0, 0.0, 0.0, 1.645921724859141E9, 0.0, 2022-02-27 11:28:44.859
68.0, -1537.218873169288, -4955.784077141771, -2099.409949709171, -10407.531012002351, -726.7446192198538, 136.3903446662837, -5491.868316157856, -1734.048334842722, -3125.8020550968713, -6365.732117382541, -4357.941968195673, -3123.812749840349, -3526.1888535247867, -2463.9669017752294, -9843.909423817327, -15370.221778180812, 0.010875, -0.105875, 0.989375, 192.0, 0.0, 0.0, 0.0, 0.0, 0.0, 0.0, 0.0, 0.0, 0.0, 1.645921724867228E9, 0.0, 2022-02-27 11:28:44.867
70.0, -813.1788150285263, -4368.8496194898635, -1536.9059487469137, -9799.384748862356, -61.10966934080951, 672.4075284490024, -5112.7380267069375, -1286.3652451473768, -1654.2973106261863, -5400.963771458122, -4030.935946814531, -2869.315787472223, -3273.4129754797195, -2108.775330635945, -9450.362259192736, -14363.342745702595, 0.010875, -0.105875, 0.989375, 192.0, 0.0, 0.0, 0.0, 0.0, 0.0, 0.0, 0.0, 0.0, 0.0, 1.645921724882182E9, 0.0, 2022-02-27 11:28:44.882
72.0, -1314.6625536277954, -4787.408386159943, -1977.1459075386415, -10277.600321483651, -561.4758207173135, 237.7331540266459, -5518.086912403931, -1796.1414809395649, -4213.035608891918, -6408.848632436828, -4111.268116386905, -3068.9392172025705, -3192.7008262516056, -2218.0753610223965, -9875.693604432774, -15628.384426639608, 0.010875, -0.105875, 0.989375, 192.0, 0.0, 0.0, 0.0, 0.0, 0.0, 0.0, 0.0, 0.0, 0.0, 1.645921724888712E9, 0.0, 2022-02-27 11:28:44.888
74.0, -1185.9165055652268, -4663.6914805998185, -1823.5670713862266, -10112.465633447842, -426.78420862963304, 405.52769965263604, -5262.070031412844, -1437.1501132428782, -1491.3307418025424, -5673.431536368315, -4261.807115293398, -2958.0298612153365, -3538.571719953027, -2360.6794906472555, -9555.281347665948, -14539.608602477147, 0.010875, -0.105875, 0.989375, 192.0, 0.0, 0.0, 0.0, 0.0, 0.0, 0.0, 0.0, 0.0, 0.0, 1.645921724896795E9, 0.0, 2022-02-27 11:28:44.896
76.0, -773.415061642535, -4344.776790711498, -1565.5161816497066, -9844.065886028515, -79.48280328307192, 621.0432196907068, -5225.457873995051, -1466.833229879526, -3145.136314050712, -5779.7140812533, -3914.0363233132753, -2899.445938997977, -3061.4737345544977, -2037.1156379122303, -9618.469729241102, -14957.854444724851, 0.0114375, -0.1039375, 0.9916875, 192.0, 0.0, 48.0, 126.0, 104.0, 15.5, 8.0, 0.0, 0.0, 0.0, 1.645921724904774E9, 0.0, 2022-02-27 11:28:44.904
78.0, -1473.8069741495817, -4899.055349714202, -2083.964894290554, -10394.902276385103, -727.9739651648957, 144.52637964801548, -5489.901362645789, -1721.5537096922053, -3070.36972884771, -6353.930396310138, -4346.0731918899055, -3096.0518832268576, -3529.251042515164, -2469.331320444503, -9842.344801705456, -15354.195577406357, 0.0114375, -0.1039375, 0.9916875, 192.0, 0.0, 0.0, 0.0, 0.0, 0.0, 0.0, 0.0, 0.0, 0.0, 1.64592172491178E9, 0.0, 2022-02-27 11:28:44.911
80.0, -747.5317415632894, -4306.287086759458, -1520.6115270389948, -9789.728795257664, -63.6130647198039, 671.1558307595052, -5120.069398888279, -1287.773405048061, -1639.0981243965775, -5392.604219031838, -3996.894240009098, -2838.4256766349886, -3253.5422746589516, -2105.5343276899252, -9449.691706859077, -14356.369001432538, 0.0114375, -0.1039375, 0.9916875, 192.0, 0.0, 0.0, 0.0, 0.0, 0.0, 0.0, 0.0, 0.0, 0.0, 1.645921724919477E9, 0.0, 2022-02-27 11:28:44.919
82.0, -1268.5956083054077, -4740.626185014986, -1967.4676021894936, -10266.513856233818, -578.910181392453, 228.1666073997745, -5544.3502121389165, -1809.5525276127491, -4195.9812278725185, -6394.8340886633505, -4086.5694387637905, -3038.496141254442, -3178.038081888924, -2213.5603086424244, -9876.744136422174, -15626.976266738924, 0.0114375, -0.1039375, 0.9916875, 192.0, 0.0, 0.0, 0.0, 0.0, 0.0, 0.0, 0.0, 0.0, 0.0, 1.645921724927439E9, 0.0, 2022-02-27 11:28:44.927
84.0, -1154.042917971959, -4633.58368081852, -1821.2201382184194, -10103.346121710078, -444.5761972160575, 387.691007577301, -5281.493697344506, -1453.1763140173334, -1467.347320001998, -5670.3693473779385, -4247.345536630814, -2936.505131304876, -3538.147036808376, -2351.761144609588, -9559.371716901269, -14540.949707144466, 0.0114375, -0.1039375, 0.9916875, 192.0, 0.0, 0.0, 0.0, 0.0, 0.0, 0.0, 0.0, 0.0, 0.0, 1.645921724934566E9, 0.0, 2022-02-27 11:28:44.934
86.0, -750.3257096202028, -4316.412426997713, -1563.1245449929888, -9830.878356799883, -89.98812317706623, 614.7176760098548, -5251.072973140833, -1475.505706728185, -3137.3132034913547, -5784.586761544557, -3913.254012257339, -2891.2204970384237, -3064.7817927338833, -2023.034038905387, -9623.498871743544, -14963.755305261053, 0.01171875, -0.10496875, 0.98984375, 192.0, 0.0, 48.0, 126.0, 88.0, 15.0, 112.0, 0.0, 0.0, 0.0, 1.645921724941607E9, 0.0, 2022-02-27 11:28:44.941
88.0, -1456.417316963353, -4880.168125649468, -2084.680150113124, -10389.157878060088, -741.094439160161, 131.6741265862139, -5518.37748508185, -1749.3816315390625, -3097.594153594274, -6344.5873671278205, -4334.204415584137, -3093.012045980936, -3529.921594848823, -2456.523770871612, -9851.956051821238, -15381.509409130742, 0.01171875, -0.10496875, 0.98984375, 192.0, 0.0, 0.0, 0.0, 0.0, 0.0, 0.0, 0.0, 0.0, 0.0, 1.645921724949003E9, 0.0, 2022-02-27 11:28:44.949
90.0, -735.4394478129683, -4296.5640779214, -1523.3831433514529, -9792.187487147748, -74.99010264755519, 661.8575050660975, -5127.356067580708, -1295.5294603740526, -1619.27212706472, -5350.627642944771, -3993.876754507632, -2822.2430136493463, -3260.560722417918, -2103.70148464459, -9458.140666263183, -14367.477818426827, 0.01171875, -0.10496875, 0.98984375, 192.0, 0.0, 0.0, 0.0, 0.0, 0.0, 0.0, 0.0, 0.0, 0.0, 1.645921724957233E9, 0.0, 2022-02-27 11:28:44.957
92.0, -1239.1807126022236, -4721.224870827779, -1957.7892968403455, -10271.520646991808, -561.5652276951347, 215.82844446044498, -5516.745807736613, -1817.7109143389362, -4176.401099729669, -6395.258771808001, -4074.2536275689163, -3040.440743022054, -3174.171230098156, -2216.4660354216144, -9875.939473621784, -15630.351380151676, 0.01171875, -0.10496875, 0.98984375, 192.0, 0.0, 0.0, 0.0, 0.0, 0.0, 0.0, 0.0, 0.0, 0.0, 1.645921724964324E9, 0.0, 2022-02-27 11:28:44.964
94.0, -1132.4064293392216, -4611.72367474123, -1812.659420092037, -10109.068168290636, -443.30214778210495, 371.6201033139352, -5278.0291769539335, -1468.442555480308, -1471.2141717927661, -5670.570513078036, -4243.657498795688, -2938.8744162171383, -3534.3472402509738, -2372.7494326531214, -9563.953824514607, -14557.534701530303, 0.01171875, -0.10496875, 0.98984375, 192.0, 0.0, 0.0, 0.0, 0.0, 0.0, 0.0, 0.0, 0.0, 0.0, 1.645921724971653E9, 0.0, 2022-02-27 11:28:44.971
96.0, -724.5765000076891, -4293.27837148647, -1551.1440099649442, -9830.252507955136, -91.64215226675896, 595.9198589229416, -5258.024365666433, -1500.1373291179334, -3117.1295782482125, -5780.719909753789, -3900.6029248956356, -2883.307979501245, -3058.7691734754058, -2046.972757217021, -9624.303534543937, -14968.53857857449, 0.010859375000000001, -0.104484375, 0.9879218750000001, 192.0, 0.0, 40.0, 126.0, 96.0, 15.0, 104.0, 0.0, 0.0, 0.0, 1.645921724979733E9, 0.0, 2022-02-27 11:28:44.979
98.0, -1450.5611599160625, -4866.444154553909, -2079.7627663329563, -10391.750680416904, -739.8203897262084, 115.89379500076711, -5505.32406631995, -1765.6984049914367, -3105.1713949646232, -6345.0567537613815, -4327.387133525269, -3070.168563147612, -3523.8419203569797, -2471.8570675679525, -9852.403086710345, -15383.789287065183, 0.010859375000000001, -0.104484375, 0.9879218750000001, 192.0, 0.0, 0.0, 0.0, 0.0, 0.0, 0.0, 0.0, 0.0, 0.0, 1.645921724987809E9, 0.0, 2022-02-27 11:28:44.987
100.0, -728.8456831986528, -4278.36975793478, -1518.6892770158383, -9794.93675171575, -67.25639906601896, 656.2248654633601, -5131.982878682957, -1314.9978297946252, -1626.402333545963, -5369.15723909822, -3994.5249550968356, -2817.638554291553, -3261.7900683629596, -2104.4614439560705, -9448.887044058687, -14366.9413765599, 0.010859375000000001, -0.104484375, 0.9879218750000001, 192.0, 0.0, 0.0, 0.0, 0.0, 0.0, 0.0, 0.0, 0.0, 0.0, 1.645921725001411E9, 0.0, 2022-02-27 11:28:45.001
102.0, -1218.9523838701707, -4690.714739646285, -1940.4443431430273, -10245.525568190285, -551.5069426902464, 237.0402499485314, -5517.304601347995, -1795.7391495393695, -4175.238809017993, -6365.039213304426, -4064.3741565196706, -3017.5525566998194, -3169.8573434182817, -2201.1774422141843, -9867.71403166223, -15625.1881271825, 0.010859375000000001, -0.104484375, 0.9879218750000001, 192.0, 0.0, 0.0, 0.0, 0.0, 0.0, 0.0, 0.0, 0.0, 0.0, 1.64592172500931E9, 0.0, 2022-02-27 11:28:45.009
104.0, -1138.7319730200736, -4608.616782261942, -1817.755617827847, -10109.962238068849, -449.56063622959095, 378.2362196727061, -5280.063185699366, -1461.4911629547075, -1494.7505587042044, -5660.087544928497, -4238.941280715619, -2919.5178055188426, -3536.537711207594, -2360.3442144804258, -9561.785705302442, -14562.675602755024, 0.010859375000000001, -0.104484375, 0.9879218750000001, 192.0, 0.0, 0.0, 0.0, 0.0, 0.0, 0.0, 0.0, 0.0, 0.0, 1.645921725017523E9, 0.0, 2022-02-27 11:28:45.017
106.0, -717.0886656151612, -4282.236609725548, -1540.0128412262013, -9822.496452629144, -82.03090215097691, 617.2434231333045, -5229.592946719283, -1481.5853812200287, -3064.4241648225984, -5735.614089442979, -3894.076215514686, -2870.0086915503375, -3062.054879910336, -2015.9485359130547, -9609.99841809254, -14932.306400812437, 0.008, -0.108, 0.988, 192.0, 0.0, 32.0, 126.0, 80.0, 15.0, 112.0, 0.0, 0.0, 0.0, 1.645921725024063E9, 0.0, 2022-02-27 11:28:45.024
108.0, -1437.2842237096102, -4853.882474170026, -2070.3303301728165, -10393.136488573133, -742.6143577831218, 116.22907116759673, -5536.907081235299, -1809.2172514459196, -3145.9633285955583, -6344.7661810834625, -4317.261793287014, -3070.883818970182, -3515.6835336307927, -2451.785201047087, -9854.48179894469, -15405.492830931287, 0.008, -0.108, 0.988, 192.0, 0.0, 0.0, 0.0, 0.0, 0.0, 0.0, 0.0, 0.0, 0.0, 1.645921725031952E9, 0.0, 2022-02-27 11:28:45.031
110.0, -743.284910116781, -4289.031540039961, -1524.8136549965925, -9798.758900017609, -90.68102725518075, 634.9236529974525, -5139.0907334197445, -1305.0960070009241, -1596.249830275754, -5357.511980237005, -3994.5696585857463, -2816.9232984689834, -3275.8269638808924, -2129.338935534827, -9454.407924939147, -14368.08131552712, 0.008, -0.108, 0.988, 192.0, 0.0, 0.0, 0.0, 0.0, 0.0, 0.0, 0.0, 0.0, 0.0, 1.645921725040067E9, 0.0, 2022-02-27 11:28:45.040
112.0, -1197.070026048425, -4670.262893469679, -1928.5308633483487, -10235.377876207576, -541.4486576853583, 233.79924700251186, -5546.0489447175205, -1803.2493356763525, -4165.828724602309, -6366.603835416297, -4053.9805953479527, -3004.9014693381155, -3167.756279439483, -2204.731369582578, -9871.066793330527, -15611.777080509315, 0.008, -0.108, 0.988, 192.0, 0.0, 0.0, 0.0, 0.0, 0.0, 0.0, 0.0, 0.0, 0.0, 1.645921725046665E9, 0.0, 2022-02-27 11:28:45.046
114.0, -1145.7280690345847, -4612.3942270748885, -1821.778931829802, -10122.322752752632, -448.53245598464684, 355.95153045076495, -5268.887313471712, -1475.8186311505594, -1511.1567391344, -5684.138021962407, -4238.471894082057, -2917.059113628759, -3537.9235193638233, -2373.1294123088614, -9574.32503394187, -14582.211027408961, 0.008, -0.108, 0.988, 192.0, 0.0, 0.0, 0.0, 0.0, 0.0, 0.0, 0.0, 0.0, 0.0, 1.645921725053826E9, 0.0, 2022-02-27 11:28:45.053
116.0, -721.290793572759, -4287.690435372643, -1541.5551115936175, -9825.759807319619, -78.54403001594902, 604.5923357716007, -5212.851490122258, -1461.737032143716, -3043.0335453788693, -5746.767609926178, -3905.095625531152, -2877.8988573430606, -3072.716662015517, -2042.2788908814064, -9610.601915192832, -14925.980857131584, 0.01, -0.11, 0.984, 192.0, 0.0, 40.0, 126.0, 72.0, 15.0, 96.0, 0.0, 0.0, 0.0, 1.64592172506164E9, 0.0, 2022-02-27 11:28:45.061
118.0, -1447.0072325476685, -4868.366404577066, -2081.9755890340316, -10403.887677656136, -752.8961602325631, 106.64017279627, -5521.864357216878, -1762.7703264677914, -3187.2470006045105, -6376.729175654552, -4329.443494015157, -3093.973170992514, -3522.120836033921, -2468.4819541552015, -9856.538159434576, -15405.3363687201, 0.01, -0.11, 0.984, 192.0, 0.0, 0.0, 0.0, 0.0, 0.0, 0.0, 0.0, 0.0, 0.0, 1.64592172506972E9, 0.0, 2022-02-27 11:28:45.069
120.0, -752.1138491766274, -4298.37456922228, -1536.861245258003, -9811.544097846043, -100.09111167086503, 636.5106268537792, -5135.737971751449, -1329.8617398574042, -1598.730873910293, -5372.957035655622, -4011.9816675164307, -2836.637537078564, -3288.5004029870515, -2121.873452886755, -9456.911320318142, -14367.634280638014, 0.01, -0.11, 0.984, 192.0, 0.0, 0.0, 0.0, 0.0, 0.0, 0.0, 0.0, 0.0, 0.0, 1.645921725076378E9, 0.0, 2022-02-27 11:28:45.076
122.0, -1189.8951160782715, -4662.3503759325, -1921.937098734033, -10227.152434248022, -530.0939715020623, 257.6262065918692, -5503.245354085607, -1797.370826884607, -4157.625634387211, -6344.497960149999, -4063.8153629082876, -3023.542824213842, -3172.494849264008, -2194.114290966307, -9860.919101347818, -15599.908304203547, 0.01, -0.11, 0.984, 192.0, 0.0, 0.0, 0.0, 0.0, 0.0, 0.0, 0.0, 0.0, 0.0, 1.645921725084154E9, 0.0, 2022-02-27 11:28:45.084
124.0, -1160.9719587531042, -4624.374762102933, -1839.4591616939501, -10138.371305271543, -470.2583515952053, 356.9126554623432, -5288.71331080357, -1491.6660179693722, -1554.0273849996788, -5716.123368277952, -4253.581673333844, -2932.3030033472783, -3549.2335020582086, -2364.9933773271296, -9575.12969674226, -14600.472402628948, 0.01, -0.11, 0.984, 192.0, 0.0, 0.0, 0.0, 0.0, 0.0, 0.0, 0.0, 0.0, 0.0, 1.645921725092407E9, 0.0, 2022-02-27 11:28:45.092
126.0, -695.8098048937088, -4263.863475783286, -1529.9992597102237, -9824.150481718836, -66.65290196572566, 629.3133651391704, -5217.791225646881, -1460.4853344542187, -2980.7839370708393, -5727.343943994516, -3902.1228435185963, -2868.935807816483, -3075.08594692778, -2020.7988644598563, -9601.974141833085, -14900.5669236859, 0.006, -0.108, 0.986, 192.0, 0.0, 24.0, 126.0, 80.0, 15.0, 104.0, 0.0, 0.0, 0.0, 1.645921725099446E9, 0.0, 2022-02-27 11:28:45.099
128.0, -1430.802217817571, -4854.15069510349, -2076.834687809311, -10402.948904389013, -743.284910116781, 111.35639087633979, -5530.2015578987075, -1777.522477808294, -3268.652053910739, -6357.327861467345, -4305.638886170254, -3077.8352114957825, -3487.9450187617567, -2438.5529683295454, -9859.779162380597, -15442.395561026999, 0.006, -0.108, 0.986, 192.0, 0.0, 0.0, 0.0, 0.0, 0.0, 0.0, 0.0, 0.0, 0.0, 1.645921725106941E9, 0.0, 2022-02-27 11:28:45.106
130.0, -744.804828739742, -4287.981008050562, -1534.0002219677237, -9815.27683917008, -106.39430360726162, 629.3133651391704, -5130.708829249004, -1328.0065450676138, -1517.5716897930731, -5360.015375616, -4021.03412402083, -2842.4266388924884, -3300.8385659263813, -2158.865589960288, -9454.989070294985, -14359.520597400737, 0.006, -0.108, 0.986, 192.0, 0.0, 0.0, 0.0, 0.0, 0.0, 0.0, 0.0, 0.0, 0.0, 1.645921725114959E9, 0.0, 2022-02-27 11:28:45.114
132.0, -1161.5084006200316, -4643.574910590042, -1902.7816537358349, -10221.162166734, -513.1066457160289, 262.9682735166876, -5499.512612761571, -1781.434033087973, -4112.363351865215, -6326.750675052485, -4042.9611853314864, -3018.401922989121, -3156.6027589562846, -2209.022904517997, -9848.71504887522, -15577.400097537053, 0.006, -0.108, 0.986, 192.0, 0.0, 0.0, 0.0, 0.0, 0.0, 0.0, 0.0, 0.0, 0.0, 1.645921725129236E9, 0.0, 2022-02-27 11:28:45.129
134.0, -1158.84854302985, -4624.933555714316, -1838.4756849379164, -10146.619098975552, -471.33123532906, 347.03318441309744, -5292.155479449687, -1501.4560820407967, -1567.1925624838548, -5716.212775255773, -4249.379545376247, -2937.4215528275436, -3546.1266095789206, -2381.9136478797973, -9575.04028976444, -14618.13028074864, 0.006, -0.108, 0.986, 192.0, 0.0, 0.0, 0.0, 0.0, 0.0, 0.0, 0.0, 0.0, 0.0, 1.645921725136602E9, 0.0, 2022-02-27 11:28:45.136
136.0, -689.5066129573123, -4253.581673333844, -1524.0089921962015, -9805.978513476672, -66.13881184325359, 626.3629348710698, -5228.65417345216, -1476.8468113955037, -2949.692660533507, -5710.088397275019, -3897.8313085831774, -2869.47224968341, -3076.9634934620253, -2050.8843124966997, -9596.028577807972, -14886.820600845886, 0.012, -0.10400000000000001, 0.988, 192.0, 0.0, 48.0, 126.0, 96.0, 15.0, 112.0, 0.0, 0.0, 0.0, 1.645921725144762E9, 0.0, 2022-02-27 11:28:45.144
138.0, -1440.5922818889956, -4852.206093335878, -2076.0076732644648, -10397.428023508552, -742.9719856944067, 120.09592295836485, -5520.94793569421, -1771.5769137831826, -3242.2546437090214, -6352.2763672204455, -4305.191851281149, -3072.7390137599723, -3498.8526700559464, -2437.7036020402434, -9859.086258302481, -15428.090444575602, 0.012, -0.10400000000000001, 0.988, 192.0, 0.0, 0.0, 0.0, 0.0, 0.0, 0.0, 0.0, 0.0, 0.0, 1.645921725151701E9, 0.0, 2022-02-27 11:28:45.151
140.0, -758.3276341352027, -4306.5106042040115, -1539.2752336591761, -9819.724836316685, -104.04737043945438, 622.9878214583184, -5135.5144543068955, -1330.9793270801697, -1551.7922105541481, -5386.8598207068235, -4022.3752286881486, -2836.056391722726, -3306.158281106744, -2143.800514197411, -9451.748067348966, -14356.972498532832, 0.012, -0.10400000000000001, 0.988, 192.0, 0.0, 0.0, 0.0, 0.0, 0.0, 0.0, 0.0, 0.0, 0.0, 1.645921725159322E9, 0.0, 2022-02-27 11:28:45.159
142.0, -1183.5919241418749, -4663.423259666355, -1911.230613139941, -10221.698608600927, -514.7830265501769, 261.3589479159055, -5519.763293238079, -1791.4699663484057, -4134.2904131758705, -6330.34930590979, -4046.649223166612, -3021.307649768311, -3157.094497334301, -2189.8451077753434, -9849.4750081867, -15584.1279726181, 0.012, -0.10400000000000001, 0.988, 192.0, 0.0, 0.0, 0.0, 0.0, 0.0, 0.0, 0.0, 0.0, 0.0, 1.645921725167242E9, 0.0, 2022-02-27 11:28:45.167
144.0, -1182.2731712190118, -4650.280433926634, -1840.8002663612685, -10143.86983440755, -468.9172469278869, 347.7931437245779, -5293.80950853938, -1492.5600877475845, -1569.8300683295809, -5717.129196778441, -4260.734231559543, -2952.978366968437, -3552.452153259773, -2384.394691514336, -9579.80121133342, -14608.65314109959, 0.012, -0.10400000000000001, 0.988, 192.0, 0.0, 0.0, 0.0, 0.0, 0.0, 0.0, 0.0, 0.0, 0.0, 1.645921725175279E9, 0.0, 2022-02-27 11:28:45.175
146.0, -739.9992036818509, -4308.164633293704, -1527.1382364199444, -9812.616981579898, -56.61696870529279, 629.2463099058044, -5206.078911552299, -1461.3570524879758, -2968.9375125095266, -5734.1835777978395, -3908.291924988261, -2883.7550143903513, -3078.7069295295396, -2040.8260274918114, -9594.978045818574, -14886.172400256683, 0.014, -0.106, 0.992, 192.0, 0.0, 56.0, 126.0, 88.0, 15.5, 0.0, 0.0, 0.0, 0.0, 1.645921725181361E9, 0.0, 2022-02-27 11:28:45.181
148.0, -1521.4832450727517, -4935.041658287247, -2084.6130948797577, -10411.308456815297, -740.4015350820465, 103.26505938351863, -5516.097607147409, -1779.0647481757103, -3308.259345085543, -6403.484213767554, -4326.694229447154, -3101.461005385042, -3501.4901759016725, -2462.3128726855366, -9860.963804836727, -15442.932002893926, 0.014, -0.106, 0.992, 192.0, 0.0, 0.0, 0.0, 0.0, 0.0, 0.0, 0.0, 0.0, 0.0, 1.645921725188911E9, 0.0, 2022-02-27 11:28:45.188
150.0, -889.4429671100339, -4432.082704553927, -1548.0147657412012, -9831.370095177901, -97.02892268048797, 629.0451442057067, -5125.702038491016, -1311.7791785930608, -1567.2596177172206, -5409.636248306781, -4049.264377267883, -2867.2370752378793, -3307.8570136853477, -2167.2251423865728, -9451.792770837876, -14351.965707774843, 0.014, -0.106, 0.992, 192.0, 0.0, 0.0, 0.0, 0.0, 0.0, 0.0, 0.0, 0.0, 0.0, 1.645921725196823E9, 0.0, 2022-02-27 11:28:45.196
152.0, -1353.6886994467616, -4829.675534924929, -1914.0245811968543, -10227.197137736934, -492.87831698397605, 274.6805876112685, -5494.483470259127, -1786.463175590417, -4208.520556511946, -6387.435661248644, -4093.610238267212, -3060.4902577984644, -3160.335500280321, -2205.312514938416, -9849.877339586896, -15585.46907728542, 0.014, -0.106, 0.992, 192.0, 0.0, 0.0, 0.0, 0.0, 0.0, 0.0, 0.0, 0.0, 0.0, 1.645921725204809E9, 0.0, 2022-02-27 11:28:45.204
154.0, -1429.058781750057, -4881.576285550152, -1870.6621969535586, -10167.92031144146, -472.62763650746786, 351.16825713732925, -5303.353703421796, -1491.6660179693722, -1673.0504242241889, -5802.356398386526, -4326.671877702699, -3009.662390907096, -3559.671766718837, -2403.23721209016, -9584.47272592458, -14633.105949533696, 0.014, -0.106, 0.992, 192.0, 0.0, 0.0, 0.0, 0.0, 0.0, 0.0, 0.0, 0.0, 0.0, 1.645921725211473E9, 0.0, 2022-02-27 11:28:45.211
156.0, -984.2590670894465, -4544.891958819861, -1558.050699001634, -9828.442016654255, -54.69471868213638, 637.4046966319916, -5230.41996126413, -1444.7273546132274, -3046.8556936807267, -5792.164002914907, -3978.1187746666405, -2941.1095906626692, -3088.6087523232404, -2045.7881147608896, -9597.23557200856, -14878.259882719503, 0.014, -0.10200000000000001, 0.988, 192.0, 0.0, 56.0, 126.0, 104.0, 15.0, 112.0, 0.0, 0.0, 0.0, 1.645921725219406E9, 0.0, 2022-02-27 11:28:45.219
158.0, -1756.4224310424843, -5166.717489566504, -2117.7830836514336, -10432.341448347743, -737.2946426027588, 113.52451008850457, -5491.309522546473, -1758.7023089769257, -3357.5896450984055, -6451.115781201814, -4402.757215828564, -3168.3597765397762, -3520.6903243887814, -2482.5412014175895, -9867.132886306392, -15436.360590024065, 0.014, -0.10200000000000001, 0.988, 192.0, 0.0, 0.0, 0.0, 0.0, 0.0, 0.0, 0.0, 0.0, 0.0, 1.645921725229081E9, 0.0, 2022-02-27 11:28:45.229
160.0, -1050.3978789327, -4595.406901288856, -1569.0030537847347, -9847.083371529981, -81.9861986620663, 647.6864990814328, -5102.836203913236, -1295.4624051406868, -1647.4576768228624, -5481.318292774951, -4107.9377064630635, -2929.4196283125434, -3314.383723066297, -2162.4865725620475, -9443.008535266941, -14343.092065226087, 0.014, -0.10200000000000001, 0.988, 192.0, 0.0, 0.0, 0.0, 0.0, 0.0, 0.0, 0.0, 0.0, 0.0, 1.64592172523491E9, 0.0, 2022-02-27 11:28:45.234
162.0, -1467.2355612797214, -4938.148550766534, -1951.5084566484043, -10249.146550792046, -504.56827933410165, 268.31034044150596, -5484.3581300208725, -1774.0356056732662, -4270.2337229530485, -6431.8709292257945, -4138.537244622379, -3107.5406798768854, -3167.3539480392874, -2207.0112475170195, -9847.888034330374, -15591.682862243995, 0.014, -0.10200000000000001, 0.988, 192.0, 0.0, 0.0, 0.0, 0.0, 0.0, 0.0, 0.0, 0.0, 0.0, 1.64592172524899E9, 0.0, 2022-02-27 11:28:45.248
164.0, -1420.5651188570403, -4876.34597734761, -1869.231685308419, -10156.163293857968, -451.9075693973982, 368.6473213013794, -5266.450973326084, -1462.318177499554, -1660.533447329217, -5799.04834020714, -4350.856465203341, -3022.0005538464256, -3568.9030371788785, -2404.0642266350064, -9571.687528096143, -14603.646350341602, 0.014, -0.10200000000000001, 0.988, 192.0, 0.0, 0.0, 0.0, 0.0, 0.0, 0.0, 0.0, 0.0, 0.0, 1.64592172525709E9, 0.0, 2022-02-27 11:28:45.257
166.0, -920.7354093474638, -4478.1496498763145, -1550.8757890314805, -9816.349722903935, -33.01352656048853, 654.1461532290165, -5191.907905567635, -1440.8605028224592, -3039.725487199484, -5751.595586728524, -3967.7475652393778, -2936.6168900271523, -3081.232676652989, -2049.6549665516577, -9584.740946858043, -14876.047060018429, 0.016, -0.10400000000000001, 0.992, 192.0, 0.0, 64.0, 126.0, 96.0, 15.5, 0.0, 0.0, 0.0, 0.0, 1.645921725263807E9, 0.0, 2022-02-27 11:28:45.263
168.0, -1654.56553155965, -5067.162819762566, -2110.742284148012, -10418.662180741094, -727.6610407425214, 124.3874578937838, -5499.713778461669, -1750.432163528462, -3367.5585231254727, -6474.7192233466185, -4380.1819539287035, -3151.4171542426534, -3505.2899724590748, -2470.8959425563744, -9860.136790291881, -15447.625869229541, 0.016, -0.10400000000000001, 0.992, 192.0, 0.0, 0.0, 0.0, 0.0, 0.0, 0.0, 0.0, 0.0, 0.0, 1.645921725271694E9, 0.0, 2022-02-27 11:28:45.271
170.0, -943.8471131142513, -4488.69967325922, -1558.1401059794553, -9835.616926624409, -75.59359974784849, 643.2608536792819, -5101.785671923837, -1287.1699079477678, -1582.794080113659, -5442.962699289644, -4075.393566536137, -2897.7025029304627, -3301.1738420932106, -2157.2562643595056, -9433.397285151159, -14332.206765676352, 0.016, -0.10400000000000001, 0.992, 192.0, 0.0, 0.0, 0.0, 0.0, 0.0, 0.0, 0.0, 0.0, 0.0, 1.645921725279598E9, 0.0, 2022-02-27 11:28:45.279
172.0, -1329.3252979904769, -4814.85632835106, -1924.1722731795637, -10226.571288892184, -480.2942848556382, 274.21120097770705, -5480.826554396935, -1766.950102680934, -4225.016143919962, -6380.372510000767, -4097.611200524712, -3078.3493016182547, -3148.1314478077234, -2209.671105107201, -9837.114493502915, -15583.457420284441, 0.016, -0.10400000000000001, 0.992, 192.0, 0.0, 0.0, 0.0, 0.0, 0.0, 0.0, 0.0, 0.0, 0.0, 1.645921725286885E9, 0.0, 2022-02-27 11:28:45.286
174.0, -1331.6498794138288, -4791.588162373086, -1877.9041621570782, -10170.379003331544, -475.55571503111304, 349.0448414140751, -5287.975703236545, -1471.7729654041489, -1662.209828163365, -5794.443880849348, -4316.792406653453, -3002.152204770113, -3565.3267580660295, -2401.4267207892804, -9581.477592167568, -14631.742493121923, 0.015, -0.10300000000000001, 0.992, 192.0, 0.0, 56.0, 126.0, 104.0, 15.5, 0.0, 0.0, 0.0, 0.0, 1.645921725294384E9, 0.0, 2022-02-27 11:28:45.294
176.0, -811.5247859388335, -4385.233448175603, -1535.6766028018717, -9803.899801242329, -33.25939574949691, 644.5572548576897, -5197.048806792356, -1424.9460607702806, -2952.956015223982, -5749.8521506610105, -3937.840931158177, -2900.474119242921, -3081.232676652989, -2038.680260024102, -9575.062641508895, -14844.262879402982, 0.015, -0.10300000000000001, 0.992, 192.0, 0.0, 0.0, 0.0, 0.0, 0.0, 0.0, 0.0, 0.0, 0.0, 1.645921725301382E9, 0.0, 2022-02-27 11:28:45.301
178.0, -1556.6648908454051, -4977.308807052232, -2104.4837957005257, -10415.801157450815, -729.1362558765717, 110.17174842020852, -5517.66222925928, -1777.8130504862131, -3385.0822907784336, -6443.739705531562, -4343.882720933285, -3124.3491917072765, -3488.4144053953178, -2461.888189540886, -9859.71210714723, -15464.38967757102, 0.015, -0.10300000000000001, 0.992, 192.0, 0.0, 0.0, 0.0, 0.0, 0.0, 0.0, 0.0, 0.0, 0.0, 1.645921725309323E9, 0.0, 2022-02-27 11:28:45.309
180.0, -865.9736354319615, -4408.63572462031, -1565.8067543276256, -9835.32635394649, -92.58092553388185, 631.7050017958882, -5119.15297736561, -1298.9269255312593, -1516.4541025703077, -5397.54395455646, -4059.5685314617795, -2869.1369735165804, -3313.5567085214507, -2166.822810986377, -9433.10671247324, -14330.418626119928, 0.015, -0.10300000000000001, 0.992, 192.0, 0.0, 0.0, 0.0, 0.0, 0.0, 0.0, 0.0, 0.0, 0.0, 1.645921725316553E9, 0.0, 2022-02-27 11:28:45.316
182.0, -1242.3770120593324, -4716.486301003254, -1917.6679155430695, -10215.753044575817, -488.653837281923, 278.1451080018411, -5502.507746518582, -1770.5040300493276, -4174.568256684334, -6329.924622765139, -4067.972787376975, -3045.067554124302, -3145.918625106648, -2188.0793199633745, -9835.885147557872, -15568.41469626602, 0.015, -0.10300000000000001, 0.992, 192.0, 0.0, 0.0, 0.0, 0.0, 0.0, 0.0, 0.0, 0.0, 0.0, 1.645921725324002E9, 0.0, 2022-02-27 11:28:45.324
184.0, -1252.1223726418464, -4703.991675852737, -1869.3210922862402, -10157.638508992019, -470.19129636183936, 350.0506699145639, -5276.889237986713, -1463.122840299945, -1629.2410050917872, -5758.681089720856, -4292.831336597364, -2972.6031986001967, -3560.3199673080408, -2409.2274796041825, -9581.812868334398, -14625.79692909681, 0.0155, -0.10250000000000001, 0.993, 192.0, 0.0, 64.0, 126.0, 104.0, 15.5, 8.0, 0.0, 0.0, 0.0, 1.645921725331944E9, 0.0, 2022-02-27 11:28:45.331
186.0, -726.3646395641136, -4295.692359887643, -1517.7058002598048, -9792.522763314577, -15.288593207430031, 662.9974440333181, -5187.035225276378, -1404.8741942494148, -2903.5586599777535, -5706.378007695438, -3909.8341953556774, -2880.4693079554213, -3066.212304379023, -2031.482998309493, -9566.032536748951, -14832.46115833058, 0.0155, -0.10250000000000001, 0.993, 192.0, 0.0, 0.0, 0.0, 0.0, 0.0, 0.0, 0.0, 0.0, 0.0, 1.645921725339955E9, 0.0, 2022-02-27 11:28:45.339
188.0, -1485.4745847552522, -4911.549974864719, -2088.614057137258, -10406.34636954622, -710.4725492563903, 126.33205966139552, -5503.558278507981, -1744.9336343924565, -3351.800543284481, -6416.559984273909, -4310.109235061316, -3094.4202058816204, -3466.9343789737677, -2460.569436618023, -9850.302022731546, -15453.124398365546, 0.0155, -0.10250000000000001, 0.993, 192.0, 0.0, 0.0, 0.0, 0.0, 0.0, 0.0, 0.0, 0.0, 0.0, 1.645921725346713E9, 0.0, 2022-02-27 11:28:45.346
190.0, -806.0709602917386, -4358.076078662405, -1554.6755855888828, -9826.385656164368, -84.64605625224785, 633.6496035634999, -5100.019884111868, -1280.3079223999885, -1494.0353028816346, -5405.948210471655, -4029.1478072581062, -2843.164246459514, -3287.9863128645798, -2155.423421314171, -9421.550860589847, -14319.73449227029, 0.0155, -0.10250000000000001, 0.993, 192.0, 0.0, 0.0, 0.0, 0.0, 0.0, 0.0, 0.0, 0.0, 0.0, 1.645921725354606E9, 0.0, 2022-02-27 11:28:45.354
192.0, -1177.4451944166653, -4665.97135853426, -1898.3113048447735, -10193.40130012051, -466.1009271265182, 282.6825121262684, -5476.691481672702, -1736.7528959218141, -4138.157264966639, -6322.839119772807, -4038.267318995872, -3013.9762775869704, -3133.4687034450417, -2181.440851860148, -9821.267106684101, -15546.55469018873, 0.0155, -0.10250000000000001, 0.993, 192.0, 0.0, 0.0, 0.0, 0.0, 0.0, 0.0, 0.0, 0.0, 0.0, 1.64592172536259E9, 0.0, 2022-02-27 11:28:45.362
194.0, -1233.3022038104777, -4694.983922837248, -1884.296761071296, -10168.210884119379, -490.6431425384453, 321.1722160783072, -5299.665665586671, -1504.9429541758245, -1660.8463717515913, -5782.999787688231, -4283.354196948314, -2963.1707624400574, -3562.309272564563, -2422.3256018549923, -9588.876019582274, -14657.223481800973, 0.01375, -0.10125, 0.9924999999999999, 192.0, 0.0, 48.0, 126.0, 112.0, 15.5, 0.0, 0.0, 0.0, 0.0, 1.645921725376269E9, 0.0, 2022-02-27 11:28:45.376
196.0, -704.3705230200915, -4278.123888745772, -1518.3540008490088, -9796.6131325499, -18.01550603097749, 656.4483829079131, -5182.698986852049, -1410.7750547856158, -2840.906720269528, -5681.344053905494, -3905.2520877423394, -2871.3721479621113, -3079.0869091852796, -2039.708440269046, -9564.445562892624, -14817.329027334337, 0.01375, -0.10125, 0.9924999999999999, 192.0, 0.0, 0.0, 0.0, 0.0, 0.0, 0.0, 0.0, 0.0, 0.0, 1.645921725384237E9, 0.0, 2022-02-27 11:28:45.384
198.0, -1454.2044942622774, -4881.196305894412, -2080.7909465779003, -10399.931418887547, -705.9574968764183, 132.50114113106028, -5513.705970490691, -1773.9685504399004, -3406.9199451112686, -6404.937077157149, -4287.645731883733, -3084.2948656433664, -3447.533064786561, -2430.7522095146433, -9852.179569265792, -15474.49266606482, 0.01375, -0.10125, 0.9924999999999999, 192.0, 0.0, 0.0, 0.0, 0.0, 0.0, 0.0, 0.0, 0.0, 0.0, 1.645921725392332E9, 0.0, 2022-02-27 11:28:45.392
200.0, -824.1311698116267, -4362.300558364458, -1566.857286317025, -9844.915252317816, -107.6236495523035, 632.1743884294497, -5121.410503555597, -1285.15825094679, -1453.66805239535, -5389.6761405081925, -4037.41795270657, -2841.3314034141786, -3303.900754916758, -2158.9773486825643, -9431.184462450083, -14323.824861505613, 0.01375, -0.10125, 0.9924999999999999, 192.0, 0.0, 0.0, 0.0, 0.0, 0.0, 0.0, 0.0, 0.0, 0.0, 1.64592172539878E9, 0.0, 2022-02-27 11:28:45.398
202.0, -1147.9185399912049, -4640.847997766495, -1862.5038102273716, -10165.193398617912, -432.08157206554085, 326.2907655585725, -5453.535074417005, -1734.7412389208364, -4059.7249936729663, -6270.580741236298, -4016.876699552143, -2997.4583384344983, -3108.4347496550977, -2158.865589960288, -9806.492603599145, -15506.589771102641, 0.01375, -0.10125, 0.9924999999999999, 192.0, 0.0, 0.0, 0.0, 0.0, 0.0, 0.0, 0.0, 0.0, 0.0, 1.645921725406907E9, 0.0, 2022-02-27 11:28:45.406
204.0, -1255.5868930324189, -4712.910021890405, -1877.1442028455976, -10171.854218465593, -491.783081505666, 331.789294694578, -5306.661761601182, -1494.6835034708386, -1694.7316163458368, -5783.871505721987, -4270.971330520074, -2948.1280384216357, -3539.421086242329, -2391.7484154401322, -9587.937246315152, -14678.368232055693, 0.013875, -0.10262500000000001, 0.99125, 192.0, 0.0, 56.0, 126.0, 96.0, 15.0, 120.0, 0.0, 0.0, 0.0, 1.645921725414837E9, 0.0, 2022-02-27 11:28:45.414
206.0, -757.1206399346162, -4330.114046348816, -1523.7631230071931, -9789.79585049103, -29.66076489219247, 653.9896910178294, -5187.906943310135, -1405.6341535608954, -2801.165318627992, -5679.98059749372, -3920.451273971948, -2868.1087932716364, -3093.1014529587574, -2045.5869490607918, -9569.474705395069, -14809.371806308247, 0.013875, -0.10262500000000001, 0.99125, 192.0, 0.0, 0.0, 0.0, 0.0, 0.0, 0.0, 0.0, 0.0, 0.0, 1.645921725422056E9, 0.0, 2022-02-27 11:28:45.422
208.0, -1541.376297637975, -4963.070745834201, -2092.6820746281237, -10395.818697907771, -716.1945958369489, 123.49338811557152, -5517.036380414532, -1759.596378755138, -3443.4873990401506, -6403.104234111815, -4302.554345435422, -3081.232676652989, -3448.896521198335, -2430.662802536822, -9858.147485035359, -15472.458657319386, 0.013875, -0.10262500000000001, 0.99125, 192.0, 0.0, 0.0, 0.0, 0.0, 0.0, 0.0, 0.0, 0.0, 0.0, 1.645921725428474E9, 0.0, 2022-02-27 11:28:45.428
210.0, -944.8529416147402, -4479.401347565812, -1591.243039517765, -9861.56730193702, -116.51964384551572, 619.9479842123967, -5123.8915471901355, -1294.8589080403935, -1510.7320559897491, -5398.348617356851, -4072.867819412687, -2873.763784618829, -3316.283621344998, -2184.8830205062654, -9444.036715511886, -14333.570222088127, 0.013875, -0.10262500000000001, 0.99125, 192.0, 0.0, 0.0, 0.0, 0.0, 0.0, 0.0, 0.0, 0.0, 0.0, 1.645921725436707E9, 0.0, 2022-02-27 11:28:45.436
212.0, -1252.614111019863, -4745.923548450894, -1860.0898218261984, -10152.139979856012, -395.53646988111376, 351.6376437708907, -5426.154187459253, -1708.4108839524847, -4092.291485344349, -6310.29979113338, -4048.3032522563044, -3031.9247283845816, -3109.0829502443016, -2156.3621945812934, -9803.475118097678, -15496.084451208646, 0.013875, -0.10262500000000001, 0.99125, 192.0, 0.0, 0.0, 0.0, 0.0, 0.0, 0.0, 0.0, 0.0, 0.0, 1.645921725444594E9, 0.0, 2022-02-27 11:28:45.444
214.0, -1405.61180181644, -4856.609386993574, -1909.1295491611422, -10199.905657757005, -493.6829797843671, 328.16831209281827, -5301.699674332103, -1514.3530385915087, -1804.2551641768414, -5871.222123053328, -4314.04314208545, -2994.954943055504, -3541.343336265485, -2404.600668501934, -9598.196697020137, -14710.286523137871, 0.0139375, -0.1023125, 0.989625, 192.0, 0.0, 56.0, 126.0, 104.0, 15.0, 112.0, 0.0, 0.0, 0.0, 1.64592172545159E9, 0.0, 2022-02-27 11:28:45.451
216.0, -861.5032865409001, -4429.713419641665, -1523.5619573070953, -9798.89301048434, -3.7103895795809723, 679.5377349302453, -5168.63973958966, -1373.4923450341637, -2769.4928967348214, -5679.645321326891, -3951.5649022537355, -2897.255468041357, -3085.077176699302, -2031.5053500539484, -9546.072428950361, -14766.478808698514, 0.0139375, -0.1023125, 0.989625, 192.0, 0.0, 0.0, 0.0, 0.0, 0.0, 0.0, 0.0, 0.0, 0.0, 1.645921725459189E9, 0.0, 2022-02-27 11:28:45.459
218.0, -1620.5461764986726, -5037.770275803838, -2096.0348362964196, -10409.117985858678, -703.5211567307898, 128.7460480625687, -5502.373636051851, -1753.4720007743838, -3500.350236934452, -6454.960281248126, -4316.61359269781, -3119.2306422270112, -3433.25030007962, -2435.915462483819, -9849.720877375708, -15481.265244634778, 0.0139375, -0.1023125, 0.989625, 192.0, 0.0, 0.0, 0.0, 0.0, 0.0, 0.0, 0.0, 0.0, 0.0, 1.645921725467262E9, 0.0, 2022-02-27 11:28:45.467
220.0, -1001.1569858976586, -4523.858967287418, -1609.5938217155722, -9875.872418388417, -130.7130015746357, 606.9839724283186, -5122.863366945192, -1301.1844517212453, -1523.5619573070953, -5439.74404808808, -4101.545107548846, -2904.76565417834, -3337.9424617221907, -2201.2221457030946, -9442.53914863338, -14342.488568125793, 0.0139375, -0.1023125, 0.989625, 192.0, 0.0, 0.0, 0.0, 0.0, 0.0, 0.0, 0.0, 0.0, 0.0, 1.645921725475285E9, 0.0, 2022-02-27 11:28:45.475
222.0, -1256.033927921525, -4748.829275230083, -1871.8691911541453, -10152.855235678582, -408.00874328717515, 343.59101576698015, -5434.871367796823, -1707.8744420855573, -4101.410997082115, -6306.924677720628, -4062.5636652187904, -3035.635117964163, -3126.3832004527094, -2176.0987849353296, -9806.313789643502, -15488.998948216315, 0.0139375, -0.1023125, 0.989625, 192.0, 0.0, 0.0, 0.0, 0.0, 0.0, 0.0, 0.0, 0.0, 0.0, 1.64592172548177E9, 0.0, 2022-02-27 11:28:45.481
224.0, -1372.1735921113006, -4830.636659936507, -1917.2208806539634, -10200.576210090663, -507.25048866873846, 322.8485969124552, -5290.680264315637, -1499.5114802731848, -1812.7711788143133, -5868.785782907699, -4323.09559858985, -2993.0326930323477, -3560.565836497049, -2430.4169333478135, -9601.750624388531, -14705.7714707579, 0.012968750000000001, -0.10315625, 0.9868125, 192.0, 0.0, 48.0, 126.0, 96.0, 15.0, 96.0, 0.0, 0.0, 0.0, 1.645921725496809E9, 0.0, 2022-02-27 11:28:45.496
226.0, -796.6832276205097, -4370.950683468662, -1528.0099544537013, -9792.478059825668, -8.381904170740148, 673.6145226495889, -5154.088753949256, -1379.1473363813564, -2751.656204659487, -5668.469449099237, -3946.356945795649, -2897.926020375016, -3096.6106768382406, -2052.3595276307497, -9547.547644084412, -14760.466189440036, 0.012968750000000001, -0.10315625, 0.9868125, 192.0, 0.0, 0.0, 0.0, 0.0, 0.0, 0.0, 0.0, 0.0, 0.0, 1.645921725503965E9, 0.0, 2022-02-27 11:28:45.503
228.0, -1527.093532931034, -4949.391478227553, -2099.342894475805, -10401.54074448833, -703.319991030692, 137.9773185226105, -5504.653513986292, -1757.785887454258, -3478.9149140018126, -6442.689173542163, -4301.369702979291, -3103.3832554081987, -3435.843102436436, -2419.553985542534, -9849.497359931154, -15473.68800326443, 0.012968750000000001, -0.10315625, 0.9868125, 192.0, 0.0, 0.0, 0.0, 0.0, 0.0, 0.0, 0.0, 0.0, 0.0, 1.64592172551148E9, 0.0, 2022-02-27 11:28:45.511
230.0, -884.6149903076877, -4425.287774239513, -1596.8309756315919, -9859.175665280303, -108.76358851952416, 617.5339958112236, -5111.7992534398145, -1293.2495824396112, -1475.4162997503638, -5409.099806439854, -4059.6355866951453, -2862.18558099098, -3318.5634992794394, -2173.7518517675226, -9434.827796796299, -14326.663533051436, 0.012968750000000001, -0.10315625, 0.9868125, 192.0, 0.0, 0.0, 0.0, 0.0, 0.0, 0.0, 0.0, 0.0, 0.0, 1.645921725519355E9, 0.0, 2022-02-27 11:28:45.519
232.0, -1159.8543715303388, -4654.01317525067, -1866.683586440514, -10161.572416016152, -411.1379875109181, 332.3033848170501, -5424.857786280845, -1714.8034828667026, -4066.2740547983713, -6267.76442143493, -4020.8776618096426, -3007.4719199504757, -3105.3502089202657, -2159.089107404841, -9796.769594761086, -15493.603407574108, 0.012968750000000001, -0.10315625, 0.9868125, 192.0, 0.0, 0.0, 0.0, 0.0, 0.0, 0.0, 0.0, 0.0, 0.0, 1.645921725527467E9, 0.0, 2022-02-27 11:28:45.527
234.0, -1265.6898815262177, -4723.3929900399435, -1900.1441478901088, -10191.769622775271, -492.90066872843136, 320.61342246692453, -5280.867848499757, -1507.6251635104613, -1738.3398697781408, -5811.38650314647, -4284.427080682169, -2973.5196201228646, -3547.087734590499, -2419.844558220453, -9591.312359727903, -14699.714148010511, 0.012484375, -0.105578125, 0.98740625, 192.0, 0.0, 48.0, 126.0, 80.0, 15.0, 112.0, 0.0, 0.0, 0.0, 1.645921725535423E9, 0.0, 2022-02-27 11:28:45.535
236.0, -714.0488283692395, -4284.248266726526, -1525.2606898856986, -9789.684091768753, -6.034971002932907, 663.2209614778711, -5146.891492234647, -1397.4310633457976, -2738.8486550865955, -5640.887396441388, -3910.3482854781496, -2862.0067670353374, -3083.914885987626, -2061.8143155353446, -9543.770199271465, -14778.548750704378, 0.012484375, -0.105578125, 0.98740625, 192.0, 0.0, 0.0, 0.0, 0.0, 0.0, 0.0, 0.0, 0.0, 0.0, 1.645921725542051E9, 0.0, 2022-02-27 11:28:45.542
238.0, -1479.059634096579, -4912.846376043127, -2111.2787260149394, -10415.06354988379, -715.3452295476473, 122.35344914835086, -5501.725435462647, -1764.0220241572888, -3478.9819692351784, -6423.60078377733, -4290.327941218369, -3093.66024657014, -3441.900425183824, -2445.169084688316, -9852.268976243613, -15496.68794830894, 0.012484375, -0.105578125, 0.98740625, 192.0, 0.0, 0.0, 0.0, 0.0, 0.0, 0.0, 0.0, 0.0, 0.0, 1.645921725550276E9, 0.0, 2022-02-27 11:28:45.550
240.0, -840.6938124530093, -4393.168317457237, -1601.7483594117593, -9859.913272847329, -116.8102165234347, 618.3610103560699, -5106.4571865149965, -1301.3409139324324, -1458.540732686607, -5412.385512874784, -4051.7230691579666, -2858.2069704779356, -3314.9872201665903, -2184.7489100395337, -9427.183500192583, -14324.830690006102, 0.012484375, -0.105578125, 0.98740625, 192.0, 0.0, 0.0, 0.0, 0.0, 0.0, 0.0, 0.0, 0.0, 0.0, 1.645921725557007E9, 0.0, 2022-02-27 11:28:45.557
242.0, -1135.1109904183138, -4649.051087981593, -1879.7593569468686, -10168.747325986305, -422.35856322748225, 336.6396232413797, -5449.9364435597, -1726.851073128113, -4071.0349763673516, -6287.903343189161, -4016.2955541963047, -3012.568117686286, -3104.2102699530446, -2170.2649796324945, -9799.138879673348, -15501.784146044749, 0.012484375, -0.105578125, 0.98740625, 192.0, 0.0, 0.0, 0.0, 0.0, 0.0, 0.0, 0.0, 0.0, 0.0, 1.645921725563696E9, 0.0, 2022-02-27 11:28:45.563
244.0, -1254.8939889543044, -4722.498920261732, -1905.3521043481953, -10192.194305919922, -492.54304081714645, 337.5560447640473, -5286.5451915914055, -1504.6970849868162, -1728.594509195627, -5826.093950998063, -4288.718615617588, -2978.593466114219, -3552.698022448781, -2432.6744595377995, -9595.670949896688, -14692.829810718276, 0.008, -0.10400000000000001, 0.986, 192.0, 0.0, 32.0, 126.0, 96.0, 15.0, 104.0, 0.0, 0.0, 0.0, 1.645921725571702E9, 0.0, 2022-02-27 11:28:45.571
246.0, -732.0866861446722, -4312.724389162587, -1527.607623053506, -9791.092251669437, -3.57627911284913, 683.5386971877452, -5150.490123091951, -1394.257115633144, -2754.7183936498636, -5672.1351351899075, -3915.913869847521, -2877.630636409597, -3077.589342306774, -2056.3157863993392, -9543.926661482652, -14776.06770706984, 0.008, -0.10400000000000001, 0.986, 192.0, 0.0, 0.0, 0.0, 0.0, 0.0, 0.0, 0.0, 0.0, 0.0, 1.645921725579714E9, 0.0, 2022-02-27 11:28:45.579
248.0, -1532.63676555595, -4962.176676055989, -2106.674266657146, -10415.287067328343, -712.2383370683596, 127.94138526217763, -5498.350322049895, -1779.1541551535315, -3500.014960767622, -6452.434534124677, -4299.7603773785095, -3104.925525775615, -3437.5865385039497, -2450.9581865022406, -9854.638261155875, -15497.91729425398, 0.008, -0.10400000000000001, 0.986, 192.0, 0.0, 0.0, 0.0, 0.0, 0.0, 0.0, 0.0, 0.0, 0.0, 1.64592172558668E9, 0.0, 2022-02-27 11:28:45.586
