%OpenBCI Raw EEG Data
%Number of channels = 16
%Sample Rate = 125 Hz
%Board = OpenBCI_GUI$BoardCytonSerialDaisy
Sample Index, EXG Channel 0, EXG Channel 1, EXG Channel 2, EXG Channel 3, EXG Channel 4, EXG Channel 5, EXG Channel 6, EXG Channel 7, EXG Channel 8, EXG Channel 9, EXG Channel 10, EXG Channel 11, EXG Channel 12, EXG Channel 13, EXG Channel 14, EXG Channel 15, Accel Channel 0, Accel Channel 1, Accel Channel 2, Other, Other, Other, Other, Other, Other, Other, Analog Channel 0, Analog Channel 1, Analog Channel 2, Timestamp, Other, Timestamp (Formatted)
28.0, -1240.678279480729, -4447.885387883829, -1641.4450575643848, -10230.192271493945, -518.8510440410429, 405.1030165079852, -5271.971854206545, -1481.3618637754755, -3084.473679599009, -6659.545798247552, -4307.024694326484, -3069.520362558408, -3779.2776559922286, -2666.227837351303, -10052.205330396335, -14696.853124720232, 0.016, -0.108, 1.004, 192.0, 0.0, 64.0, 126.0, 80.0, 15.5, 48.0, 0.0, 0.0, 0.0, 1.645921401043226E9, 0.0, 2022-02-27 11:23:21.043
30.0, -2006.3149340528173, -5028.047266965779, -2181.217334415595, -10810.890592442822, -1199.5287179385089, -116.38553337878388, -5595.8262796194895, -1862.6155689496482, -4049.8455226237206, -7465.6167585392905, -4656.3601084184775, -3294.423615267708, -4078.545162504335, -3056.6010542632407, -10354.691488110006, -15467.496570050309, 0.016, -0.108, 1.004, 192.0, 0.0, 0.0, 0.0, 0.0, 0.0, 0.0, 0.0, 0.0, 0.0, 1.645921401043229E9, 0.0, 2022-02-27 11:23:21.043
0.0, -554.3903177249811, -2159.8714184607766, -774.7785180543087, -5054.042345767301, -192.4038162712832, 231.76523825707892, -2627.067581065605, -713.9817731358735, -1104.1761760921688, -3211.878622994259, -2182.111404193807, -1518.4657595712854, -1935.392848896128, -1355.9238738922922, -4963.786001656771, -7166.304548538274, 0.014, -0.108, 0.994, 192.0, 0.0, 56.0, 126.0, 80.0, 15.5, 8.0, 0.0, 0.0, 0.0, 1.64592140115597E9, 0.0, 2022-02-27 11:23:21.155
2.0, -1818.7390945838804, -4866.064174898169, -2084.9707227910426, -10689.542971794961, -1036.2715764369461, -45.86577962229009, -5652.443248324782, -1922.2723749008626, -4613.109482897458, -7374.958083028565, -4479.580161521454, -3255.062193281912, -3896.065520771208, -2911.873508915128, -10356.501979410885, -15596.510839046341, 0.014, -0.108, 0.994, 192.0, 0.0, 0.0, 0.0, 0.0, 0.0, 0.0, 0.0, 0.0, 0.0, 1.64592140116293E9, 0.0, 2022-02-27 11:23:21.162
4.0, -1657.4265548499293, -4728.243318586746, -1897.5736972777484, -10483.035204772379, -849.5451032573109, 135.4515713991608, -5380.087242136865, -1572.1993532418435, -1847.2375687643969, -6595.1727742162675, -4612.260116608157, -3100.9692670070253, -4149.601358127757, -2946.9657477099595, -9949.052029735092, -14475.257930190317, 0.014, -0.108, 0.994, 192.0, 0.0, 0.0, 0.0, 0.0, 0.0, 0.0, 0.0, 0.0, 0.0, 1.645921401169614E9, 0.0, 2022-02-27 11:23:21.169
6.0, -1321.8598153424043, -4479.758975477097, -1724.9288231049566, -10292.37482456861, -578.1055185920619, 302.8661373694107, -5419.806292033946, -1625.6423742344828, -3696.7103119743247, -6817.1703001463775, -4314.132549063272, -3108.367694421732, -3762.849123817578, -2731.6066898830763, -10126.234308032312, -15010.112823261361, 0.014, -0.108, 0.994, 192.0, 0.0, 0.0, 0.0, 0.0, 0.0, 0.0, 0.0, 0.0, 0.0, 1.645921401177498E9, 0.0, 2022-02-27 11:23:21.177
8.0, -1971.714433636002, -4968.278702292288, -2151.511866034492, -10752.79840860348, -1144.1634469227133, -104.74027451756889, -5582.079956779476, -1834.5864814026932, -3382.511840166073, -7246.413200666095, -4710.02664685567, -3256.425649693686, -4181.184373043105, -3091.1344994466904, -10254.667431672506, -15259.267718704668, 0.016, -0.114, 0.994, 192.0, 0.0, 64.0, 126.0, 56.0, 15.5, 8.0, 0.0, 0.0, 0.0, 1.645921401185478E9, 0.0, 2022-02-27 11:23:21.185
10.0, -1287.4604806256868, -4446.812504149974, -1660.533447329217, -10217.764701576794, -536.844198327565, 355.0351089280974, -5282.946560734101, -1454.0480320510903, -2149.924892178165, -6407.395769047233, -4387.982712743606, -3032.058838851314, -3910.929430833987, -2746.135323779026, -9910.115290893948, -14390.65657742698, 0.016, -0.114, 0.994, 192.0, 0.0, 0.0, 0.0, 0.0, 0.0, 0.0, 0.0, 0.0, 0.0, 1.645921401192759E9, 0.0, 2022-02-27 11:23:21.192
12.0, -1800.8576990196348, -4852.809590436172, -2077.5946471207913, -10674.008509398522, -1024.5816140868205, -33.48291319404998, -5647.16823663333, -1916.393866109117, -4614.539994542599, -7366.307957924361, -4477.657911498298, -3249.0719257678898, -3890.9246195464875, -2902.6869419439963, -10362.805171347281, -15591.995786666368, 0.016, -0.114, 0.994, 192.0, 0.0, 0.0, 0.0, 0.0, 0.0, 0.0, 0.0, 0.0, 0.0, 1.645921401200192E9, 0.0, 2022-02-27 11:23:21.200
14.0, -1665.8084590206695, -4737.027554157681, -1903.4969095584047, -10487.393794941163, -861.5032865409001, 123.38162939329499, -5376.868590935301, -1570.2994549631424, -1848.5786734317153, -6612.025989535569, -4615.478767809721, -3111.5416421343857, -4146.650927859656, -2952.4642768459653, -9957.769210072662, -14490.412412931015, 0.016, -0.114, 0.994, 192.0, 0.0, 0.0, 0.0, 0.0, 0.0, 0.0, 0.0, 0.0, 0.0, 1.645921401208196E9, 0.0, 2022-02-27 11:23:21.208
16.0, -1317.4341699402535, -4473.053452140504, -1723.140683548532, -10287.993882655368, -558.0560038156515, 298.373436733894, -5403.221297648108, -1611.9407548833794, -3659.919340600889, -6812.342323344032, -4319.653429943733, -3120.907023061159, -3767.431231430916, -2712.4735966293333, -10125.340238254099, -14989.191590451193, 0.014, -0.10900000000000001, 0.994, 192.0, 0.0, 48.0, 126.0, 96.0, 15.5, 8.0, 0.0, 0.0, 0.0, 1.645921401216205E9, 0.0, 2022-02-27 11:23:21.216
18.0, -1976.3859482271612, -4980.058071620235, -2153.1658951241848, -10759.101600539876, -1149.0808307028808, -108.67418154170294, -5597.7708813871, -1845.941167585989, -3439.508788527106, -7259.690136872547, -4715.502824247221, -3265.0310713089793, -4182.458422477058, -3084.764252276928, -10269.240769057365, -15285.799239373118, 0.014, -0.10900000000000001, 0.994, 192.0, 0.0, 0.0, 0.0, 0.0, 0.0, 0.0, 0.0, 0.0, 0.0, 1.645921401229809E9, 0.0, 2022-02-27 11:23:21.229
20.0, -1301.0503412545136, -4463.621015980365, -1666.1660869319544, -10222.749140590327, -548.198884510861, 351.83880947098845, -5269.155534405177, -1441.6651656228503, -2118.7665604074673, -6399.080920109859, -4401.416111161246, -3030.5165684838976, -3914.3045442467387, -2741.6202713990538, -9905.086148391503, -14382.766411634257, 0.014, -0.10900000000000001, 0.994, 192.0, 0.0, 0.0, 0.0, 0.0, 0.0, 0.0, 0.0, 0.0, 0.0, 1.645921401237814E9, 0.0, 2022-02-27 11:23:21.237
22.0, -1782.8421929886572, -4841.030221108225, -2063.9824347475096, -10667.548855250938, -1008.8683377347396, -29.638413147737165, -5636.886434183888, -1901.9546391909885, -4620.016171934149, -7339.597623300269, -4479.960141177195, -3240.712373341605, -3884.934352032465, -2867.8405723381725, -10358.692450367505, -15583.166847606522, 0.014, -0.10900000000000001, 0.994, 192.0, 0.0, 0.0, 0.0, 0.0, 0.0, 0.0, 0.0, 0.0, 0.0, 1.645921401245032E9, 0.0, 2022-02-27 11:23:21.245
24.0, -1682.661674339971, -4749.522179308197, -1921.71358128948, -10507.55506843985, -886.6937025420311, 111.19992866515264, -5395.9569807001335, -1578.1896207558657, -1892.3433890752065, -6641.507940472119, -4635.103599441481, -3112.167490979134, -4159.324366965815, -2962.075526961747, -9970.979091045749, -14516.340436499171, 0.014, -0.10900000000000001, 0.994, 192.0, 0.0, 0.0, 0.0, 0.0, 0.0, 0.0, 0.0, 0.0, 0.0, 1.645921401252459E9, 0.0, 2022-02-27 11:23:21.252
26.0, -1298.0552074975024, -4468.203123593703, -1715.9881253228339, -10271.498295247353, -570.3047597771597, 307.0906170714637, -5413.592507075371, -1631.0961998815776, -3594.13815666892, -6775.059613592579, -4319.765188666009, -3100.9692670070253, -3772.3262634666285, -2713.032390240716, -10121.629848674518, -14959.463770325634, 0.011, -0.10750000000000001, 0.992, 192.0, 0.0, 32.0, 126.0, 88.0, 15.0, 120.0, 0.0, 0.0, 0.0, 1.645921401260512E9, 0.0, 2022-02-27 11:23:21.260
28.0, -1983.96318959751, -4996.106624139145, -2165.638168530246, -10763.37078373084, -1166.939874522671, -119.26890841351849, -5605.057550079531, -1846.008222819355, -3514.1412632633765, -7288.166259308608, -4716.59805972553, -3267.556818432429, -4174.367090984237, -3088.94402849007, -10284.864638431625, -15313.98478913126, 0.011, -0.10750000000000001, 0.992, 192.0, 0.0, 0.0, 0.0, 0.0, 0.0, 0.0, 0.0, 0.0, 0.0, 1.645921401268461E9, 0.0, 2022-02-27 11:23:21.268
30.0, -1320.161082763801, -4487.716196503186, -1672.9610172463676, -10239.937632076459, -556.714899148333, 332.28103307259477, -5277.313921131364, -1448.1695232593445, -2090.670417627146, -6412.156690616213, -4420.68331488172, -3040.7313156999726, -3946.736925451389, -2768.218847300869, -9910.763491483152, -14379.503056943782, 0.011, -0.10750000000000001, 0.992, 192.0, 0.0, 0.0, 0.0, 0.0, 0.0, 0.0, 0.0, 0.0, 0.0, 1.645921401275069E9, 0.0, 2022-02-27 11:23:21.275
32.0, -1788.787757013769, -4856.72114571585, -2063.3342341583057, -10672.980329153577, -1012.8469482477842, -38.780276629957754, -5642.4296668088045, -1905.262697370374, -4625.58175630352, -7355.735582797001, -4485.6598360132975, -3263.242931752555, -3892.9586282919204, -2900.9882093653932, -10359.832389334726, -15579.858789427137, 0.011, -0.10750000000000001, 0.992, 192.0, 0.0, 0.0, 0.0, 0.0, 0.0, 0.0, 0.0, 0.0, 0.0, 1.645921401281996E9, 0.0, 2022-02-27 11:23:21.281
34.0, -1689.2554389542865, -4760.519237580209, -1923.9040522461, -10513.210059787043, -890.9628857329948, 99.93464945967787, -5405.16589941572, -1585.9456760818573, -1908.4813485719383, -6649.4651614982085, -4646.972375747249, -3124.304488218366, -4171.841343860787, -2968.9375125095266, -9982.892570840428, -14528.231564549395, 0.011, -0.10750000000000001, 0.992, 192.0, 0.0, 0.0, 0.0, 0.0, 0.0, 0.0, 0.0, 0.0, 0.0, 1.645921401290098E9, 0.0, 2022-02-27 11:23:21.290
36.0, -1297.5411173750304, -4473.634597496342, -1707.7179798743703, -10277.734431950383, -560.7829166391989, 313.41616075231565, -5395.822870233402, -1605.726969924804, -3560.9905196417, -6776.803049660093, -4325.71075269112, -3111.6534008566623, -3778.65180714748, -2701.454186612867, -10122.054531819169, -14951.081866154895, 0.0115, -0.10675000000000001, 0.993, 192.0, 0.0, 48.0, 126.0, 88.0, 15.5, 8.0, 0.0, 0.0, 0.0, 1.645921401298241E9, 0.0, 2022-02-27 11:23:21.298
38.0, -1980.163393040108, -4986.5400775122735, -2155.155200380707, -10766.477676210126, -1163.4530023876432, -131.18238820819715, -5604.051721579042, -1866.9294556295224, -3547.1100863349543, -7307.098186862253, -4716.531004492164, -3271.8707051123033, -4175.484678207002, -3098.2870576723885, -10293.671225747017, -15331.083873639569, 0.0115, -0.10675000000000001, 0.993, 192.0, 0.0, 0.0, 0.0, 0.0, 0.0, 0.0, 0.0, 0.0, 0.0, 1.645921401304791E9, 0.0, 2022-02-27 11:23:21.304
40.0, -1311.6897716152396, -4469.857152683396, -1667.8648195105577, -10234.103826773624, -553.4962479467688, 338.338355819983, -5295.843517284813, -1461.513514699163, -2063.1330684582076, -6379.83606813384, -4410.334457198913, -3040.3960395331433, -3933.3035270337496, -2764.9778443548494, -9912.171651383836, -14375.993833064298, 0.0115, -0.10675000000000001, 0.993, 192.0, 0.0, 0.0, 0.0, 0.0, 0.0, 0.0, 0.0, 0.0, 0.0, 1.645921401312666E9, 0.0, 2022-02-27 11:23:21.312
42.0, -1764.2231898573864, -4832.491854726298, -2043.128257170708, -10650.449770742629, -983.6108665002427, -22.195282244119912, -5621.441378765271, -1896.7019792439914, -4605.331075827012, -7339.150588411163, -4461.095268856915, -3246.993213533546, -3874.496087371837, -2888.6500464260635, -10361.754639357881, -15567.341812532166, 0.0115, -0.10675000000000001, 0.993, 192.0, 0.0, 0.0, 0.0, 0.0, 0.0, 0.0, 0.0, 0.0, 0.0, 1.645921401320675E9, 0.0, 2022-02-27 11:23:21.320
44.0, -1714.62466891106, -4786.871944293016, -1928.553215092804, -10529.616240217238, -904.955077762017, 83.68493124066964, -5399.01916969051, -1594.7522633972483, -1949.5638548807926, -6677.337786833977, -4651.040393238115, -3134.1616075231564, -4178.010425330452, -2985.410748173088, -9989.978073832759, -14552.12557937212, 0.0115, -0.10675000000000001, 0.993, 192.0, 0.0, 0.0, 0.0, 0.0, 0.0, 0.0, 0.0, 0.0, 0.0, 1.645921401327889E9, 0.0, 2022-02-27 11:23:21.327
46.0, -1292.6013818504075, -4467.353757304401, -1691.825889566647, -10269.84426615766, -551.7528118792549, 309.70577117273467, -5386.3904340732615, -1599.7814058996923, -3503.6806468582927, -6744.772999855638, -4327.09656084735, -3106.2219269540224, -3781.8034031156785, -2726.935175291917, -10106.631828145008, -14921.845784407353, 0.01075, -0.106375, 0.9915, 192.0, 0.0, 40.0, 126.0, 88.0, 15.0, 120.0, 0.0, 0.0, 0.0, 1.645921401335496E9, 0.0, 2022-02-27 11:23:21.335
48.0, -1977.0788523052756, -4978.6722634640055, -2154.730517236056, -10772.110315812864, -1168.3480344233556, -128.09784747336477, -5615.518166484615, -1873.2549993103744, -3617.3616191579845, -7304.6618467166245, -4710.093702089036, -3279.425594738197, -4162.744183867477, -3083.9595894765366, -10293.648874002562, -15352.876824483494, 0.01075, -0.106375, 0.9915, 192.0, 0.0, 0.0, 0.0, 0.0, 0.0, 0.0, 0.0, 0.0, 0.0, 1.645921401342396E9, 0.0, 2022-02-27 11:23:21.342
50.0, -1323.3797339653652, -4488.409100581301, -1675.1738399474432, -10244.340925734154, -561.1628962949391, 327.83303592598867, -5283.527706089939, -1460.5300379431294, -2020.3965330596607, -6402.880716667261, -4422.762027116064, -3043.212359334512, -3948.2791958188054, -2760.7533646527963, -9905.53318328061, -14368.573053905136, 0.01075, -0.106375, 0.9915, 192.0, 0.0, 0.0, 0.0, 0.0, 0.0, 0.0, 0.0, 0.0, 0.0, 1.645921401357602E9, 0.0, 2022-02-27 11:23:21.357
52.0, -1762.4126985565065, -4836.448113494887, -2047.9785857175095, -10642.269032271986, -984.3484740672677, -19.71423860958083, -5644.910710443343, -1904.525089803349, -4594.982218144205, -7343.442123346583, -4467.532571260044, -3235.817341305893, -3880.7992793082335, -2879.932866088494, -10353.52919739833, -15555.830664137682, 0.01075, -0.106375, 0.9915, 192.0, 0.0, 0.0, 0.0, 0.0, 0.0, 0.0, 0.0, 0.0, 0.0, 1.645921401365006E9, 0.0, 2022-02-27 11:23:21.365
54.0, -1713.7529508773032, -4781.70869132384, -1940.5784536097592, -10531.449083262574, -912.9793540214723, 86.00951266402157, -5419.694533311669, -1612.7230659393151, -1962.4161079425942, -6685.630284026895, -4663.4009079218995, -3124.818578340838, -4192.159079570661, -2959.3486141382, -9999.321103015078, -14555.143064873584, 0.01075, -0.106375, 0.9915, 192.0, 0.0, 0.0, 0.0, 0.0, 0.0, 0.0, 0.0, 0.0, 0.0, 1.64592140137293E9, 0.0, 2022-02-27 11:23:21.372
56.0, -1288.3769021483545, -4468.650158482809, -1691.8705930555575, -10264.144571321556, -547.4165734549252, 316.43364625378206, -5392.78303298748, -1591.734777895782, -3472.254094154131, -6746.2035115007775, -4326.180139324682, -3108.1218252327235, -3791.012321831265, -2710.998381495283, -10107.324732223122, -14905.57371444389, 0.010374999999999999, -0.1051875, 0.98975, 192.0, 0.0, 40.0, 126.0, 96.0, 15.0, 112.0, 0.0, 0.0, 0.0, 1.645921401380098E9, 0.0, 2022-02-27 11:23:21.380
58.0, -1990.1546228116301, -5000.934600941491, -2161.480744061559, -10777.65354843778, -1178.13809849478, -137.21735921113006, -5626.358762545438, -1880.8992959140894, -3645.6812793828585, -7339.150588411163, -4709.445501499832, -3283.2477430400545, -4169.807335115353, -3095.2919239153775, -10301.539039795285, -15358.12948443049, 0.010374999999999999, -0.1051875, 0.98975, 192.0, 0.0, 0.0, 0.0, 0.0, 0.0, 0.0, 0.0, 0.0, 0.0, 1.645921401387818E9, 0.0, 2022-02-27 11:23:21.387
60.0, -1339.2941760175438, -4504.5023565891215, -1682.4828603843284, -10254.466265972409, -574.5739429681233, 320.18873932227365, -5300.224459198053, -1469.8507153809924, -2016.3285155687947, -6400.26556256599, -4430.227509764136, -3043.79350469035, -3956.97402441192, -2772.420975258467, -9908.550668782076, -14360.347611945585, 0.010374999999999999, -0.1051875, 0.98975, 192.0, 0.0, 0.0, 0.0, 0.0, 0.0, 0.0, 0.0, 0.0, 0.0, 1.645921401395656E9, 0.0, 2022-02-27 11:23:21.395
62.0, -1740.1950645679315, -4810.385979459998, -2022.5646522718255, -10623.359456462797, -966.4447267585667, -4.895032035712247, -5636.126474872408, -1910.850633484201, -4600.883078680406, -7295.095300089753, -4459.351832789402, -3245.719164099594, -3870.651587325524, -2868.824049094206, -10353.015107275856, -15548.096960556146, 0.010374999999999999, -0.1051875, 0.98975, 192.0, 0.0, 0.0, 0.0, 0.0, 0.0, 0.0, 0.0, 0.0, 0.0, 1.645921401403576E9, 0.0, 2022-02-27 11:23:21.403
64.0, -1731.9025673750125, -4791.141127483979, -1943.3500699222172, -10533.259574563453, -925.5186826608996, 73.91721891370045, -5420.007457734044, -1610.7561124272481, -2005.77849218589, -6676.957807178236, -4662.819762566061, -3131.7923226108937, -4199.02106511844, -2992.5856581432413, -9999.07523382607, -14583.239207653905, 0.010374999999999999, -0.1051875, 0.98975, 192.0, 0.0, 0.0, 0.0, 0.0, 0.0, 0.0, 0.0, 0.0, 0.0, 1.645921401409824E9, 0.0, 2022-02-27 11:23:21.409
66.0, -1274.8540967528936, -4458.860094411385, -1675.084432969622, -10244.139760034057, -532.8655878145204, 331.0069836386423, -5382.076547393388, -1586.2362487597763, -3417.894651638824, -6747.879892334926, -4322.916784634207, -3091.559182591341, -3791.6381706760135, -2710.3725326505346, -10084.90593253445, -14875.063583262396, 0.010187499999999999, -0.10759375, 0.9918750000000001, 192.0, 0.0, 40.0, 126.0, 72.0, 15.5, 8.0, 0.0, 0.0, 0.0, 1.645921401417377E9, 0.0, 2022-02-27 11:23:21.417
68.0, -1983.650265175136, -4993.916153182525, -2159.983177183053, -10770.61274893436, -1161.0837174753806, -120.05121946945424, -5619.608535719935, -1878.909990657567, -3702.7676347217125, -7336.423675587616, -4700.638914184441, -3271.2448562675545, -4157.268006475926, -3079.824516752305, -10301.89666770657, -15376.010879994737, 0.010187499999999999, -0.10759375, 0.9918750000000001, 192.0, 0.0, 0.0, 0.0, 0.0, 0.0, 0.0, 0.0, 0.0, 0.0, 1.645921401425455E9, 0.0, 2022-02-27 11:23:21.425
70.0, -1333.616832925896, -4499.786138509052, -1683.175764462443, -10252.298146760244, -573.7916319121877, 321.5521957340474, -5287.0145782249665, -1466.0732705680455, -1986.6901024210576, -6391.660140950697, -4425.466588195156, -3026.8732341376826, -3960.3714895691264, -2748.9739953248495, -9898.492383777188, -14348.590594362093, 0.010187499999999999, -0.10759375, 0.9918750000000001, 192.0, 0.0, 0.0, 0.0, 0.0, 0.0, 0.0, 0.0, 0.0, 0.0, 1.645921401433312E9, 0.0, 2022-02-27 11:23:21.433
72.0, -1712.3894944655294, -4792.459880406843, -2015.7697219574122, -10617.10096801531, -954.5088952194328, 2.928078523645225, -5626.9399079012765, -1905.1285869036421, -4587.2708663071235, -7288.8144598978115, -4438.162379045771, -3221.132245198756, -3864.8401337671444, -2863.861961825128, -10342.286269937309, -15538.441006951452, 0.010187499999999999, -0.10759375, 0.9918750000000001, 192.0, 0.0, 0.0, 0.0, 0.0, 0.0, 0.0, 0.0, 0.0, 0.0, 1.645921401440371E9, 0.0, 2022-02-27 11:23:21.440
74.0, -1721.017267825278, -4774.712595309329, -1945.6746513455691, -10542.580252001317, -926.0774762722822, 75.39243404775073, -5416.162957687731, -1613.0806938506, -2009.9135649101217, -6693.27458063061, -4650.4815996267325, -3131.345287721788, -4190.058015591862, -3006.6449054056297, -10005.803108907117, -14599.734795061922, 0.010187499999999999, -0.10759375, 0.9918750000000001, 192.0, 0.0, 0.0, 0.0, 0.0, 0.0, 0.0, 0.0, 0.0, 0.0, 1.645921401448077E9, 0.0, 2022-02-27 11:23:21.448
76.0, -1256.3692040883548, -4452.288681541524, -1676.403185892485, -10247.850149613638, -534.5196169042131, 325.08377135798594, -5374.409899045218, -1585.6103999150278, -3385.5516774119947, -6719.4931768766855, -4318.3123252764135, -3095.0460547263688, -3796.600257945092, -2710.8195675396405, -10084.727118578807, -14864.982946513052, 0.01209375, -0.10579687500000001, 0.9899375, 192.0, 0.0, 56.0, 126.0, 96.0, 15.0, 112.0, 0.0, 0.0, 0.0, 1.645921401455944E9, 0.0, 2022-02-27 11:23:21.455
78.0, -1960.002119541421, -4979.342815797665, -2165.4593545746034, -10777.698251926691, -1181.5355636519866, -143.9899377810881, -5636.059419639042, -1895.2714675988518, -3747.2923096766845, -7329.360524339739, -4684.836230854539, -3267.5344666879737, -4149.891930805675, -3078.818688251816, -10314.883031235104, -15403.86115358605, 0.01209375, -0.10579687500000001, 0.9899375, 192.0, 0.0, 0.0, 0.0, 0.0, 0.0, 0.0, 0.0, 0.0, 0.0, 1.64592140146287E9, 0.0, 2022-02-27 11:23:21.462
80.0, -1320.5634141639966, -4478.775498721064, -1690.082453499133, -10255.092114817156, -583.2240680723272, 310.1528060618408, -5295.128261462243, -1465.9838635902242, -1945.518189134382, -6383.278236779957, -4419.297506725491, -3011.852861863716, -3971.9273414525205, -2771.906885135995, -9908.930648437816, -14351.451617652372, 0.01209375, -0.10579687500000001, 0.9899375, 192.0, 0.0, 0.0, 0.0, 0.0, 0.0, 0.0, 0.0, 0.0, 0.0, 1.645921401477812E9, 0.0, 2022-02-27 11:23:21.477
82.0, -1658.1194589280437, -4742.995469927248, -1993.417977502105, -10589.496563613005, -930.1231420186928, 12.896956550712176, -5628.526881757603, -1886.6883977280138, -4563.622720673409, -7271.20128526703, -4420.929184070728, -3197.104119909301, -3863.2755116552726, -2833.0389062212594, -10342.129807726122, -15523.420634677486, 0.01209375, -0.10579687500000001, 0.9899375, 192.0, 0.0, 0.0, 0.0, 0.0, 0.0, 0.0, 0.0, 0.0, 0.0, 1.645921401486372E9, 0.0, 2022-02-27 11:23:21.486
84.0, -1750.5886257396492, -4818.320848741633, -1973.8154976148007, -10565.893121468202, -966.6011889697539, 50.269073279985584, -5469.516571702549, -1665.1602584314655, -2100.1699090206516, -6751.702040636783, -4663.11033524398, -3127.590194653296, -4208.185280345116, -3002.3533704702104, -10034.100417387535, -14649.489778219437, 0.01209375, -0.10579687500000001, 0.9899375, 192.0, 0.0, 0.0, 0.0, 0.0, 0.0, 0.0, 0.0, 0.0, 0.0, 1.645921401492786E9, 0.0, 2022-02-27 11:23:21.492
86.0, -1257.643253522307, -4451.886350141329, -1675.9785027478342, -10246.240824012855, -530.9880412802746, 343.8368849559885, -5371.079489121376, -1577.3402544665641, -3290.8026326659483, -6675.259074599633, -4310.019828083495, -3076.1588306616345, -3806.524432483248, -2702.571773835632, -10077.105173719547, -14828.88487921773, 0.016, -0.106, 0.988, 192.0, 0.0, 64.0, 126.0, 88.0, 15.0, 112.0, 0.0, 0.0, 0.0, 1.645921401500866E9, 0.0, 2022-02-27 11:23:21.500
88.0, -1983.8514308752337, -5000.174641630011, -2178.959808225609, -10793.210362578675, -1177.6016566278527, -157.53509492100417, -5626.40346603435, -1884.2073540934748, -3802.232897547829, -7360.183579943608, -4692.145251291425, -3292.0096268665347, -4163.750012367966, -3082.7078917870394, -10323.130824939111, -15410.678435644919, 0.016, -0.106, 0.988, 192.0, 0.0, 0.0, 0.0, 0.0, 0.0, 0.0, 0.0, 0.0, 0.0, 1.645921401507717E9, 0.0, 2022-02-27 11:23:21.507
90.0, -1359.7460221941499, -4518.919231762795, -1709.8637473420797, -10272.995862125857, -589.6390187310003, 308.14114906086314, -5290.568505593361, -1460.284168754121, -1952.424878171072, -6378.226742533057, -4439.905815113284, -3043.6370424791626, -3983.1032136801737, -2784.1109376085924, -9904.393244313389, -14347.115379228042, 0.016, -0.106, 0.988, 192.0, 0.0, 0.0, 0.0, 0.0, 0.0, 0.0, 0.0, 0.0, 0.0, 1.645921401515548E9, 0.0, 2022-02-27 11:23:21.515
92.0, -1693.010532022778, -4787.654255348952, -2007.901907909144, -10604.025197508956, -926.3456972057459, 10.19239547162002, -5609.1479193148525, -1882.687435470514, -4584.320436039024, -7284.522924962393, -4436.933033100729, -3232.643393593239, -3867.276473912773, -2868.4664211829213, -10336.56422335675, -15515.93280028496, 0.016, -0.106, 0.988, 192.0, 0.0, 0.0, 0.0, 0.0, 0.0, 0.0, 0.0, 0.0, 0.0, 1.645921401523439E9, 0.0, 2022-02-27 11:23:21.523
94.0, -1748.3534512941185, -4812.8446713500825, -1977.4364802165605, -10564.440258078606, -943.0200985694049, 55.02999484896599, -5432.144454973275, -1633.2866708381978, -2081.059167511364, -6749.064534791057, -4671.536942903632, -3147.684412918617, -4200.652742463678, -3014.132739798157, -10021.538737003653, -14633.530632678347, 0.016, -0.106, 0.988, 192.0, 0.0, 0.0, 0.0, 0.0, 0.0, 0.0, 0.0, 0.0, 0.0, 1.645921401530641E9, 0.0, 2022-02-27 11:23:21.530
96.0, -1247.227340606134, -4439.794056391008, -1682.371101662052, -10240.608184410117, -532.4409046698695, 336.1702366078182, -5365.692718707647, -1565.8514578165364, -3300.324475803909, -6684.535048548585, -4319.452264243635, -3086.5970953222627, -3803.6634091929686, -2716.139282720004, -10075.585255096586, -14828.862527473275, 0.014, -0.10200000000000001, 0.99, 192.0, 0.0, 56.0, 126.0, 104.0, 15.0, 120.0, 0.0, 0.0, 0.0, 1.645921401537132E9, 0.0, 2022-02-27 11:23:21.537
98.0, -1976.0283203158763, -4988.7081967244385, -2184.413633872704, -10790.014063121565, -1193.0690637909252, -143.63230986980318, -5650.699812257268, -1900.6805897570362, -3839.783828232745, -7377.014443518454, -4682.35518722, -3293.3507315338534, -4148.483770904991, -3084.518383087919, -10332.89853726608, -15431.53261322172, 0.014, -0.10200000000000001, 0.99, 192.0, 0.0, 0.0, 0.0, 0.0, 0.0, 0.0, 0.0, 0.0, 0.0, 1.645921401545085E9, 0.0, 2022-02-27 11:23:21.545
100.0, -1357.2649785596107, -4518.494548618144, -1718.1338927905433, -10275.007519126835, -610.8284724746314, 307.13532056037434, -5301.543212120916, -1471.4376892373193, -1927.681497059047, -6392.889486895739, -4440.2857947690245, -3035.7021731975287, -3983.326731124727, -2800.181841871958, -9907.969523426238, -14339.493434368782, 0.014, -0.10200000000000001, 0.99, 192.0, 0.0, 0.0, 0.0, 0.0, 0.0, 0.0, 0.0, 0.0, 0.0, 1.645921401553055E9, 0.0, 2022-02-27 11:23:21.553
102.0, -1659.438211850907, -4750.729173508785, -1999.5647072273146, -10577.851304751792, -915.5498046338327, 18.060209519888108, -5610.556079215537, -1894.42210130955, -4567.266055019624, -7268.787296865857, -4423.007896305072, -3220.8640242652923, -3849.2162643928846, -2861.447973423955, -10338.844101291192, -15511.708320582906, 0.014, -0.10200000000000001, 0.99, 192.0, 0.0, 0.0, 0.0, 0.0, 0.0, 0.0, 0.0, 0.0, 0.0, 1.645921401561265E9, 0.0, 2022-02-27 11:23:21.561
104.0, -1770.9957684273445, -4836.917500128448, -2000.5258322388927, -10583.32748214334, -976.7935844413739, 38.15442778520916, -5452.12691451632, -1645.758944244259, -2151.578921267858, -6775.685462437327, -4675.917884816871, -3152.847665887793, -4212.409760047169, -3019.2289375339674, -10043.979888436781, -14681.922159424086, 0.014, -0.10200000000000001, 0.99, 192.0, 0.0, 0.0, 0.0, 0.0, 0.0, 0.0, 0.0, 0.0, 0.0, 1.645921401567831E9, 0.0, 2022-02-27 11:23:21.567
106.0, -1253.038794164514, -4451.305204785491, -1681.7676045617586, -10234.573213407186, -528.6411081124674, 335.8126086965333, -5364.619834973792, -1557.246036201243, -3233.962146516102, -6679.75177523515, -4322.559156722922, -3087.111185444735, -3807.709074939379, -2725.057628757671, -10064.074106702103, -14799.581742236824, 0.014, -0.108, 0.994, 192.0, 0.0, 56.0, 126.0, 80.0, 15.5, 8.0, 0.0, 0.0, 0.0, 1.645921401575945E9, 0.0, 2022-02-27 11:23:21.575
108.0, -1987.2712477768957, -5004.197955631967, -2190.917991509198, -10789.321159043451, -1190.4092062007435, -151.38836519579473, -5653.538483803092, -1918.0925986877203, -3931.4036287550484, -7391.341911714306, -4679.807088352095, -3296.5023275020517, -4137.509064377435, -3102.8021100523606, -10337.771217557338, -15466.06605840517, 0.014, -0.108, 0.994, 192.0, 0.0, 0.0, 0.0, 0.0, 0.0, 0.0, 0.0, 0.0, 0.0, 1.645921401582956E9, 0.0, 2022-02-27 11:23:21.582
110.0, -1385.5622870400296, -4539.4828366616775, -1733.109561575599, -10287.412737299532, -621.423199346447, 283.9342098157656, -5295.217668440065, -1475.639817194917, -1911.8564619846895, -6411.709655727107, -4460.0670886119715, -3051.571911760797, -4004.6279435906345, -2833.3965341325443, -9905.019093158138, -14345.93073677191, 0.014, -0.108, 0.994, 192.0, 0.0, 0.0, 0.0, 0.0, 0.0, 0.0, 0.0, 0.0, 0.0, 1.645921401589401E9, 0.0, 2022-02-27 11:23:21.589
112.0, -1670.4129183784628, -4768.208237672834, -2007.3207625533062, -10590.390633391218, -914.633383111165, 30.085448036843307, -5610.220803048707, -1874.618455722148, -4562.99687182866, -7255.130381003664, -4418.87282358084, -3230.944661014636, -3848.9927469483314, -2878.7482236323626, -10329.635182575606, -15496.285616908744, 0.014, -0.108, 0.994, 192.0, 0.0, 0.0, 0.0, 0.0, 0.0, 0.0, 0.0, 0.0, 0.0, 1.645921401605471E9, 0.0, 2022-02-27 11:23:21.605
114.0, -1774.6838062624702, -4835.375229761032, -2014.5627277568256, -10591.709386314082, -974.2678373179242, 39.94256734163372, -5444.929652801711, -1657.3147961276527, -2156.742174237034, -6798.73011097075, -4681.170544763869, -3165.7446224385053, -4216.075446137839, -3037.1103330982132, -10041.141216890957, -14682.43624954656, 0.014, -0.108, 0.994, 192.0, 0.0, 0.0, 0.0, 0.0, 0.0, 0.0, 0.0, 0.0, 0.0, 1.645921401612548E9, 0.0, 2022-02-27 11:23:21.612
116.0, -1252.6364627643184, -4446.723097172153, -1688.2272587093425, -10234.729675618371, -518.2922504296602, 351.52588504861416, -5345.330279508863, -1552.149838465433, -3221.3781143877645, -6676.778993222594, -4324.012020112517, -3095.940124504581, -3803.9986853597984, -2714.351143163579, -10060.296661889155, -14797.480678258024, 0.012, -0.11, 0.992, 192.0, 0.0, 48.0, 126.0, 72.0, 15.5, 0.0, 0.0, 0.0, 0.0, 1.645921401620211E9, 0.0, 2022-02-27 11:23:21.620
118.0, -1991.2498582899402, -5015.41853134853, -2205.96071552762, -10797.479545769638, -1192.7561393685507, -154.29409197498467, -5652.30913785805, -1914.069284685765, -3962.2043326144617, -7418.879260883244, -4676.11905051697, -3296.122347846311, -4132.994011997463, -3092.0956244582685, -10342.129807726122, -15478.046593433213, 0.012, -0.11, 0.992, 192.0, 0.0, 0.0, 0.0, 0.0, 0.0, 0.0, 0.0, 0.0, 0.0, 1.645921401628142E9, 0.0, 2022-02-27 11:23:21.628
120.0, -1385.0705486620127, -4540.063982017516, -1744.5536547367162, -10294.65470250305, -630.6097663175782, 291.8914308418549, -5301.453805143095, -1464.4639449672634, -1892.7680722198575, -6413.944830172638, -4450.366431518368, -3056.466943796509, -4001.5881063447127, -2824.0982084391367, -9905.823755958529, -14341.594498347582, 0.012, -0.11, 0.992, 192.0, 0.0, 0.0, 0.0, 0.0, 0.0, 0.0, 0.0, 0.0, 0.0, 1.645921401635172E9, 0.0, 2022-02-27 11:23:21.635
122.0, -1654.8337524931137, -4763.626130059496, -1999.8776316496887, -10575.638482050716, -896.4167113800897, 59.61210246230394, -5592.898201095843, -1856.5805979467152, -4560.605235171943, -7261.210055495508, -4410.155643243271, -3229.8941290252365, -3836.8557497090997, -2842.3595836591226, -10328.361133141654, -15485.40031735901, 0.012, -0.11, 0.992, 192.0, 0.0, 0.0, 0.0, 0.0, 0.0, 0.0, 0.0, 0.0, 0.0, 1.645921401642801E9, 0.0, 2022-02-27 11:23:21.642
124.0, -1811.9888677583776, -4870.7803929782385, -2040.3566408582499, -10607.534421388438, -1003.4368638321, 22.888186322234432, -5462.967510577144, -1673.6986248133928, -2242.304652011949, -6849.110942973011, -4701.756501407207, -3195.6065530307956, -4218.914117683664, -3050.5437315158524, -10057.301528132144, -14711.784090016377, 0.012, -0.11, 0.992, 192.0, 0.0, 0.0, 0.0, 0.0, 0.0, 0.0, 0.0, 0.0, 0.0, 1.645921401650744E9, 0.0, 2022-02-27 11:23:21.650
126.0, -1262.1806576467345, -4460.380013034345, -1688.9648662763675, -10230.259326727311, -520.9074045309311, 350.3635943369382, -5354.427439502173, -1552.015727998701, -3172.405442286187, -6662.317414560011, -4329.957584137629, -3102.8244617968157, -3817.5661942441698, -2746.78352436823, -10054.84283624206, -14764.645965653179, 0.014, -0.108, 0.986, 192.0, 0.0, 56.0, 126.0, 80.0, 15.0, 104.0, 0.0, 0.0, 0.0, 1.645921401657653E9, 0.0, 2022-02-27 11:23:21.657
128.0, -1999.8552799052336, -5023.934545986002, -2210.2969539519495, -10801.27934232704, -1187.61523814383, -150.9189785622333, -5664.200265908274, -1925.6698400580694, -4063.345976274726, -7434.704295957601, -4665.5690271340645, -3312.461473043141, -4114.464415844013, -3094.978999493003, -10348.634165362617, -15506.589771102641, 0.014, -0.108, 0.986, 192.0, 0.0, 0.0, 0.0, 0.0, 0.0, 0.0, 0.0, 0.0, 0.0, 1.645921401664595E9, 0.0, 2022-02-27 11:23:21.664
130.0, -1401.2979151365657, -4555.240816502669, -1757.6070734986156, -10302.075481662212, -644.3337374131366, 282.72721561517903, -5319.1787384961535, -1481.3842155199309, -1860.1345253151092, -6407.663989980697, -4472.919341673773, -3059.104449642235, -4013.7921588173103, -2834.89410101105, -9905.466128047245, -14340.387504146995, 0.014, -0.108, 0.986, 192.0, 0.0, 0.0, 0.0, 0.0, 0.0, 0.0, 0.0, 0.0, 0.0, 1.645921401672389E9, 0.0, 2022-02-27 11:23:21.672
132.0, -1643.9037494544684, -4747.89050196296, -1997.8659746487112, -10569.178827903132, -893.0639497117937, 65.93764614315583, -5606.689227424768, -1867.9576358744666, -4507.0281037125715, -7230.118778958175, -4397.504555881566, -3219.277050408966, -3827.4456652934155, -2843.6336330930753, -10320.783891771305, -15462.735648481328, 0.014, -0.108, 0.986, 192.0, 0.0, 0.0, 0.0, 0.0, 0.0, 0.0, 0.0, 0.0, 0.0, 1.645921401680282E9, 0.0, 2022-02-27 11:23:21.680
134.0, -1800.3883123860733, -4853.77071544775, -2030.320707597817, -10604.963970776078, -1001.8275382313178, 11.354686183295987, -5464.12980128882, -1677.85604928208, -2216.8013115884437, -6839.834969024059, -4682.422242453366, -3187.492869793519, -4220.344629328803, -3048.9344059150703, -10059.916682233415, -14715.047444706852, 0.014, -0.108, 0.986, 192.0, 0.0, 0.0, 0.0, 0.0, 0.0, 0.0, 0.0, 0.0, 0.0, 1.645921401688506E9, 0.0, 2022-02-27 11:23:21.688
136.0, -1254.7822302320278, -4457.027251366049, -1680.9629417613676, -10226.772454592283, -517.2864219291713, 345.11093438994106, -5353.511017979506, -1551.568693109595, -3139.213101770056, -6639.451579982231, -4322.089770089361, -3079.6680545411177, -3815.9568686433877, -2736.8817015745285, -10051.51242631822, -14762.321384229826, 0.018000000000000002, -0.112, 0.988, 192.0, 0.0, 72.0, 126.0, 64.0, 15.0, 112.0, 0.0, 0.0, 0.0, 1.64592140169505E9, 0.0, 2022-02-27 11:23:21.695
138.0, -2005.353809041239, -5023.3981041190755, -2210.118139996307, -10812.634028510336, -1186.4752991766095, -152.5283041630154, -5677.656016070368, -1942.5677588662816, -4055.321700015271, -7430.166891833173, -4668.228884724246, -3323.3691243373305, -4124.701514804544, -3068.916865458115, -10361.084087024223, -15511.037768249247, 0.018000000000000002, -0.112, 0.988, 192.0, 0.0, 0.0, 0.0, 0.0, 0.0, 0.0, 0.0, 0.0, 0.0, 1.645921401702993E9, 0.0, 2022-02-27 11:23:21.702
140.0, -1423.9849357587022, -4587.203811073758, -1762.0550706452216, -10311.239696888888, -641.517417611768, 277.29574171253944, -5297.899877774701, -1461.446459465797, -1859.6651386815477, -6426.551214045431, -4463.598664235909, -3081.4114906086315, -4016.3402576852154, -2833.0389062212594, -9897.687720976797, -14331.558565087149, 0.018000000000000002, -0.112, 0.988, 192.0, 0.0, 0.0, 0.0, 0.0, 0.0, 0.0, 0.0, 0.0, 0.0, 1.645921401710913E9, 0.0, 2022-02-27 11:23:21.710
142.0, -1637.667612751438, -4766.330691138589, -1983.158526797119, -10551.073914894332, -881.1951734060257, 60.28265479596315, -5600.900125610844, -1841.202597761464, -4526.071789988493, -7236.489026127938, -4397.191631459193, -3217.555966085907, -3825.881043181544, -2853.6919180979635, -10316.80528125826, -15457.862968190071, 0.018000000000000002, -0.112, 0.988, 192.0, 0.0, 0.0, 0.0, 0.0, 0.0, 0.0, 0.0, 0.0, 0.0, 1.645921401724644E9, 0.0, 2022-02-27 11:23:21.724
144.0, -1818.2250044614084, -4879.542276804719, -2034.8357599777892, -10609.255505711497, -1017.853739005773, 4.1797762131424205, -5493.56704873646, -1711.7636456207808, -2264.92461740072, -6853.871864541992, -4685.015044810181, -3171.6007794857956, -4224.636164264222, -3061.1384583876684, -10069.729098049296, -14746.295183455371, 0.018000000000000002, -0.112, 0.988, 192.0, 0.0, 0.0, 0.0, 0.0, 0.0, 0.0, 0.0, 0.0, 0.0, 1.645921401732673E9, 0.0, 2022-02-27 11:23:21.732
146.0, -1276.9328089872372, -4473.03110039605, -1680.471203383351, -10213.987256763847, -518.716933574311, 348.1284198914075, -5352.661651690203, -1536.0118789687012, -3078.4163568516205, -6630.533233944564, -4324.012020112517, -3075.2871126278774, -3811.665333707969, -2717.1451112204923, -10042.03528666917, -14735.543994372369, 0.014, -0.10400000000000001, 0.986, 192.0, 0.0, 56.0, 126.0, 96.0, 15.0, 104.0, 0.0, 0.0, 0.0, 1.645921401740495E9, 0.0, 2022-02-27 11:23:21.740
148.0, -2063.1777719471183, -5081.132660047133, -2211.995686530553, -10796.786641691524, -1203.4402732181875, -161.84898160087843, -5682.595751594991, -1934.2529099289072, -4136.6373463436785, -7449.456447298104, -4673.101565015503, -3317.200042867666, -4110.19523265305, -3070.9732259480033, -10366.515560926862, -15533.814195849205, 0.014, -0.10400000000000001, 0.986, 192.0, 0.0, 0.0, 0.0, 0.0, 0.0, 0.0, 0.0, 0.0, 0.0, 1.645921401747868E9, 0.0, 2022-02-27 11:23:21.747
150.0, -1537.1965214248326, -4692.659341413897, -1774.236771373364, -10316.984095213902, -667.1548685020052, 261.9624450161988, -5325.347819965818, -1478.411433507375, -1853.7419264008913, -6452.5909963358645, -4513.063074715505, -3077.365824862221, -4043.0282405648522, -2835.1846736889693, -9905.779052469617, -14337.660591323447, 0.014, -0.10400000000000001, 0.986, 192.0, 0.0, 0.0, 0.0, 0.0, 0.0, 0.0, 0.0, 0.0, 0.0, 1.64592140175528E9, 0.0, 2022-02-27 11:23:21.755
152.0, -1768.5370765372606, -4899.032997969746, -1986.131308809675, -10551.118618383243, -865.5042487984001, 63.36719553079552, -5584.96333181421, -1839.816789605235, -4530.296269690546, -7256.918520560089, -4426.517120184555, -3247.0602687669125, -3829.1891013609293, -2831.2954701537456, -10306.031740430803, -15439.914517392459, 0.014, -0.10400000000000001, 0.986, 192.0, 0.0, 0.0, 0.0, 0.0, 0.0, 0.0, 0.0, 0.0, 0.0, 1.645921401763242E9, 0.0, 2022-02-27 11:23:21.763
154.0, -2028.8007889748562, -5080.618569924662, -2075.1806587196184, -10629.729703632558, -1028.560224599865, 2.6822093346368474, -5471.058842069965, -1678.4148428934627, -2360.567731924979, -6917.551984495161, -4751.265615375712, -3249.9883472905576, -4242.472856339557, -3052.913016428115, -10075.56290335213, -14756.129951015706, 0.014, -0.10400000000000001, 0.986, 192.0, 0.0, 0.0, 0.0, 0.0, 0.0, 0.0, 0.0, 0.0, 0.0, 1.645921401770184E9, 0.0, 2022-02-27 11:23:21.770
156.0, -1460.217113520755, -4666.776021334651, -1694.1951744789094, -10225.096073758135, -508.65864856942284, 351.3023676040611, -5335.182587526154, -1527.1605881643998, -3126.494959174986, -6687.9772171947025, -4381.321892895924, -3139.9507093370808, -3834.5758717746585, -2711.8253960401294, -10041.923527946894, -14715.963866229518, 0.01, -0.106, 0.992, 192.0, 0.0, 40.0, 126.0, 88.0, 15.5, 0.0, 0.0, 0.0, 0.0, 1.645921401777081E9, 0.0, 2022-02-27 11:23:21.777
158.0, -2221.472826179603, -5251.318842329842, -2235.1073902973403, -10813.371636077361, -1190.9679998121262, -156.68572863170252, -5678.50538235967, -1925.2675086578738, -4211.850966435786, -7486.046252971441, -4714.139367835447, -3365.0104242575676, -4113.816215254809, -3055.304653084833, -10370.985909817924, -15537.1669575175, 0.01, -0.106, 0.992, 192.0, 0.0, 0.0, 0.0, 0.0, 0.0, 0.0, 0.0, 0.0, 0.0, 1.645921401784968E9, 0.0, 2022-02-27 11:23:21.784
160.0, -1657.404203105474, -4822.970011588337, -1792.431091359984, -10327.824691274725, -669.8817813255527, 263.16943921678535, -5309.031046513444, -1476.1092038284785, -1892.3880925641172, -6488.085566530892, -4549.161142010826, -3112.368656679232, -4034.3110602272823, -2837.732772556874, -9902.158069867859, -14325.992980717778, 0.01, -0.106, 0.992, 192.0, 0.0, 0.0, 0.0, 0.0, 0.0, 0.0, 0.0, 0.0, 0.0, 1.645921401792785E9, 0.0, 2022-02-27 11:23:21.792
162.0, -1805.1492339550537, -4927.754989594816, -1982.063291318809, -10535.271231564431, -848.7851439458304, 95.15137614624217, -5584.2033725027295, -1816.9956585163663, -4573.5915987004755, -7282.265398772407, -4463.285739813536, -3253.005832792024, -3826.3727815595607, -2815.9845252018604, -10306.724644508917, -15440.04862785919, 0.01, -0.106, 0.992, 192.0, 0.0, 0.0, 0.0, 0.0, 0.0, 0.0, 0.0, 0.0, 0.0, 1.645921401799883E9, 0.0, 2022-02-27 11:23:21.799
164.0, -2045.2516728939622, -5094.923686376058, -2091.4080251941714, -10657.669384201692, -1044.5417218854097, -15.333296696340645, -5486.839173655412, -1676.403185892485, -2452.9027882698524, -6957.740421025804, -4773.550304597653, -3257.654995638728, -4235.119132413761, -3045.9392721580593, -10091.253827959756, -14795.916056146152, 0.01, -0.106, 0.993, 192.0, 0.0, 40.0, 126.0, 88.0, 15.5, 8.0, 0.0, 0.0, 0.0, 1.645921401807531E9, 0.0, 2022-02-27 11:23:21.807
166.0, -1412.160862941845, -4639.752762288184, -1689.5460116322056, -10221.251573711823, -503.98713397826367, 360.06425143054145, -5321.436264686139, -1497.0527883831012, -3036.328022042277, -6652.661460955318, -4388.921486010729, -3124.1256742627234, -3825.635173992536, -2715.938117019906, -10017.180146834868, -14674.657842476112, 0.01, -0.106, 0.993, 192.0, 0.0, 0.0, 0.0, 0.0, 0.0, 0.0, 0.0, 0.0, 0.0, 1.64592140181554E9, 0.0, 2022-02-27 11:23:21.815
168.0, -2149.768429966978, -5192.824327090303, -2227.999535560553, -10806.643760996314, -1199.1934417716793, -157.44568794318295, -5682.662806828357, -1944.199436211519, -4231.095818411805, -7479.921874990688, -4690.915905346383, -3325.738409249593, -4096.00187492393, -3054.0529553953356, -10367.0967062827, -15542.55372793123, 0.01, -0.106, 0.993, 192.0, 0.0, 0.0, 0.0, 0.0, 0.0, 0.0, 0.0, 0.0, 0.0, 1.645921401823508E9, 0.0, 2022-02-27 11:23:21.823
170.0, -1562.923379292891, -4728.444484286843, -1781.5457918102495, -10317.65464754756, -663.6679963669773, 263.3035496835172, -5301.632619098737, -1461.513514699163, -1844.4212489630281, -6450.691098057163, -4519.075693973982, -3077.7458045179615, -4027.896109568609, -2826.0651619512037, -9895.139622108893, -14318.59455330307, 0.01, -0.106, 0.993, 192.0, 0.0, 0.0, 0.0, 0.0, 0.0, 0.0, 0.0, 0.0, 0.0, 1.645921401830118E9, 0.0, 2022-02-27 11:23:21.830
172.0, -1700.7665873487697, -4846.640508966507, -1960.2032852415189, -10516.451062733062, -840.1350188416266, 93.72086450110251, -5570.278235707073, -1809.8878037795787, -4512.3701706373895, -7223.994400977422, -4413.150777000282, -3216.7960067744266, -3810.078359851642, -2793.5657255131873, -10293.157135624544, -15410.790194367195, 0.01, -0.106, 0.993, 192.0, 0.0, 0.0, 0.0, 0.0, 0.0, 0.0, 0.0, 0.0, 0.0, 1.645921401837204E9, 0.0, 2022-02-27 11:23:21.837
174.0, -1926.1392266916307, -4992.105661881646, -2061.8813707687104, -10627.650991398215, -1029.856625778273, -0.1788139556424565, -5475.752708405579, -1682.4828603843284, -2394.2294590746715, -6932.035914902201, -4735.5970425125415, -3201.2168408890775, -4223.675039252644, -3043.9276151570816, -10089.018653514226, -14785.54484671889, 0.01, -0.109, 0.9904999999999999, 192.0, 0.0, 40.0, 126.0, 64.0, 15.0, 112.0, 0.0, 0.0, 0.0, 1.645921401853151E9, 0.0, 2022-02-27 11:23:21.853
176.0, -1299.4633673981866, -4503.2730106440795, -1667.1942671768984, -10192.998968720314, -487.55860180361293, 381.5666295965469, -5317.547061150916, -1485.9439713888135, -2983.7120155944845, -6598.63729460684, -4346.833151201386, -3093.8390605257823, -3803.819871404156, -2683.930418959906, -10017.493071257242, -14665.38186852716, 0.01, -0.109, 0.9904999999999999, 192.0, 0.0, 0.0, 0.0, 0.0, 0.0, 0.0, 0.0, 0.0, 0.0, 1.645921401859703E9, 0.0, 2022-02-27 11:23:21.859
178.0, -2061.054356223864, -5102.612686468683, -2218.902375567243, -10784.537885730015, -1191.683255634696, -153.06474602994277, -5674.280902657617, -1931.9506802500107, -4246.831446508342, -7448.920005431177, -4667.044242268114, -3293.529545489496, -4075.728842702966, -3022.4475887355316, -10369.845970850703, -15551.807350135727, 0.01, -0.109, 0.9904999999999999, 192.0, 0.0, 0.0, 0.0, 0.0, 0.0, 0.0, 0.0, 0.0, 0.0, 1.645921401867735E9, 0.0, 2022-02-27 11:23:21.867
180.0, -1505.6135065094838, -4667.848905068506, -1783.982131955878, -10312.46904283393, -678.062519796195, 266.99158751864286, -5295.485889373528, -1442.7156976122496, -1811.4077224025398, -6423.958411688615, -4511.230231670169, -3052.823609450294, -4026.286783967827, -2824.5899468171533, -9895.67606397582, -14310.436166576883, 0.01, -0.109, 0.9904999999999999, 192.0, 0.0, 0.0, 0.0, 0.0, 0.0, 0.0, 0.0, 0.0, 0.0, 1.645921401875852E9, 0.0, 2022-02-27 11:23:21.875
182.0, -1629.8445021920804, -4768.1188306950135, -1947.0157560128876, -10500.044882302867, -831.9542803709842, 102.5498035609488, -5560.9575582692105, -1801.9082310090341, -4484.050510412516, -7208.5716973032595, -4400.387930916301, -3200.725102511061, -3797.2261067898403, -2794.057463891204, -10287.74801346636, -15398.206162238857, 0.01, -0.109, 0.9904999999999999, 192.0, 0.0, 0.0, 0.0, 0.0, 0.0, 0.0, 0.0, 0.0, 0.0, 1.645921401882374E9, 0.0, 2022-02-27 11:23:21.882
184.0, -1891.359912319173, -4965.9317691244805, -2064.3400626587945, -10633.976535079068, -1048.8109050763733, -27.55970091339361, -5491.130708590831, -1682.8628400400687, -2422.817340233009, -6943.2564906187645, -4721.6272022279745, -3195.137166397234, -4228.391257332713, -3041.9383099005595, -10090.985607026292, -14806.17550685114, 0.01, -0.1085, 0.98825, 192.0, 0.0, 40.0, 126.0, 80.0, 15.0, 104.0, 0.0, 0.0, 0.0, 1.645921401890327E9, 0.0, 2022-02-27 11:23:21.890
186.0, -1248.3449278288995, -4476.942655675728, -1656.3313193716192, -10195.077680954657, -490.5984390495347, 365.2275043997174, -5313.233174471042, -1494.9293726598469, -2928.3914480675994, -6588.310788668488, -4325.375476524291, -3058.076269397291, -3814.1016738535973, -2675.682625255898, -10006.205440307313, -14653.803664899311, 0.01, -0.1085, 0.98825, 192.0, 0.0, 0.0, 0.0, 0.0, 0.0, 0.0, 0.0, 0.0, 0.0, 1.645921401898372E9, 0.0, 2022-02-27 11:23:21.898
188.0, -1988.7464629109459, -5036.205653691966, -2205.2678114495056, -10791.869257911356, -1185.9612090541375, -149.6896326171914, -5678.304216659572, -1933.2023779395079, -4265.3610426617915, -7447.981232164054, -4623.905375469372, -3278.5985801933507, -4058.674461683567, -3031.053010350825, -10365.66619463756, -15570.649870711552, 0.01, -0.1085, 0.98825, 192.0, 0.0, 0.0, 0.0, 0.0, 0.0, 0.0, 0.0, 0.0, 0.0, 1.645921401905508E9, 0.0, 2022-02-27 11:23:21.905
190.0, -1449.9129593268585, -4608.370913072934, -1787.0219692017997, -10320.113339437645, -681.7952611202313, 248.95372974321006, -5303.532517377439, -1470.476564225741, -1767.5088962923166, -6410.636771993252, -4487.5373825475435, -3032.349411529233, -4029.2148624914726, -2823.6511735500308, -9888.925837150317, -14320.807376004146, 0.01, -0.1085, 0.98825, 192.0, 0.0, 0.0, 0.0, 0.0, 0.0, 0.0, 0.0, 0.0, 0.0, 1.645921401912208E9, 0.0, 2022-02-27 11:23:21.912
192.0, -1534.2013876678216, -4680.3658819634775, -1920.774808022357, -10471.92638777809, -790.7600153398532, 117.7266380461023, -5540.818636514979, -1794.9568384834336, -4413.597811889388, -7144.019859316333, -4360.646529274765, -3164.0235381154466, -3775.880190835022, -2774.5667427261765, -10264.1222195771, -15382.917569031426, 0.01, -0.1085, 0.98825, 192.0, 0.0, 0.0, 0.0, 0.0, 0.0, 0.0, 0.0, 0.0, 0.0, 1.645921401920026E9, 0.0, 2022-02-27 11:23:21.920
194.0, -1850.009185076855, -4907.571364351674, -2077.5275918874254, -10635.384694979752, -1049.3026434543901, -8.001924514999928, -5500.071406372954, -1699.6713518704596, -2491.548954433078, -6946.899824964979, -4705.98098110926, -3167.7115759505723, -4203.781986687421, -3046.1627896026125, -10097.534668151697, -14856.17635919766, 0.011, -0.10825, 0.987125, 192.0, 0.0, 48.0, 126.0, 80.0, 15.0, 104.0, 0.0, 0.0, 0.0, 1.645921401928093E9, 0.0, 2022-02-27 11:23:21.928
196.0, -1208.134139553802, -4422.270288738047, -1651.2574733802646, -10175.944587700915, -485.30107561362695, 385.142908709396, -5314.171947738165, -1485.9886748777242, -2839.4985603688433, -6537.929956666227, -4314.870156630296, -3035.5233592418863, -3804.3786650155384, -2674.833258966596, -9992.772041889673, -14623.964086051476, 0.011, -0.10825, 0.987125, 192.0, 0.0, 0.0, 0.0, 0.0, 0.0, 0.0, 0.0, 0.0, 0.0, 1.645921401935209E9, 0.0, 2022-02-27 11:23:21.935
198.0, -1960.1362300081528, -4996.263086350333, -2194.2707531774945, -10773.764344902558, -1186.0953195208692, -151.99186229608802, -5679.511210860159, -1938.164465208586, -4271.217199709082, -7444.04732513992, -4616.350485843478, -3270.2166760226105, -4053.1759325475614, -3008.88007985116, -10370.605930162184, -15560.41277175102, 0.011, -0.10825, 0.987125, 192.0, 0.0, 0.0, 0.0, 0.0, 0.0, 0.0, 0.0, 0.0, 0.0, 1.645921401942628E9, 0.0, 2022-02-27 11:23:21.942
200.0, -1440.122895255434, -4590.042482619582, -1776.4495940744393, -10316.42530160252, -692.1217670585831, 258.9449595147323, -5309.746302336014, -1468.8672386249589, -1749.7839629392581, -6404.512394012499, -4482.865867956384, -3024.861577136705, -4026.0409147788187, -2815.22456589038, -9890.289293562091, -14312.179602644397, 0.011, -0.10825, 0.987125, 192.0, 0.0, 0.0, 0.0, 0.0, 0.0, 0.0, 0.0, 0.0, 0.0, 1.645921401950782E9, 0.0, 2022-02-27 11:23:21.950
202.0, -1514.9788874362573, -4657.991785763716, -1905.32975260374, -10463.142152207154, -790.6929601064874, 144.19110348118585, -5551.323956408973, -1789.1677366695092, -4382.104203951861, -7129.692391120481, -4349.604767513843, -3157.1615525676675, -3771.1192692660416, -2765.1790100549474, -10264.859827144126, -15361.728115287795, 0.011, -0.10825, 0.987125, 192.0, 0.0, 0.0, 0.0, 0.0, 0.0, 0.0, 0.0, 0.0, 0.0, 1.6459214019588E9, 0.0, 2022-02-27 11:23:21.958
204.0, -1826.6739638655145, -4886.426614096954, -2061.188466690596, -10631.093160044333, -1045.9051782971833, -21.345915954818246, -5497.478604016138, -1717.53039569025, -2471.6335501234, -6954.857045991069, -4692.949914091815, -3170.9302271521365, -4206.6653617221555, -3036.3950772756434, -10104.597819399574, -14854.611737085788, 0.0115, -0.107125, 0.9895625, 192.0, 0.0, 48.0, 126.0, 88.0, 15.5, 0.0, 0.0, 0.0, 0.0, 1.645921401972269E9, 0.0, 2022-02-27 11:23:21.972
206.0, -1179.7697758400175, -4404.2994861959805, -1631.5879382595942, -10170.602520776096, -478.8861249549538, 390.12734772292947, -5299.196278953109, -1481.6524364533946, -2806.8873652085504, -6525.591793726897, -4293.144261019738, -3020.212414290001, -3794.7674148997567, -2678.9236282019174, -9987.742899387229, -14621.639504628123, 0.0115, -0.107125, 0.9895625, 192.0, 0.0, 0.0, 0.0, 0.0, 0.0, 0.0, 0.0, 0.0, 0.0, 1.645921401980503E9, 0.0, 2022-02-27 11:23:21.980
208.0, -1919.52311033286, -4964.478905734886, -2174.1765349121733, -10769.27164426704, -1161.687214575674, -146.60509188235903, -5681.4111091388595, -1933.7835232953457, -4306.063569314905, -7439.755790204501, -4580.990026115182, -3264.9193125867027, -4022.3975804326037, -3008.9024315956153, -10360.324127712742, -15584.329138318199, 0.0115, -0.107125, 0.9895625, 192.0, 0.0, 0.0, 0.0, 0.0, 0.0, 0.0, 0.0, 0.0, 0.0, 1.645921401987458E9, 0.0, 2022-02-27 11:23:21.987
210.0, -1429.192892216789, -4574.262151034135, -1775.6449312740483, -10329.434016875508, -688.8360606236531, 242.0470407065202, -5317.882337317746, -1476.6232939509505, -1732.2601952862974, -6398.343312542834, -4477.2108766091915, -3024.4592457365093, -4021.7493798433998, -2837.062220223215, -9885.058985359548, -14324.294248139173, 0.0115, -0.107125, 0.9895625, 192.0, 0.0, 0.0, 0.0, 0.0, 0.0, 0.0, 0.0, 0.0, 0.0, 1.645921401994932E9, 0.0, 2022-02-27 11:23:21.994
212.0, -1490.928410402347, -4638.7469337876955, -1889.839993696212, -10452.167445679599, -776.7678233108311, 133.39521090927255, -5547.4571046182045, -1781.9704749549003, -4338.473598775101, -7097.59528608266, -4335.724334207098, -3148.7796483969273, -3764.9278360519215, -2764.7543269102966, -10252.655774671528, -15339.689295254862, 0.0115, -0.107125, 0.9895625, 192.0, 0.0, 0.0, 0.0, 0.0, 0.0, 0.0, 0.0, 0.0, 0.0, 1.645921402002934E9, 0.0, 2022-02-27 11:23:22.002
214.0, -1839.682679138503, -4894.048558956213, -2059.5344376009034, -10643.833654383858, -1064.5688849173648, -25.50334042350536, -5511.381389067339, -1712.7918258657248, -2536.140684621416, -6970.5479705986945, -4702.382350251955, -3171.1984480856, -4211.582745502323, -3054.6564524956293, -10113.158537525956, -14876.51644665199, 0.01175, -0.1065625, 0.99078125, 192.0, 0.0, 48.0, 126.0, 88.0, 15.5, 0.0, 0.0, 0.0, 0.0, 1.645921402011074E9, 0.0, 2022-02-27 11:23:22.011
216.0, -1178.361615939333, -4386.999235987572, -1620.0320863762006, -10174.268206866767, -485.4128343359035, 389.74736806718926, -5306.371188923263, -1485.0051981216907, -2762.2732832757574, -6524.161282081757, -4299.067473300394, -3016.8373008772496, -3804.13279582653, -2686.478517827811, -9985.731242386251, -14601.36647240716, 0.01175, -0.1065625, 0.99078125, 192.0, 0.0, 0.0, 0.0, 0.0, 0.0, 0.0, 0.0, 0.0, 0.0, 1.645921402017555E9, 0.0, 2022-02-27 11:23:22.017
218.0, -1946.9039972906112, -4982.405004788042, -2173.058947689408, -10771.640929179302, -1169.2868076904783, -146.60509188235903, -5681.299350416583, -1941.9866135104435, -4338.540654008467, -7430.010429621987, -4587.784956429596, -3256.403297949231, -4020.676496109545, -3023.4757689804756, -10372.282310996332, -15590.744088976871, 0.01175, -0.1065625, 0.99078125, 192.0, 0.0, 0.0, 0.0, 0.0, 0.0, 0.0, 0.0, 0.0, 0.0, 1.645921402024598E9, 0.0, 2022-02-27 11:23:22.024
220.0, -1458.2948634975987, -4600.704264724764, -1777.9248092084897, -10337.234775690411, -703.0070666083177, 238.67192729376882, -5323.962011809589, -1503.6912564863273, -1737.624613955571, -6421.969106432093, -4494.9358099622505, -3035.501007497431, -4034.8475020942096, -2843.3207086707007, -9894.692587219786, -14325.233021406297, 0.01175, -0.1065625, 0.99078125, 192.0, 0.0, 0.0, 0.0, 0.0, 0.0, 0.0, 0.0, 0.0, 0.0, 1.64592140203252E9, 0.0, 2022-02-27 11:23:22.032
222.0, -1474.1646020608666, -4624.195948147291, -1870.4163277645503, -10437.415294339096, -759.6463870580658, 147.76738259403498, -5539.14225568083, -1776.6507597745372, -4315.697171175143, -7096.097719204155, -4336.931328407684, -3148.265558274455, -3765.2407604742957, -2775.6172747155756, -10251.739353148861, -15332.313219584612, 0.01175, -0.1065625, 0.99078125, 192.0, 0.0, 0.0, 0.0, 0.0, 0.0, 0.0, 0.0, 0.0, 0.0, 1.645921402040648E9, 0.0, 2022-02-27 11:23:22.040
224.0, -1836.2181587479306, -4882.470355328364, -2067.4693068825372, -10647.409933496707, -1067.787536118929, -40.00962257499964, -5520.858528716389, -1737.5352069777498, -2567.5672373255775, -6971.28557816572, -4686.512611688687, -3163.8223724153486, -4201.5915157308, -3071.174391648101, -10124.692037664896, -14904.500830710034, 0.010875, -0.10628125, 0.992390625, 192.0, 0.0, 40.0, 126.0, 88.0, 15.5, 8.0, 0.0, 0.0, 0.0, 1.645921402047336E9, 0.0, 2022-02-27 11:23:22.047
226.0, -1179.009816528537, -4380.137250439793, -1631.6773452374155, -10165.238102106823, -477.6120755210013, 387.3780831549267, -5295.910572518179, -1475.9080381283807, -2694.3686836205347, -6491.840659599383, -4303.716636147098, -3001.7722251143728, -3811.8217959191556, -2699.509584845255, -9971.649643379407, -14568.241187124395, 0.010875, -0.10628125, 0.992390625, 192.0, 0.0, 0.0, 0.0, 0.0, 0.0, 0.0, 0.0, 0.0, 0.0, 1.64592140205517E9, 0.0, 2022-02-27 11:23:22.055
228.0, -1919.2325376549409, -4944.876425847581, -2177.6187035582907, -10762.65552790827, -1154.2887871609673, -130.91416727473347, -5673.520943346137, -1942.09837223272, -4367.396756100268, -7421.6508771957015, -4583.493421494177, -3245.652108866228, -4020.162405987073, -3009.908260096104, -10366.515560926862, -15585.536132518786, 0.010875, -0.10628125, 0.992390625, 192.0, 0.0, 0.0, 0.0, 0.0, 0.0, 0.0, 0.0, 0.0, 0.0, 1.645921402063326E9, 0.0, 2022-02-27 11:23:22.063
230.0, -1450.449401193786, -4584.789822672585, -1787.2231349018973, -10338.218252446444, -705.6892759429546, 230.4017818453052, -5319.849290829813, -1492.2024598362996, -1728.013363839789, -6407.373417302778, -4502.825975754974, -3017.9325363555595, -4051.320737757771, -2841.4878656253654, -9884.947226637272, -14315.64412303497, 0.010875, -0.10628125, 0.992390625, 192.0, 0.0, 0.0, 0.0, 0.0, 0.0, 0.0, 0.0, 0.0, 0.0, 1.645921402070393E9, 0.0, 2022-02-27 11:23:22.070
232.0, -1460.8429623655036, -4610.091997395993, -1863.263769538852, -10434.911898960103, -744.1119246616274, 138.35729817835073, -5530.916813721277, -1774.527344051283, -4276.827487567364, -7056.937462918457, -4333.5115115060225, -3136.3744302242317, -3764.6149116295474, -2763.9496641099054, -10234.483806429364, -15302.518344225688, 0.010875, -0.10628125, 0.992390625, 192.0, 0.0, 0.0, 0.0, 0.0, 0.0, 0.0, 0.0, 0.0, 0.0, 1.645921402077805E9, 0.0, 2022-02-27 11:23:22.077
234.0, -1849.9644815879444, -4890.4499280989085, -2070.8444202952887, -10660.150427836232, -1061.819620349362, -59.902675140222925, -5524.613621784881, -1730.7626284077917, -2597.4068161734126, -6989.234028963331, -4700.571858951075, -3185.2800470924435, -4213.1250158697385, -3081.0538626973466, -10121.898069607982, -14918.783595416975, 0.01, -0.1, 0.99, 192.0, 0.0, 40.0, 126.0, 112.0, 15.0, 120.0, 0.0, 0.0, 0.0, 1.645921402084895E9, 0.0, 2022-02-27 11:23:22.084
236.0, -1186.6317613877966, -4391.1566604562595, -1625.150635856466, -10176.928064456948, -469.87837193946507, 370.50251609116987, -5309.969819780567, -1485.3404742885202, -2677.448413067867, -6496.623932912819, -4318.446435743146, -3018.6477921781293, -3822.237708835329, -2714.641715841498, -9966.39698343241, -14569.850512725177, 0.01, -0.1, 0.99, 192.0, 0.0, 0.0, 0.0, 0.0, 0.0, 0.0, 0.0, 0.0, 0.0, 1.645921402099577E9, 0.0, 2022-02-27 11:23:22.099
238.0, -1919.3442963772175, -4957.639271931562, -2172.0978226778298, -10766.880007610323, -1149.5725690808974, -148.43793492769422, -5684.428594640326, -1942.3442414217284, -4385.72518655362, -7422.8802231407435, -4582.822869160517, -3250.0330507794683, -4011.55698437178, -3011.7187513969843, -10366.38145046013, -15598.522496047319, 0.01, -0.1, 0.99, 192.0, 0.0, 0.0, 0.0, 0.0, 0.0, 0.0, 0.0, 0.0, 0.0, 1.64592140210756E9, 0.0, 2022-02-27 11:23:22.107
240.0, -1458.8536571089815, -4593.57405824352, -1790.7770622702913, -10353.931528798525, -703.9905433643512, 212.0286479030428, -5313.791968082424, -1497.5221750166627, -1710.266078742275, -6410.636771993252, -4510.649086314331, -3031.6788591955733, -4054.7182029149776, -2864.3984036920556, -9886.3330347935, -14325.143614428474, 0.01, -0.1, 0.99, 192.0, 0.0, 0.0, 0.0, 0.0, 0.0, 0.0, 0.0, 0.0, 0.0, 1.645921402115586E9, 0.0, 2022-02-27 11:23:22.115
242.0, -1438.9382527993027, -4592.411767531845, -1851.6632141665477, -10423.311343587799, -723.3471540626472, 145.66631861523612, -5526.558223552493, -1741.5361692352499, -4248.2843098979365, -7042.565291233694, -4335.836092929375, -3135.4133052126535, -3763.0279377732204, -2771.571608969165, -10228.828815082172, -15288.950835341317, 0.01, -0.1, 0.99, 192.0, 0.0, 0.0, 0.0, 0.0, 0.0, 0.0, 0.0, 0.0, 0.0, 1.645921402122589E9, 0.0, 2022-02-27 11:23:22.122
244.0, -1858.234627036408, -4904.464471872387, -2089.1728507486405, -10679.529390278984, -1085.1548415607026, -83.26024809601881, -5546.093648206431, -1760.244579344342, -2695.262753398747, -7032.998744606823, -4707.83617589905, -3188.878677949748, -4215.315486826359, -3088.5193453454194, -10143.221633818344, -14960.581357548399, 0.016, -0.10400000000000001, 0.988, 192.0, 0.0, 64.0, 126.0, 96.0, 15.0, 112.0, 0.0, 0.0, 0.0, 1.645921402130183E9, 0.0, 2022-02-27 11:23:22.130
246.0, -1176.7969938274616, -4380.092546950883, -1625.8435399345803, -10175.519904556264, -479.2884563551493, 364.2663793881392, -5312.450863415106, -1482.8147271650705, -2596.4903946507447, -6458.044821982959, -4325.576642224389, -3010.3329432407554, -3841.9966509338205, -2711.7136373178528, -9960.049088007103, -14538.133387343096, 0.016, -0.10400000000000001, 0.988, 192.0, 0.0, 0.0, 0.0, 0.0, 0.0, 0.0, 0.0, 0.0, 0.0, 1.645921402138165E9, 0.0, 2022-02-27 11:23:22.138
248.0, -1888.3200750732512, -4929.945460551437, -2156.831581214855, -10751.144379513786, -1129.299536859934, -142.3359086913954, -5685.3450161629935, -1943.5959391112256, -4433.826140621441, -7434.927813402154, -4565.52261895211, -3258.750231117038, -3996.4695568644474, -2993.278562221356, -10369.689508639516, -15605.272722872822, 0.016, -0.10400000000000001, 0.988, 192.0, 0.0, 0.0, 0.0, 0.0, 0.0, 0.0, 0.0, 0.0, 0.0, 1.645921402146273E9, 0.0, 2022-02-27 11:23:22.146
250.0, -1483.440576009819, -4615.545823043087, -1810.3348386686848, -10370.069488295256, -735.9758896798957, 196.8741651623446, -5338.557700938904, -1507.8263292105592, -1718.3574102350963, -6460.034127239482, -4524.842444043451, -3049.917882671104, -4080.199191594028, -2866.94650255996, -9897.710072721253, -14345.707219327358, 0.016, -0.10400000000000001, 0.988, 192.0, 0.0, 0.0, 0.0, 0.0, 0.0, 0.0, 0.0, 0.0, 0.0, 1.645921402152414E9, 0.0, 2022-02-27 11:23:22.152
252.0, -1419.313421167543, -4587.516735496132, -1838.0510017932656, -10405.094671856723, -711.1207498455942, 156.0151762980433, -5513.214232112674, -1751.952082151423, -4170.790811871388, -7019.587697933638, -4318.04410434295, -3119.8341393273045, -3763.0055860287653, -2761.1780477974476, -10211.081529984658, -15251.332849423034, 0.016, -0.10400000000000001, 0.988, 192.0, 0.0, 0.0, 0.0, 0.0, 0.0, 0.0, 0.0, 0.0, 0.0, 1.645921402159848E9, 0.0, 2022-02-27 11:23:22.159
254.0, -1846.4999611973717, -4887.432442597442, -2082.444975667593, -10677.987119911566, -1069.1733442751581, -65.78118393196868, -5527.675810775258, -1748.6663757164927, -2679.124793902015, -7018.537165944239, -4701.309466518101, -3181.4131953016754, -4209.88401292372, -3082.8643539982268, -10134.169177313946, -14957.742686002575, 0.012, -0.106, 0.988, 192.0, 0.0, 48.0, 126.0, 88.0, 15.0, 112.0, 0.0, 0.0, 0.0, 1.645921402169233E9, 0.0, 2022-02-27 11:23:22.169
0.0, -1168.0798134898919, -4371.755346269053, -1621.730818954804, -10178.626797035551, -472.493526040736, 362.0535566870638, -5288.936828248123, -1489.4531952682967, -2579.9054002649073, -6442.599766564342, -4317.440607242657, -3019.5865654452523, -3828.429142049449, -2709.254945427769, -9946.191006444813, -14539.854471666154, 0.012, -0.106, 0.988, 192.0, 0.0, 0.0, 0.0, 0.0, 0.0, 0.0, 0.0, 0.0, 0.0, 1.645921402175788E9, 0.0, 2022-02-27 11:23:22.175
2.0, -1876.4065952785727, -4927.710286105906, -2155.803400969911, -10758.878083095322, -1128.852501970828, -148.48263841660483, -5695.045673256597, -1958.906884063111, -4422.292640482502, -7411.190260790618, -4559.420592715811, -3244.132190243267, -3989.2722951498386, -2998.084187279247, -10362.76046785837, -15611.933542720502, 0.012, -0.106, 0.988, 192.0, 0.0, 0.0, 0.0, 0.0, 0.0, 0.0, 0.0, 0.0, 0.0, 1.645921402182557E9, 0.0, 2022-02-27 11:23:22.182
4.0, -1464.2627792671656, -4615.367009087445, -1799.851870519146, -10368.281348738832, -716.3957615370466, 193.43199651622731, -5328.991154312033, -1493.409454036886, -1684.5392208742169, -6439.448170596143, -4513.241888671147, -3029.533091727864, -4062.89894138562, -2875.4848689418877, -9886.310683049045, -14338.800530290668, 0.012, -0.106, 0.988, 192.0, 0.0, 0.0, 0.0, 0.0, 0.0, 0.0, 0.0, 0.0, 0.0, 1.6459214021904E9, 0.0, 2022-02-27 11:23:22.190
6.0, -1410.5291855966075, -4583.560476727543, -1826.9198330545228, -10399.663197954083, -705.6669241984993, 167.54867643698174, -5502.150118607297, -1742.5643494801939, -4165.314634479837, -7015.296162998219, -4323.274412545492, -3121.6446306281846, -3759.630472616014, -2756.8194576286623, -10203.772509547773, -15252.092808734515, 0.012, -0.106, 0.988, 192.0, 0.0, 0.0, 0.0, 0.0, 0.0, 0.0, 0.0, 0.0, 0.0, 1.645921402198476E9, 0.0, 2022-02-27 11:23:22.198
8.0, -1871.913894643056, -4919.171919723978, -2094.8501938402887, -10687.710128749624, -1096.59893472182, -88.6246667652925, -5545.937185995243, -1764.2231898573864, -2771.9739403693607, -7068.962701435412, -4708.752597421718, -3189.5715820278624, -4211.850966435786, -3087.424109867109, -10147.848444920593, -15002.803802824475, 0.01, -0.108, 0.986, 192.0, 0.0, 40.0, 126.0, 80.0, 15.0, 104.0, 0.0, 0.0, 0.0, 1.645921402205508E9, 0.0, 2022-02-27 11:23:22.205
10.0, -1179.7921275844726, -4395.649361091776, -1618.9592026423459, -10175.63166327854, -483.55763954611297, 359.48310607470347, -5299.084520230833, -1467.3249682575427, -2507.843376140997, -6456.547255104453, -4322.872081145297, -3000.0287890468585, -3844.52239805727, -2710.4842913728107, -9937.160901684869, -14512.585343430681, 0.01, -0.108, 0.986, 192.0, 0.0, 0.0, 0.0, 0.0, 0.0, 0.0, 0.0, 0.0, 0.0, 1.645921402220113E9, 0.0, 2022-02-27 11:23:22.220
12.0, -1890.1529181185865, -4943.982356069369, -2150.193113111629, -10747.948080056678, -1128.2490048705347, -144.3028622034624, -5686.216734196751, -1947.6639566020915, -4451.126390829849, -7409.3797694897385, -4552.737421123675, -3256.9173880717026, -3994.2120306744614, -2990.149317997613, -10357.61956663365, -15607.217324640433, 0.01, -0.108, 0.986, 192.0, 0.0, 0.0, 0.0, 0.0, 0.0, 0.0, 0.0, 0.0, 0.0, 1.645921402228079E9, 0.0, 2022-02-27 11:23:22.228
14.0, -1513.056637413101, -4644.178407690336, -1813.2629171923302, -10378.317281999265, -744.3354421061805, 179.28334227601795, -5345.978480098067, -1522.6902392733384, -1697.7491018473033, -6459.140057461269, -4532.173816224792, -3041.401868033632, -4089.5869242652566, -2881.989226578382, -9887.920008649828, -14347.584765861604, 0.01, -0.108, 0.986, 192.0, 0.0, 0.0, 0.0, 0.0, 0.0, 0.0, 0.0, 0.0, 0.0, 1.645921402234579E9, 0.0, 2022-02-27 11:23:22.234
16.0, -1438.737087099205, -4603.185308359302, -1815.3416294266738, -10380.105421555689, -687.3161420006921, 188.76048192506815, -5503.893554674811, -1753.047317629733, -4125.1932531825605, -7007.495404183317, -4332.729200450087, -3133.8933865896925, -3775.8354873461117, -2753.6902134049196, -10195.234143165844, -15223.214354898259, 0.01, -0.108, 0.986, 192.0, 0.0, 0.0, 0.0, 0.0, 0.0, 0.0, 0.0, 0.0, 0.0, 1.645921402242617E9, 0.0, 2022-02-27 11:23:22.242
18.0, -1945.9428722790328, -4987.344740312665, -2108.5965166803026, -10698.126041665799, -1106.7689784489846, -101.74514076055775, -5554.699069821724, -1794.263934405319, -2862.4985054133545, -7093.415509869517, -4734.4794552897765, -3212.8844514947477, -4225.843158464809, -3088.5416970898746, -10156.140942113512, -15035.92908810724, 0.012, -0.106, 0.984, 192.0, 0.0, 48.0, 126.0, 88.0, 15.0, 96.0, 0.0, 0.0, 0.0, 1.645921402250722E9, 0.0, 2022-02-27 11:23:22.250
20.0, -1291.0144079940806, -4491.605400038409, -1640.215711619343, -10184.39354710502, -494.26412514020507, 369.5860945685023, -5300.0009417535, -1468.9119421138696, -2497.9639050917513, -6469.712432588629, -4367.352052611358, -3040.2619290664115, -3869.198723935929, -2730.220881726847, -9934.00930571667, -14497.363805456616, 0.012, -0.106, 0.984, 192.0, 0.0, 0.0, 0.0, 0.0, 0.0, 0.0, 0.0, 0.0, 0.0, 1.645921402259249E9, 0.0, 2022-02-27 11:23:22.259
22.0, -2015.4791492794932, -5056.098706257189, -2164.162953396196, -10758.431048206217, -1126.5502722919314, -139.45253365666076, -5680.539391105103, -1948.9603577804994, -4520.550909108032, -7457.838351468844, -4595.608066988953, -3291.3837780217864, -4008.897126781598, -2994.4855564219424, -10368.214293505465, -15612.447632842976, 0.012, -0.106, 0.984, 192.0, 0.0, 0.0, 0.0, 0.0, 0.0, 0.0, 0.0, 0.0, 0.0, 1.645921402265264E9, 0.0, 2022-02-27 11:23:22.265
24.0, -1667.9989299772897, -4791.029368761703, -1825.690487109481, -10399.126756087155, -743.0390409277727, 180.75855741006822, -5328.141788022732, -1530.1780736658661, -1745.403021026018, -6505.296409761479, -4579.4030522588555, -3076.315292872822, -4107.267154129405, -2900.1388430760912, -9894.133793608404, -14351.36221067455, 0.012, -0.106, 0.984, 192.0, 0.0, 0.0, 0.0, 0.0, 0.0, 0.0, 0.0, 0.0, 0.0, 1.645921402272244E9, 0.0, 2022-02-27 11:23:22.272
26.0, -1591.8241848736031, -4749.790400241662, -1818.0238387613106, -10387.682662926038, -679.1577552745051, 210.30756357998416, -5477.652606684281, -1717.820968368169, -4147.053259259851, -7042.207663322409, -4366.614445044333, -3169.6338259737286, -3778.1824205139187, -2756.484181461833, -10188.550971573708, -15204.751813978173, 0.012, -0.106, 0.984, 192.0, 0.0, 0.0, 0.0, 0.0, 0.0, 0.0, 0.0, 0.0, 0.0, 1.645921402280506E9, 0.0, 2022-02-27 11:23:22.280
28.0, -2099.0076183089755, -5137.34729735223, -2115.1902812946178, -10710.017169716022, -1110.5464232619313, -82.52264052899368, -5548.686450563247, -1761.6527392450262, -2930.4254568130323, -7143.684583149503, -4762.553246325641, -3275.1564115472333, -4236.1920161476155, -3096.588325093785, -10163.29350033921, -15035.414997984768, 0.01, -0.106, 0.986, 192.0, 0.0, 40.0, 126.0, 88.0, 15.0, 104.0, 0.0, 0.0, 0.0, 1.645921402287454E9, 0.0, 2022-02-27 11:23:22.287
30.0, -1427.896491038381, -4646.458285624777, -1642.3838308315076, -10196.195268177422, -478.8637732104985, 363.3276061210163, -5280.66668279966, -1458.898360597892, -2526.618841483455, -6505.341113250389, -4392.788337801497, -3080.651531297151, -3875.5913228501468, -2722.688343845409, -9932.82466326054, -14484.220979716896, 0.01, -0.106, 0.986, 192.0, 0.0, 0.0, 0.0, 0.0, 0.0, 0.0, 0.0, 0.0, 0.0, 1.645921402294858E9, 0.0, 2022-02-27 11:23:22.294
32.0, -2093.263219983962, -5155.228692916477, -2160.2066946276063, -10759.503931940071, -1113.854481441317, -123.62749858230336, -5677.07487071453, -1954.682404361058, -4593.618761732431, -7519.328000465393, -4614.942325942794, -3321.1339498918, -4001.2528301778834, -2989.2999517083113, -10363.699241125494, -15616.828574756215, 0.01, -0.106, 0.986, 192.0, 0.0, 0.0, 0.0, 0.0, 0.0, 0.0, 0.0, 0.0, 0.0, 1.645921402302943E9, 0.0, 2022-02-27 11:23:22.302
34.0, -1737.3563930221073, -4862.778468463239, -1842.2307780064082, -10415.287067328343, -765.5919510831775, 171.28141776101802, -5335.830788115357, -1524.5454340631288, -1795.0685972057101, -6553.754991740584, -4617.713942255252, -3114.5144241469416, -4115.9172792336085, -2922.4682357869433, -9896.167802353835, -14361.152274745975, 0.01, -0.106, 0.986, 192.0, 0.0, 0.0, 0.0, 0.0, 0.0, 0.0, 0.0, 0.0, 0.0, 1.645921402311012E9, 0.0, 2022-02-27 11:23:22.311
36.0, -1583.5540394251395, -4752.584368298575, -1803.9645914989223, -10375.366851731163, -659.3988131760136, 215.04613340450925, -5464.241560011096, -1724.0347533267443, -4129.954174751541, -7050.120180859588, -4389.05559647746, -3186.1964686151114, -3777.623626902536, -2764.5531612101986, -10177.978596446348, -15182.511828245144, 0.01, -0.106, 0.986, 192.0, 0.0, 0.0, 0.0, 0.0, 0.0, 0.0, 0.0, 0.0, 0.0, 1.645921402317623E9, 0.0, 2022-02-27 11:23:22.317
38.0, -2100.41577820966, -5134.77684673987, -2124.6450691992127, -10722.198870444165, -1114.5026820305206, -89.63049526578132, -5539.991621970132, -1777.20955338592, -3038.205568576523, -7202.827298978245, -4787.766014071228, -3282.55483896194, -4230.179396889138, -3116.660191614651, -10177.106878412591, -15082.018385174082, 0.01, -0.114, 0.988, 192.0, 0.0, 40.0, 126.0, 56.0, 15.0, 112.0, 0.0, 0.0, 0.0, 1.645921402325601E9, 0.0, 2022-02-27 11:23:22.325
40.0, -1381.5613247825295, -4585.929761639805, -1638.2040546183653, -10199.793899034727, -489.5479070601353, 372.08948994749665, -5264.841647725302, -1440.346412699987, -2460.860009295942, -6504.447043472176, -4415.363599701357, -3080.3162551303217, -3885.783718321767, -2748.9292918359392, -9923.3922271004, -14459.745819538335, 0.01, -0.114, 0.988, 192.0, 0.0, 0.0, 0.0, 0.0, 0.0, 0.0, 0.0, 0.0, 0.0, 1.645921402332625E9, 0.0, 2022-02-27 11:23:22.332
42.0, -2029.9854314309873, -5088.151107806099, -2150.260168344995, -10758.542806928494, -1111.7981209514287, -113.50215834404926, -5662.210960651751, -1937.71743031948, -4586.645017462375, -7496.350407165338, -4598.29027632359, -3328.04063892849, -3986.880658493121, -2992.406844187599, -10366.828485349237, -15612.917019476536, 0.01, -0.114, 0.988, 192.0, 0.0, 0.0, 0.0, 0.0, 0.0, 0.0, 0.0, 0.0, 0.0, 1.645921402347265E9, 0.0, 2022-02-27 11:23:22.347
44.0, -1667.2836741547196, -4791.699921095362, -1843.0577925512546, -10418.30455282981, -774.7338145653981, 177.9198858642442, -5344.503264964016, -1523.249032884721, -1764.7372799798586, -6539.807503200473, -4597.95500015676, -3115.095569502779, -4119.650020557645, -2929.9337184350156, -9910.696436249786, -14373.043402796198, 0.01, -0.114, 0.988, 192.0, 0.0, 0.0, 0.0, 0.0, 0.0, 0.0, 0.0, 0.0, 0.0, 1.645921402355393E9, 0.0, 2022-02-27 11:23:22.355
46.0, -1496.024608138157, -4669.59234113602, -1797.750806540347, -10378.406688977086, -662.1704294884718, 217.52717703904833, -5465.582664678414, -1715.854014856102, -4066.51992398738, -6996.967732544867, -4356.489104806078, -3181.9496371686027, -3778.0259583027314, -2765.2013617994025, -10187.88041924005, -15177.505037487155, 0.011, -0.10900000000000001, 0.988, 192.0, 0.0, 48.0, 126.0, 96.0, 15.0, 112.0, 0.0, 0.0, 0.0, 1.645921402363251E9, 0.0, 2022-02-27 11:23:22.363
48.0, -2031.0806669092974, -5085.7371194049265, -2130.925909391154, -10732.950059527167, -1124.3374495908558, -88.35644583182882, -5550.184017441752, -1774.1250126510874, -3007.181347272557, -7207.297647869307, -4766.08482194958, -3275.223466780599, -4233.062771923873, -3128.394857453687, -10189.892076241025, -15087.114582909893, 0.011, -0.10900000000000001, 0.988, 192.0, 0.0, 0.0, 0.0, 0.0, 0.0, 0.0, 0.0, 0.0, 0.0, 1.645921402369848E9, 0.0, 2022-02-27 11:23:22.369
50.0, -1326.4195712112871, -4534.90072904834, -1643.6802320099155, -10195.949398988414, -491.2689913831939, 374.7940510265888, -5267.7026710155815, -1458.3619187309646, -2463.3410529304806, -6517.81338665645, -4394.509422124555, -3080.0256824524026, -3883.1015089871303, -2748.9516435803944, -9935.283355150623, -14472.48631387786, 0.011, -0.10900000000000001, 0.988, 192.0, 0.0, 0.0, 0.0, 0.0, 0.0, 0.0, 0.0, 0.0, 0.0, 1.645921402377975E9, 0.0, 2022-02-27 11:23:22.377
52.0, -1966.707642878013, -5031.869415267636, -2149.0084706554976, -10745.914071311245, -1108.490062772043, -113.18923392167497, -5668.871780499432, -1945.875817045667, -4608.974410173227, -7479.228970912573, -4580.81121215954, -3300.8609176708364, -3971.860286219154, -2968.155201453591, -10372.617587163162, -15625.836327771704, 0.011, -0.10900000000000001, 0.988, 192.0, 0.0, 0.0, 0.0, 0.0, 0.0, 0.0, 0.0, 0.0, 0.0, 1.645921402385838E9, 0.0, 2022-02-27 11:23:22.385
54.0, -1639.500455796773, -4764.855476004538, -1856.9382258580001, -10434.800140237825, -798.4937189213895, 155.18816175319694, -5356.170875569686, -1538.0682394585897, -1772.7168527504032, -6537.751142710584, -4599.966657157738, -3114.6038311247626, -4125.439122371569, -2944.5964627976973, -9924.420407345344, -14391.125964060542, 0.011, -0.10900000000000001, 0.988, 192.0, 0.0, 0.0, 0.0, 0.0, 0.0, 0.0, 0.0, 0.0, 0.0, 1.64592140239293E9, 0.0, 2022-02-27 11:23:22.392
56.0, -1437.217168476244, -4623.950078958283, -1792.6993122934477, -10360.748810857393, -658.3929846755249, 204.22788908814064, -5471.7964496369905, -1718.558575935194, -4023.93985080002, -6998.286485467731, -4342.675726732698, -3159.061450846368, -3770.64988263248, -2778.6571119614973, -10189.936779729936, -15160.629470423399, 0.010499999999999999, -0.10750000000000001, 0.988, 192.0, 0.0, 40.0, 126.0, 88.0, 15.0, 112.0, 0.0, 0.0, 0.0, 1.64592140239948E9, 0.0, 2022-02-27 11:23:22.399
58.0, -1988.8582216332225, -5029.142502444089, -2136.2679763159726, -10746.271699222529, -1150.9583772371266, -127.69551607316924, -5581.364700956906, -1824.3717341866177, -3103.8973455306705, -7213.958467716989, -4733.4289233003765, -3270.976635334091, -4225.105550897783, -3142.1858837826117, -10219.105806244113, -15145.676153382798, 0.010499999999999999, -0.10750000000000001, 0.988, 192.0, 0.0, 0.0, 0.0, 0.0, 0.0, 0.0, 0.0, 0.0, 0.0, 1.645921402407469E9, 0.0, 2022-02-27 11:23:22.407
60.0, -1273.133012429835, -4471.108850372893, -1649.2681681237423, -10207.661713082995, -496.1640234189062, 366.1215741779297, -5276.129278675232, -1457.2666832526545, -2359.8301243579535, -6474.160429735235, -4369.408413101246, -3066.078193912291, -3881.782756064267, -2762.9438356094165, -9933.383456871923, -14452.056819445708, 0.010499999999999999, -0.10750000000000001, 0.988, 192.0, 0.0, 0.0, 0.0, 0.0, 0.0, 0.0, 0.0, 0.0, 0.0, 1.645921402415559E9, 0.0, 2022-02-27 11:23:22.415
62.0, -1904.033351425332, -4972.6819959499835, -2131.350592535805, -10742.360143942851, -1099.303495800912, -114.66444905572523, -5665.362556619949, -1949.6532618586139, -4574.3515580119565, -7445.299022829417, -4536.75592383813, -3287.8969058867583, -3949.329727808205, -2983.1085184941912, -10369.644805150605, -15621.94712423648, 0.010499999999999999, -0.10750000000000001, 0.988, 192.0, 0.0, 0.0, 0.0, 0.0, 0.0, 0.0, 0.0, 0.0, 0.0, 1.645921402422639E9, 0.0, 2022-02-27 11:23:22.422
64.0, -1607.3139437811308, -4734.814731456606, -1850.3891647325952, -10432.922593703579, -794.5374601528001, 159.07736528842037, -5346.313756264896, -1529.6416317989388, -1755.4836577753615, -6537.2370525881115, -4575.245627790168, -3095.582496593296, -4126.556709594334, -2929.240814356901, -9911.657561261363, -14394.165801306464, 0.010499999999999999, -0.10750000000000001, 0.988, 192.0, 0.0, 0.0, 0.0, 0.0, 0.0, 0.0, 0.0, 0.0, 0.0, 1.645921402430185E9, 0.0, 2022-02-27 11:23:22.430
66.0, -1399.442720346775, -4588.164936085336, -1777.366015597107, -10351.159912486066, -644.5796066021451, 231.51936906807055, -5452.46219068315, -1691.177688977443, -3974.2966263647827, -6966.94933974139, -4325.8225114133975, -3157.5862357123183, -3774.3602722120613, -2751.745611637308, -10162.645299750007, -15133.293286954557, 0.01125, -0.10775000000000001, 0.987, 192.0, 0.0, 48.0, 126.0, 80.0, 15.0, 104.0, 0.0, 0.0, 0.0, 1.645921402438165E9, 0.0, 2022-02-27 11:23:22.438
68.0, -1956.0458607728317, -4994.162022371534, -2134.9492233931096, -10736.526338640017, -1137.949661964138, -107.57894606339289, -5566.76901182759, -1809.1278444680984, -3085.099528443757, -7189.863287194167, -4728.533891264665, -3266.6851003986717, -4217.707123483076, -3112.7039328460614, -10197.44696586692, -15136.646048622853, 0.01125, -0.10775000000000001, 0.987, 192.0, 0.0, 0.0, 0.0, 0.0, 0.0, 0.0, 0.0, 0.0, 0.0, 1.64592140244522E9, 0.0, 2022-02-27 11:23:22.445
70.0, -1251.7647447305615, -4454.970890876161, -1641.6238715200273, -10195.055329210201, -504.7247415452888, 364.17697241031794, -5266.495676814995, -1473.538753216118, -2354.5551126665014, -6437.950603717638, -4353.0022326710505, -3043.8605599237158, -3884.777889821278, -2739.0721725311487, -9917.603125286476, -14457.845921259634, 0.01125, -0.10775000000000001, 0.987, 192.0, 0.0, 0.0, 0.0, 0.0, 0.0, 0.0, 0.0, 0.0, 0.0, 1.645921402452779E9, 0.0, 2022-02-27 11:23:22.452
72.0, -1866.4377172515055, -4928.78316983976, -2125.963822122076, -10725.417521645728, -1097.6494667112192, -115.08913220037607, -5671.106954944963, -1957.4987241624267, -4609.041465406593, -7437.52061575897, -4513.152481693325, -3272.2730365124985, -3944.0770678612075, -2960.3320908942333, -10369.622453406151, -15637.056903488268, 0.01125, -0.10775000000000001, 0.987, 192.0, 0.0, 0.0, 0.0, 0.0, 0.0, 0.0, 0.0, 0.0, 0.0, 1.645921402467876E9, 0.0, 2022-02-27 11:23:22.467
74.0, -1597.926211109902, -4707.009161354204, -1857.362909002651, -10445.216053154, -806.1380155251045, 140.59247262388143, -5352.594596456837, -1577.6755306333937, -1766.5701230251937, -6545.171921869746, -4563.533313695588, -3084.428976110098, -4130.043581729363, -2926.446846299988, -9924.263945134157, -14425.324133077162, 0.01125, -0.10775000000000001, 0.987, 192.0, 0.0, 0.0, 0.0, 0.0, 0.0, 0.0, 0.0, 0.0, 0.0, 1.645921402474955E9, 0.0, 2022-02-27 11:23:22.474
76.0, -1366.093917619457, -4531.771484824596, -1764.2902450907525, -10344.85672054967, -634.7895425307206, 240.12479068336378, -5448.327117958917, -1672.1563544459766, -3918.3502099931493, -6911.047626858667, -4300.810909367909, -3150.500732719986, -3773.0638710336534, -2742.1343615215255, -10160.879511938037, -15123.369112416402, 0.009625, -0.107875, 0.9855, 192.0, 0.0, 32.0, 126.0, 80.0, 15.0, 96.0, 0.0, 0.0, 0.0, 1.645921402482451E9, 0.0, 2022-02-27 11:23:22.482
78.0, -1942.746572821924, -4982.27089432131, -2128.7801419234447, -10734.60408861686, -1160.0331854859812, -127.98608875108825, -5583.622227146891, -1819.7896265732797, -3143.392877983198, -7202.626133278148, -4710.965420122793, -3244.8474460658367, -4221.238699107015, -3118.336572448799, -10214.769567819783, -15171.872397884417, 0.009625, -0.107875, 0.9855, 192.0, 0.0, 0.0, 0.0, 0.0, 0.0, 0.0, 0.0, 0.0, 0.0, 1.645921402490497E9, 0.0, 2022-02-27 11:23:22.490
80.0, -1227.6248607188297, -4442.297451770002, -1627.9893074022898, -10192.261361153289, -511.0949887150513, 354.4539635722594, -5295.597648095804, -1482.2559335536878, -2294.048940425985, -6444.030278209481, -4348.822456457908, -3034.4951789969423, -3884.7331863323675, -2737.127570763537, -9914.518584551643, -14445.23953738684, 0.009625, -0.107875, 0.9855, 192.0, 0.0, 0.0, 0.0, 0.0, 0.0, 0.0, 0.0, 0.0, 0.0, 1.645921402498508E9, 0.0, 2022-02-27 11:23:22.498
82.0, -1838.3192227267293, -4908.085454474146, -2114.363266749772, -10714.9792569851, -1086.4065392501998, -102.46039658312758, -5651.392716335383, -1947.8204188132786, -4594.7810524441065, -7423.841348152322, -4498.266219886091, -3258.5937689058505, -3929.548433965258, -2932.8841487031164, -10361.285252724321, -15630.351380151676, 0.009625, -0.107875, 0.9855, 192.0, 0.0, 0.0, 0.0, 0.0, 0.0, 0.0, 0.0, 0.0, 0.0, 1.64592140250508E9, 0.0, 2022-02-27 11:23:22.505
84.0, -1575.9097428214245, -4692.815803625083, -1859.106345070165, -10433.63784952615, -823.572376200244, 151.2766064735182, -5341.418724229184, -1525.7077247748048, -1758.8364194436574, -6536.499445021087, -4572.295197522068, -3083.46785109852, -4125.707343305033, -2917.6849624735073, -9913.4904043067, -14415.846993428111, 0.009625, -0.107875, 0.9855, 192.0, 0.0, 0.0, 0.0, 0.0, 0.0, 0.0, 0.0, 0.0, 0.0, 1.645921402513057E9, 0.0, 2022-02-27 11:23:22.513
86.0, -1333.9074056038148, -4510.1349961918595, -1757.8752944320793, -10319.42043535953, -634.4766181083463, 237.48728483763753, -5432.323268928918, -1665.1379066870102, -3885.3590351771163, -6894.060301072634, -4302.487290202056, -3114.8273485693157, -3760.6139493720475, -2720.1849484664144, -10148.161369342968, -15098.581027815466, 0.0098125, -0.10693749999999999, 0.98275, 192.0, 0.0, 40.0, 126.0, 88.0, 15.0, 80.0, 0.0, 0.0, 0.0, 1.645921402520003E9, 0.0, 2022-02-27 11:23:22.520
88.0, -1930.5425203493262, -4946.999841570836, -2131.730572191545, -10730.893699037279, -1163.2741884320008, -128.96956550712176, -5573.787459586556, -1827.3892196880843, -3166.884561405726, -7182.822487690746, -4711.792434667639, -3240.5335593859627, -4220.232870606526, -3111.429883412109, -10218.345846932632, -15176.812133409041, 0.0098125, -0.10693749999999999, 0.98275, 192.0, 0.0, 0.0, 0.0, 0.0, 0.0, 0.0, 0.0, 0.0, 0.0, 1.645921402528077E9, 0.0, 2022-02-27 11:23:22.528
90.0, -1227.9601368856595, -4432.932070843229, -1638.6063860185607, -10192.39547162002, -529.6245848685008, 362.50059157616994, -5271.480115828528, -1472.9799596047355, -2286.7175682446446, -6423.623135521786, -4347.704869235143, -3023.498120724931, -3898.2783434722837, -2730.06441951566, -9917.513718308654, -14438.265793116785, 0.0098125, -0.10693749999999999, 0.98275, 192.0, 0.0, 0.0, 0.0, 0.0, 0.0, 0.0, 0.0, 0.0, 0.0, 1.64592140253478E9, 0.0, 2022-02-27 11:23:22.534
92.0, -1811.7653503138247, -4883.163259406479, -2109.4235312251485, -10704.205716157641, -1086.9429811171271, -95.75487324653545, -5669.162353177351, -1956.4034886841166, -4600.905430424861, -7426.277688297951, -4492.298304116524, -3240.421800663686, -3943.0935911051743, -2930.783084724317, -10368.683680139027, -15625.65751381606, 0.0098125, -0.10693749999999999, 0.98275, 192.0, 0.0, 0.0, 0.0, 0.0, 0.0, 0.0, 0.0, 0.0, 0.0, 1.645921402542887E9, 0.0, 2022-02-27 11:23:22.542
94.0, -1569.606550885028, -4683.115146531481, -1865.4095370065615, -10447.406524110618, -851.4002980471013, 134.15517022075298, -5365.335090796362, -1557.02251875669, -1750.4545152729172, -6546.714192237162, -4561.655767161342, -3056.2210746075007, -4141.644137101667, -2898.730683175407, -9927.862575991461, -14418.640961485025, 0.0098125, -0.10693749999999999, 0.98275, 192.0, 0.0, 0.0, 0.0, 0.0, 0.0, 0.0, 0.0, 0.0, 0.0, 1.645921402550682E9, 0.0, 2022-02-27 11:23:22.550
96.0, -1309.2981349585218, -4496.969818707683, -1740.6197477125822, -10311.262048633344, -642.5679496011675, 249.49017161013742, -5448.0812487699095, -1674.8385637806134, -3827.244499593318, -6883.532629434184, -4284.874115571274, -3087.424109867109, -3778.5624001696588, -2724.96822177985, -10150.553005999685, -15075.201103115214, 0.00990625, -0.10646875, 0.984375, 192.0, 0.0, 40.0, 126.0, 88.0, 15.0, 104.0, 0.0, 0.0, 0.0, 1.64592140255776E9, 0.0, 2022-02-27 11:23:22.557
98.0, -1931.168369194075, -4957.929844609481, -2140.760676951489, -10737.621574118326, -1180.1497554957575, -134.40103940976138, -5596.899163353344, -1852.5125804558493, -3215.6337160627504, -7222.228613165452, -4700.817728140084, -3231.682268581661, -4224.569109030856, -3101.438653640587, -10236.920146574992, -15202.24841859918, 0.00990625, -0.10646875, 0.984375, 192.0, 0.0, 0.0, 0.0, 0.0, 0.0, 0.0, 0.0, 0.0, 0.0, 1.645921402565792E9, 0.0, 2022-02-27 11:23:22.565
100.0, -1236.5655585009526, -4425.310125983969, -1651.8386187361025, -10196.77641353326, -548.7576781222436, 342.98751866668687, -5281.896028744702, -1472.3094072710762, -2245.0762683244075, -6415.621211006786, -4361.406488586246, -3015.987934587948, -3915.1539105360403, -2744.905977833984, -9920.799424743584, -14427.961638922889, 0.00990625, -0.10646875, 0.984375, 192.0, 0.0, 0.0, 0.0, 0.0, 0.0, 0.0, 0.0, 0.0, 0.0, 1.6459214025734E9, 0.0, 2022-02-27 11:23:22.573
102.0, -1812.0782747361989, -4865.035994653224, -2114.5867841943245, -10695.823811986902, -1100.0634551123924, -97.54301280296002, -5678.795955037589, -1957.4316689290606, -4625.313535370056, -7405.490565954515, -4499.69673153123, -3242.5675681313955, -3948.6591754745455, -2930.2242911129347, -10369.66715689506, -15622.572973081229, 0.00990625, -0.10646875, 0.984375, 192.0, 0.0, 0.0, 0.0, 0.0, 0.0, 0.0, 0.0, 0.0, 0.0, 1.645921402580405E9, 0.0, 2022-02-27 11:23:22.580
104.0, -1584.403405714441, -4681.3046552306005, -1890.0188076518546, -10436.58827979425, -854.797763204308, 137.93261503369988, -5393.252419621042, -1570.1206410075, -1774.6167510291043, -6556.0795731639355, -4583.895752894372, -3072.4484410820537, -4167.192181014083, -2938.919119706049, -9940.87129126445, -14434.220127370374, 0.00990625, -0.10646875, 0.984375, 192.0, 0.0, 0.0, 0.0, 0.0, 0.0, 0.0, 0.0, 0.0, 0.0, 1.645921402595104E9, 0.0, 2022-02-27 11:23:22.595
106.0, -1306.481815157153, -4475.825068452963, -1746.8111809267023, -10293.693577491473, -625.6476790485, 264.0858607394529, -5440.369896932829, -1680.7394243168146, -3801.137662069519, -6844.797056293137, -4300.118005289794, -3089.5251738459083, -3788.3524642410835, -2720.8555008000735, -10151.402372288987, -15058.616108729377, 0.007953125, -0.104234375, 0.9841875, 192.0, 0.0, 24.0, 126.0, 104.0, 15.0, 96.0, 0.0, 0.0, 0.0, 1.645921402602918E9, 0.0, 2022-02-27 11:23:22.602
108.0, -1937.7844855528458, -4958.913321365514, -2148.024993899464, -10739.65558286376, -1174.8970955487605, -134.53514987649322, -5584.58335215847, -1830.0043737893552, -3255.464524682108, -7233.158616204098, -4708.663190443896, -3226.228442934566, -4224.2114811195715, -3095.247220426467, -10233.88030932907, -15207.05404365707, 0.007953125, -0.104234375, 0.9841875, 192.0, 0.0, 0.0, 0.0, 0.0, 0.0, 0.0, 0.0, 0.0, 0.0, 1.645921402609998E9, 0.0, 2022-02-27 11:23:22.609
110.0, -1247.1379336283128, -4438.341193001413, -1653.246778636787, -10201.291465913233, -536.8889018164756, 341.0876203879858, -5267.277987870931, -1449.801200604582, -2205.6924945941564, -6416.403522062722, -4367.374404355813, -3011.8975653526268, -3926.195672296962, -2743.251948744291, -9904.81792745804, -14403.307664788685, 0.007953125, -0.104234375, 0.9841875, 192.0, 0.0, 0.0, 0.0, 0.0, 0.0, 0.0, 0.0, 0.0, 0.0, 1.645921402617644E9, 0.0, 2022-02-27 11:23:22.617
112.0, -1803.9198880100118, -4878.044709926214, -2103.634429411224, -10690.437041573172, -1060.2326464930352, -83.81904170740148, -5656.779486749111, -1944.6911745895356, -4630.566195317054, -7411.9055166131875, -4490.264295371091, -3247.931986800669, -3933.6388032005793, -2924.1669683655464, -10357.843084078204, -15615.263952644344, 0.007953125, -0.104234375, 0.9841875, 192.0, 0.0, 0.0, 0.0, 0.0, 0.0, 0.0, 0.0, 0.0, 0.0, 1.645921402625603E9, 0.0, 2022-02-27 11:23:22.625
114.0, -1621.1720253434212, -4723.907080162416, -1894.3103425872735, -10465.26556793041, -860.475106295956, 121.2135101811302, -5380.243704348052, -1584.9845510702792, -1796.1638326840202, -6592.110585225891, -4593.775223943619, -3090.2627814129332, -4174.545904939879, -2940.7743144958395, -9941.363029642467, -14457.644755559535, 0.007953125, -0.104234375, 0.9841875, 192.0, 0.0, 0.0, 0.0, 0.0, 0.0, 0.0, 0.0, 0.0, 0.0, 1.645921402633549E9, 0.0, 2022-02-27 11:23:22.633
116.0, -1313.969649549681, -4493.170022150281, -1741.2232448128755, -10290.921961179014, -612.1248736530392, 258.6096833479027, -5418.174614688709, -1660.9134269849571, -3749.8404085445895, -6851.904911029925, -4306.801176881931, -3107.339514176788, -3797.203755045385, -2720.5649281221545, -10130.86111913456, -15033.671561917254, 0.01, -0.106, 0.99, 192.0, 0.0, 40.0, 126.0, 88.0, 15.0, 120.0, 0.0, 0.0, 0.0, 1.645921402640277E9, 0.0, 2022-02-27 11:23:22.640
118.0, -1956.6717096175803, -4965.283568535277, -2159.960825438598, -10741.019039275532, -1175.0535577599476, -138.35729817835073, -5588.941942327255, -1871.0198248648437, -3331.974545952624, -7257.119686260186, -4717.939164392849, -3250.614196135306, -4227.519539298956, -3084.876010999204, -10241.50225418833, -15244.470863875255, 0.01, -0.106, 0.99, 192.0, 0.0, 0.0, 0.0, 0.0, 0.0, 0.0, 0.0, 0.0, 0.0, 1.645921402647224E9, 0.0, 2022-02-27 11:23:22.647
120.0, -1258.2467506226005, -4436.620108678354, -1665.6519968094824, -10197.782242033749, -545.5166751762242, 345.1556378788517, -5270.541342561405, -1461.446459465797, -2173.95301746762, -6402.83601317835, -4381.746576040576, -3019.005420089414, -3938.06444860273, -2737.328736463635, -9900.660502989353, -14398.434984497428, 0.01, -0.106, 0.99, 192.0, 0.0, 0.0, 0.0, 0.0, 0.0, 0.0, 0.0, 0.0, 0.0, 1.645921402655211E9, 0.0, 2022-02-27 11:23:22.655
122.0, -1799.8965740080566, -4862.443192296409, -2107.233060268529, -10681.742212980058, -1061.7972686049068, -88.40114932073944, -5645.1342278878965, -1943.774753066868, -4631.214395906258, -7387.8326878348225, -4486.17392613577, -3242.6122716203063, -3939.293794547772, -2917.416741540044, -10355.674964866039, -15610.078347930712, 0.01, -0.106, 0.99, 192.0, 0.0, 0.0, 0.0, 0.0, 0.0, 0.0, 0.0, 0.0, 0.0, 1.645921402662291E9, 0.0, 2022-02-27 11:23:22.662
124.0, -1618.7803886867034, -4714.184071324357, -1911.5435375623154, -10470.205303455032, -871.0474814233162, 112.60808856583698, -5384.244666605552, -1599.3343710105862, -1813.2852689367855, -6597.87733529536, -4605.331075827012, -3091.1568511911455, -4183.397195744181, -2942.405991841077, -9945.520454111154, -14468.910034765011, 0.01, -0.106, 0.99, 192.0, 0.0, 0.0, 0.0, 0.0, 0.0, 0.0, 0.0, 0.0, 0.0, 1.645921402669827E9, 0.0, 2022-02-27 11:23:22.669
126.0, -1285.515878858075, -4472.964045162684, -1740.2621198012973, -10283.769402953316, -603.9664869268521, 273.2947794550395, -5410.664428551725, -1663.6850432974152, -3702.3653033215173, -6839.097361457034, -4296.407615710213, -3101.081025729302, -3791.9287433539325, -2714.552308863677, -10127.508357466264, -15023.345055978902, 0.008, -0.10200000000000001, 0.988, 192.0, 0.0, 32.0, 126.0, 104.0, 15.0, 112.0, 0.0, 0.0, 0.0, 1.645921402677888E9, 0.0, 2022-02-27 11:23:22.677
128.0, -1944.2441397004295, -4963.964815612414, -2167.515715064492, -10748.059838778954, -1178.9204095507157, -136.703269088658, -5584.270427736095, -1865.7671649178465, -3369.3019591929865, -7263.15465726312, -4703.2540682857125, -3250.0777542683786, -4218.26591709446, -3099.13642396169, -10247.961908335914, -15264.632137373941, 0.008, -0.10200000000000001, 0.988, 192.0, 0.0, 0.0, 0.0, 0.0, 0.0, 0.0, 0.0, 0.0, 0.0, 1.645921402685918E9, 0.0, 2022-02-27 11:23:22.685
130.0, -1255.0951546544022, -4435.077838310938, -1668.0659852106555, -10202.230239180355, -540.8228088406097, 342.8310564554997, -5259.141952889198, -1456.8196483635484, -2156.116325392285, -6396.622228219775, -4375.5998463153655, -3010.7129228964955, -3940.456085259448, -2744.4365912004223, -9896.503078520665, -14394.054042584186, 0.008, -0.10200000000000001, 0.988, 192.0, 0.0, 0.0, 0.0, 0.0, 0.0, 0.0, 0.0, 0.0, 0.0, 1.645921402692607E9, 0.0, 2022-02-27 11:23:22.692
132.0, -1777.1872016414645, -4842.81836066465, -2091.385673449716, -10666.431268028173, -1030.5495298563874, -63.47895425307206, -5646.162408132841, -1929.6931540600247, -4641.25032916669, -7372.119411482741, -4477.613208009388, -3233.962146516102, -3933.5940997116686, -2910.6888664589965, -10356.47962766643, -15600.265932114833, 0.008, -0.10200000000000001, 0.988, 192.0, 0.0, 0.0, 0.0, 0.0, 0.0, 0.0, 0.0, 0.0, 0.0, 1.645921402700561E9, 0.0, 2022-02-27 11:23:22.700
134.0, -1650.6539762799712, -4734.971193667793, -1923.4346656125388, -10486.678539118593, -883.1397751736373, 94.81609997941256, -5379.68491073667, -1591.6900744068712, -1855.6641764240476, -6616.742207615639, -4621.737256257207, -3100.410473395643, -4191.309713281359, -2964.4224601295546, -9945.341640155511, -14488.288997207761, 0.008, -0.10200000000000001, 0.988, 192.0, 0.0, 0.0, 0.0, 0.0, 0.0, 0.0, 0.0, 0.0, 0.0, 1.645921402715574E9, 0.0, 2022-02-27 11:23:22.715
136.0, -1284.6665125687734, -4474.238094596636, -1727.655735928504, -10278.136763350578, -580.1395273374948, 274.4123666778048, -5402.9754284591, -1644.797819232681, -3654.9349015873554, -6826.602736306517, -4310.332752505869, -3106.6689618431287, -3790.9899700868095, -2705.5892593370986, -10104.150784510468, -14985.861180527352, 0.004, -0.10400000000000001, 0.982, 192.0, 0.0, 16.0, 126.0, 96.0, 15.0, 88.0, 0.0, 0.0, 0.0, 1.645921402722205E9, 0.0, 2022-02-27 11:23:22.722
138.0, -1940.0196599983765, -4961.863751633615, -2168.85681973181, -10752.79840860348, -1167.0963367338584, -136.74797257756862, -5598.262619765118, -1872.6067987211704, -3449.6341287653604, -7287.115727319208, -4708.707893932807, -3266.7298038875824, -4204.430187276625, -3115.5426043918856, -10252.298146760244, -15292.102431309515, 0.004, -0.10400000000000001, 0.982, 192.0, 0.0, 0.0, 0.0, 0.0, 0.0, 0.0, 0.0, 0.0, 0.0, 1.645921402730125E9, 0.0, 2022-02-27 11:23:22.730
140.0, -1247.8531894508826, -4429.668716152753, -1666.143735187499, -10205.404186893009, -548.3553467220481, 342.54048377758073, -5269.289644871908, -1446.962529058758, -2097.6441618972017, -6391.771899672974, -4384.160564441749, -3013.3951322311323, -3937.30448929125, -2768.8446961456175, -9889.663444717342, -14373.490437685305, 0.004, -0.10400000000000001, 0.982, 192.0, 0.0, 0.0, 0.0, 0.0, 0.0, 0.0, 0.0, 0.0, 0.0, 1.645921402738057E9, 0.0, 2022-02-27 11:23:22.738
142.0, -1756.8694659315904, -4843.734782187317, -2086.289475713906, -10665.87247441679, -1029.3872391447114, -52.79482040343528, -5646.743553488678, -1914.002229452399, -4627.280488882124, -7372.789963816401, -4461.229379323648, -3230.318812169887, -3901.496994673848, -2890.281723771301, -10344.409685660565, -15589.60415000965, 0.004, -0.10400000000000001, 0.982, 192.0, 0.0, 0.0, 0.0, 0.0, 0.0, 0.0, 0.0, 0.0, 0.0, 1.645921402745107E9, 0.0, 2022-02-27 11:23:22.745
144.0, -1636.9747086733234, -4730.4337895433655, -1925.1557499355972, -10479.436573915074, -882.4468710955229, 106.57311756290407, -5392.760681243024, -1588.2702575052092, -1845.27061525233, -6630.399123477831, -4609.130872384414, -3101.7739298074166, -4175.954064840564, -2969.630416587641, -9951.197797202802, -14493.072270521197, 0.004, -0.10400000000000001, 0.982, 192.0, 0.0, 0.0, 0.0, 0.0, 0.0, 0.0, 0.0, 0.0, 0.0, 1.645921402752883E9, 0.0, 2022-02-27 11:23:22.752
146.0, -1272.261294396078, -4465.207989836692, -1730.6955731744258, -10263.60812945463, -578.7537191812658, 279.93324755826563, -5396.024035933499, -1630.2021301033653, -3625.8999855399115, -6817.036189679646, -4302.084958801861, -3095.783662293394, -3794.0298073327313, -2721.324887433635, -10113.873793348526, -14975.333508888902, 0.008, -0.10200000000000001, 0.984, 192.0, 0.0, 32.0, 126.0, 104.0, 15.0, 96.0, 0.0, 0.0, 0.0, 1.645921402760746E9, 0.0, 2022-02-27 11:23:22.760
148.0, -1956.1576194951083, -4977.577027985696, -2177.797517513933, -10757.045240049987, -1188.7104736221402, -149.82374308392323, -5604.744625657157, -1872.137412087609, -3482.0218064811, -7296.525811734893, -4711.993600367738, -3263.5111526860182, -4205.570126243845, -3117.397799181676, -10267.452629500942, -15304.84292564904, 0.008, -0.10200000000000001, 0.984, 192.0, 0.0, 0.0, 0.0, 0.0, 0.0, 0.0, 0.0, 0.0, 0.0, 1.64592140276777E9, 0.0, 2022-02-27 11:23:22.767
150.0, -1264.9299222147372, -4445.560806460477, -1676.8278690371358, -10212.959076518902, -549.0482508001627, 336.9748994082093, -5266.205104137076, -1456.9984623191908, -2100.348722976294, -6410.502661526521, -4395.5376023695, -3022.7158096689955, -3948.8826929190986, -2767.6824054339418, -9891.026901129115, -14373.423382451938, 0.008, -0.10200000000000001, 0.984, 192.0, 0.0, 0.0, 0.0, 0.0, 0.0, 0.0, 0.0, 0.0, 0.0, 1.645921402774907E9, 0.0, 2022-02-27 11:23:22.774
152.0, -1749.560445494705, -4831.106046570068, -2079.606304121769, -10658.809323168913, -1014.8139017598512, -56.661672194203405, -5645.581262777003, -1944.9593955229993, -4646.905320513883, -7373.706385339068, -4466.392632292823, -3244.5345216434625, -3905.2073842534287, -2907.403160024066, -10343.359153671165, -15595.192086123478, 0.008, -0.10200000000000001, 0.984, 192.0, 0.0, 0.0, 0.0, 0.0, 0.0, 0.0, 0.0, 0.0, 0.0, 1.645921402782431E9, 0.0, 2022-02-27 11:23:22.782
154.0, -1652.7103367698596, -4743.978946683282, -1928.3744011371616, -10497.720300879515, -889.2418014099362, 84.66840799670315, -5408.384550617284, -1604.6093827020388, -1876.4289470230278, -6648.638146953363, -4624.888852225406, -3108.904136288659, -4181.407890487658, -2987.310646451789, -9958.05978275058, -14518.7767766448, 0.008, -0.10200000000000001, 0.984, 192.0, 0.0, 0.0, 0.0, 0.0, 0.0, 0.0, 0.0, 0.0, 0.0, 1.645921402790532E9, 0.0, 2022-02-27 11:23:22.790
156.0, -1271.8366112514273, -4463.777478191552, -1716.5245671897612, -10262.088210831667, -567.8237161426206, 284.5377069160589, -5394.951152199645, -1613.7735979287147, -3596.4850898367276, -6808.721340742271, -4310.623325183788, -3095.47073787102, -3791.302894509184, -2718.5979746100875, -10101.066243775636, -14955.239290623582, 0.012, -0.1, 0.988, 192.0, 0.0, 48.0, 126.0, 112.0, 15.0, 112.0, 0.0, 0.0, 0.0, 1.645921402797657E9, 0.0, 2022-02-27 11:23:22.797
158.0, -1959.9797677969657, -4976.392385529564, -2178.2669041474946, -10765.538902943004, -1184.9330288091933, -153.31061521895114, -5622.156634587841, -1881.9945313923993, -3558.8224004295353, -7333.875576719711, -4712.775911423673, -3279.492649971563, -4201.658570964167, -3121.845796328282, -10276.549789494251, -15328.669885238396, 0.012, -0.1, 0.988, 192.0, 0.0, 0.0, 0.0, 0.0, 0.0, 0.0, 0.0, 0.0, 0.0, 1.645921402805074E9, 0.0, 2022-02-27 11:23:22.805
160.0, -1266.360433859877, -4450.701707685198, -1674.1680114469543, -10217.228259709867, -563.263960273738, 327.83303592598867, -5276.956293220079, -1465.3356630010205, -2047.419792106127, -6399.796175932429, -4393.101262223871, -3024.88392888116, -3953.1742278545175, -2782.4345567744444, -9894.737290708696, -14362.783952091213, 0.012, -0.1, 0.988, 192.0, 0.0, 0.0, 0.0, 0.0, 0.0, 0.0, 0.0, 0.0, 0.0, 1.645921402813169E9, 0.0, 2022-02-27 11:23:22.813
162.0, -1733.3554307646075, -4817.873813852527, -2064.02713823642, -10650.472122487083, -1008.5777650568206, -43.13886679874263, -5639.54629177407, -1922.2500231564075, -4627.012267948659, -7354.081553707309, -4436.68716391172, -3224.619117333784, -3884.6661310990016, -2890.661703427041, -10344.879072294125, -15579.970548149413, 0.012, -0.1, 0.988, 192.0, 0.0, 0.0, 0.0, 0.0, 0.0, 0.0, 0.0, 0.0, 0.0, 1.64592140282116E9, 0.0, 2022-02-27 11:23:22.821
164.0, -1644.5295982992172, -4729.807940698617, -1928.0614767147872, -10490.724204865004, -887.051330453316, 87.6858934981696, -5395.107614410832, -1611.9631066278348, -1884.8555546826788, -6644.525425973586, -4611.5672125300425, -3106.177223465112, -4174.925884595619, -2983.6226086166635, -9963.692422353319, -14522.755387157846, 0.012, -0.1, 0.988, 192.0, 0.0, 0.0, 0.0, 0.0, 0.0, 0.0, 0.0, 0.0, 0.0, 1.645921402827209E9, 0.0, 2022-02-27 11:23:22.827
166.0, -1246.9144161837598, -4436.798922633997, -1708.6120496525825, -10248.990088580858, -549.6070444115454, 306.3753612488939, -5392.470108565105, -1627.8104934466473, -3555.0673073610437, -6777.451250249297, -4288.986836551051, -3081.3220836308105, -3772.236856488807, -2721.8166258116516, -10090.09153724808, -14942.364685817325, 0.012, -0.108, 0.986, 192.0, 0.0, 48.0, 126.0, 80.0, 15.0, 104.0, 0.0, 0.0, 0.0, 1.645921402842866E9, 0.0, 2022-02-27 11:23:22.842
168.0, -1950.457924659005, -4964.74712666835, -2176.0317297019637, -10763.303728497474, -1180.2838659624895, -154.1376297637975, -5626.425817778804, -1886.8895634281116, -3584.3257408530408, -7320.553937024348, -4690.5135739461875, -3254.5704549038956, -4176.646968918678, -3098.152947205657, -10272.995862125857, -15339.666943510407, 0.012, -0.108, 0.986, 192.0, 0.0, 0.0, 0.0, 0.0, 0.0, 0.0, 0.0, 0.0, 0.0, 1.645921402850827E9, 0.0, 2022-02-27 11:23:22.850
170.0, -1273.8259165079496, -4454.568559475966, -1674.9726742473454, -10228.292373215243, -556.8043061261542, 318.6911724437681, -5280.241999655009, -1469.090756069512, -2027.3032220963505, -6363.631053403742, -4390.284942422502, -3023.565175958297, -3945.462876017437, -2763.5920361986205, -9878.979310867704, -14351.876300797023, 0.012, -0.108, 0.986, 192.0, 0.0, 0.0, 0.0, 0.0, 0.0, 0.0, 0.0, 0.0, 0.0, 1.645921402857407E9, 0.0, 2022-02-27 11:23:22.857
172.0, -1721.2854887587416, -4805.289781724189, -2051.8230857638223, -10631.830767611358, -983.3873490556896, -41.417782475683985, -5647.9505476892655, -1927.4356278700386, -4645.474808868744, -7352.338117639794, -4440.755181402586, -3232.4645796375967, -3883.4814886428703, -2881.6539504115526, -10332.85383377717, -15572.594472479163, 0.012, -0.108, 0.986, 192.0, 0.0, 0.0, 0.0, 0.0, 0.0, 0.0, 0.0, 0.0, 0.0, 1.645921402865487E9, 0.0, 2022-02-27 11:23:22.865
174.0, -1668.4459648663958, -4747.957557196326, -1946.0099275123987, -10510.88547836369, -911.8841185431622, 65.98234963206644, -5419.158091444742, -1629.4645225363402, -1941.360764665695, -6681.3387490914765, -4625.022962692137, -3107.4289211546093, -4191.823803403831, -2996.899544823116, -9972.856637579995, -14551.16445436054, 0.012, -0.108, 0.986, 192.0, 0.0, 0.0, 0.0, 0.0, 0.0, 0.0, 0.0, 0.0, 0.0, 1.645921402873411E9, 0.0, 2022-02-27 11:23:22.873
176.0, -1236.5432067564973, -4430.629841164332, -1693.9716570343564, -10246.911376346514, -537.6265093835008, 312.3879805073715, -5377.740308969058, -1617.662801463938, -3490.895449029857, -6747.075229534535, -4288.204525495115, -3084.138403432179, -3773.399147200483, -2710.4842913728107, -10081.128487721502, -14908.94882785664, 0.01, -0.112, 0.988, 192.0, 0.0, 40.0, 126.0, 64.0, 15.0, 112.0, 0.0, 0.0, 0.0, 1.645921402880419E9, 0.0, 2022-02-27 11:23:22.880
178.0, -1952.0896020042424, -4973.93369363948, -2175.584694812858, -10770.500990212082, -1176.975807783104, -140.70423134615797, -5627.878681168399, -1894.8244327097457, -3650.2410352517413, -7344.649117547169, -4679.784736607639, -3266.6851003986717, -4166.611035658245, -3094.554316348352, -10276.482734260886, -15368.165417690923, 0.01, -0.112, 0.988, 192.0, 0.0, 0.0, 0.0, 0.0, 0.0, 0.0, 0.0, 0.0, 0.0, 1.645921402888052E9, 0.0, 2022-02-27 11:23:22.888
180.0, -1273.3788816188433, -4446.767800661064, -1680.5606103611722, -10230.684009871962, -553.1833235243945, 330.6493557273574, -5280.644331055204, -1467.6825961688276, -1995.1390618251637, -6387.50271648201, -4389.234410433103, -3024.88392888116, -3943.6970882054675, -2762.4520972314, -9881.10272659096, -14352.010411263755, 0.01, -0.112, 0.988, 192.0, 0.0, 0.0, 0.0, 0.0, 0.0, 0.0, 0.0, 0.0, 0.0, 1.645921402895066E9, 0.0, 2022-02-27 11:23:22.895
182.0, -1697.3020669581972, -4784.6144181030295, -2048.313861884339, -10620.878412828257, -973.4408227730779, -30.778352114957826, -5638.898091184866, -1891.9634094194664, -4621.91607021285, -7306.11471010622, -4423.365524216357, -3218.4500358641194, -3864.303691900217, -2884.7161394019295, -10330.417493631541, -15560.636289195572, 0.01, -0.112, 0.988, 192.0, 0.0, 0.0, 0.0, 0.0, 0.0, 0.0, 0.0, 0.0, 0.0, 1.645921402903063E9, 0.0, 2022-02-27 11:23:22.903
184.0, -1663.8638572530576, -4741.833179215572, -1947.3063286908066, -10513.791205142881, -906.7879208073522, 78.11934687129819, -5428.992859005077, -1615.4946822517732, -1940.0867152317423, -6674.029728654591, -4625.224128392235, -3106.892479287682, -4178.837439875298, -2995.983123300448, -9974.153038758403, -14555.724210229422, 0.01, -0.112, 0.988, 192.0, 0.0, 0.0, 0.0, 0.0, 0.0, 0.0, 0.0, 0.0, 0.0, 1.645921402909789E9, 0.0, 2022-02-27 11:23:22.909
186.0, -1224.1379885838019, -4428.104094040882, -1689.0319215097336, -10238.037733797757, -522.6284888539898, 320.5240154891033, -5378.276750835986, -1600.6084204445388, -3449.522370043084, -6743.342488210498, -4286.729310361065, -3082.8643539982268, -3767.4982866642817, -2707.042122726694, -10075.51819986322, -14893.436717204657, 0.01, -0.114, 0.988, 192.0, 0.0, 40.0, 126.0, 56.0, 15.0, 112.0, 0.0, 0.0, 0.0, 1.645921402917737E9, 0.0, 2022-02-27 11:23:22.917
188.0, -1946.2781484458624, -4976.705309951939, -2182.0443489604413, -10774.7925251475, -1182.7425578525733, -155.0316995420098, -5630.9855736476875, -1903.228688624941, -3675.498506486238, -7344.313841380339, -4678.197762751313, -3268.719109144105, -4155.055183774851, -3092.1403279471792, -10289.379690811598, -15380.190656207878, 0.01, -0.114, 0.988, 192.0, 0.0, 0.0, 0.0, 0.0, 0.0, 0.0, 0.0, 0.0, 0.0, 1.645921402925731E9, 0.0, 2022-02-27 11:23:22.925
190.0, -1282.4536898676981, -4463.710422958186, -1684.919200529957, -10233.321515717687, -562.7275184068106, 317.6182887099134, -5284.734700290525, -1470.6330264369283, -1981.0798145627755, -6383.635864691242, -4394.487070380101, -3014.9597543430036, -3940.0984573481633, -2765.2684170327684, -9883.740232436685, -14345.081370482609, 0.01, -0.114, 0.988, 192.0, 0.0, 0.0, 0.0, 0.0, 0.0, 0.0, 0.0, 0.0, 0.0, 1.645921402932895E9, 0.0, 2022-02-27 11:23:22.932
192.0, -1690.753005832792, -4785.329673925599, -2035.6404227781802, -10621.86188958429, -966.3106162918349, -24.765732856480227, -5636.104123127952, -1926.1839301805414, -4617.602183532976, -7324.711361493035, -4422.426750949234, -3222.1604254437, -3848.6351190370465, -2863.124354258103, -10330.32808665372, -15558.825797894693, 0.01, -0.114, 0.988, 192.0, 0.0, 0.0, 0.0, 0.0, 0.0, 0.0, 0.0, 0.0, 0.0, 1.645921402940443E9, 0.0, 2022-02-27 11:23:22.940
194.0, -1687.8696307980576, -4769.929321995893, -1960.2703404748847, -10532.052580362866, -927.4632844285112, 54.27003553748555, -5424.768379303024, -1631.7220487263262, -1967.8028783563232, -6705.031598214102, -4638.322250643045, -3128.4172091981422, -4180.759689898454, -3004.4767861934647, -9981.193838261825, -14577.472457584438, 0.012, -0.113, 0.986, 192.0, 0.0, 56.0, 126.0, 64.0, 15.0, 96.0, 0.0, 0.0, 0.0, 1.645921402948249E9, 0.0, 2022-02-27 11:23:22.948
196.0, -1227.0660671074472, -4425.220719006147, -1690.373026177052, -10234.796730851738, -535.0113552822298, 317.7747509211005, -5394.213544632619, -1600.2284407887985, -3410.9432591132236, -6727.539804880596, -4295.379435465269, -3075.175353905601, -3773.4438506893935, -2713.546480363188, -10074.847647529561, -14878.461048419602, 0.012, -0.113, 0.986, 192.0, 0.0, 0.0, 0.0, 0.0, 0.0, 0.0, 0.0, 0.0, 0.0, 1.645921402962528E9, 0.0, 2022-02-27 11:23:22.962
198.0, -1953.0507270158205, -4972.436126760975, -2186.313532151405, -10778.569969960448, -1179.2109822286347, -161.22313275612984, -5639.255719096151, -1913.8010637523014, -3741.1232282070196, -7352.159303684152, -4682.131669775447, -3268.7638126330153, -4155.457515175047, -3093.526136103408, -10303.394234585076, -15403.503525674765, 0.012, -0.113, 0.986, 192.0, 0.0, 0.0, 0.0, 0.0, 0.0, 0.0, 0.0, 0.0, 0.0, 1.645921402969998E9, 0.0, 2022-02-27 11:23:22.969
200.0, -1302.2573354551, -4474.908646930296, -1695.759796590781, -10242.12810303308, -575.7585854242546, 309.23638453917323, -5281.538400833417, -1462.0052530771798, -1949.6309101141585, -6377.623245432765, -4407.24991646408, -3021.7323329129617, -3953.35304181016, -2782.054577118704, -9883.650825458864, -14341.415684391939, 0.012, -0.113, 0.986, 192.0, 0.0, 0.0, 0.0, 0.0, 0.0, 0.0, 0.0, 0.0, 0.0, 1.645921402977663E9, 0.0, 2022-02-27 11:23:22.977
202.0, -1700.1630902484765, -4795.455014163854, -2036.5568443008476, -10613.234116224541, -961.370880767212, -17.300250208407668, -5636.30528882805, -1896.366703077162, -4616.372837587934, -7319.7492742239565, -4427.232376007125, -3226.7648848014933, -3855.966491218387, -2871.729775873396, -10327.71293255245, -15541.83847210866, 0.012, -0.113, 0.986, 192.0, 0.0, 0.0, 0.0, 0.0, 0.0, 0.0, 0.0, 0.0, 0.0, 1.64592140298521E9, 0.0, 2022-02-27 11:23:22.985
204.0, -1740.9326721349564, -4820.980706331815, -1981.549201196337, -10546.067124136343, -946.886950360173, 48.749154657024704, -5439.609937621348, -1643.8366942211026, -2014.2945068233619, -6724.589374612496, -4655.935425273827, -3138.8331221143153, -4195.6906551945995, -3010.958792085504, -9998.315274514589, -14597.141992705107, 0.013000000000000001, -0.1125, 0.986, 192.0, 0.0, 56.0, 126.0, 64.0, 15.0, 104.0, 0.0, 0.0, 0.0, 1.64592140299515E9, 0.0, 2022-02-27 11:23:22.995
206.0, -1288.5333643595416, -4497.7521297636185, -1700.1630902484765, -10240.36231522111, -529.9151575464199, 321.5745474785027, -5370.878323421279, -1578.8154696006143, -3390.960799570179, -6742.71663936575, -4316.010095597518, -3102.8915170301816, -3787.2572287627736, -2725.34820143559, -10063.537664835176, -14853.538853351934, 0.013000000000000001, -0.1125, 0.986, 192.0, 0.0, 0.0, 0.0, 0.0, 0.0, 0.0, 0.0, 0.0, 0.0, 1.645921403000363E9, 0.0, 2022-02-27 11:23:23.000
208.0, -2061.1214114572304, -5094.856631142692, -2211.1016167523408, -10790.461098010672, -1192.6667323907295, -166.49814444758232, -5640.082733640997, -1895.9867234214216, -3810.614801718569, -7405.9152490991655, -4707.769120665685, -3306.0241706400125, -4159.480829177002, -3108.658267099651, -10306.523478808818, -15409.203220510868, 0.013000000000000001, -0.1125, 0.986, 192.0, 0.0, 0.0, 0.0, 0.0, 0.0, 0.0, 0.0, 0.0, 0.0, 1.6459214030079E9, 0.0, 2022-02-27 11:23:23.007
210.0, -1443.1850842458111, -4628.956869716271, -1725.398209738518, -10255.650908428539, -584.2522483172713, 307.80587289403354, -5285.42760436864, -1464.1286688004338, -1977.3470732387393, -6427.042952423448, -4452.445143752711, -3062.9042461996373, -3979.258713633861, -2791.7552342123076, -9880.454526001755, -14327.110567940543, 0.013000000000000001, -0.1125, 0.986, 192.0, 0.0, 0.0, 0.0, 0.0, 0.0, 0.0, 0.0, 0.0, 0.0, 1.64592140301489E9, 0.0, 2022-02-27 11:23:23.014
212.0, -1840.5991006611707, -4953.906530607525, -2044.9611002160432, -10613.10000575781, -927.2174152395029, 7.487834392527866, -5626.224652078707, -1891.6951884860027, -4658.818800308562, -7352.762800784445, -4467.621978237865, -3268.7638126330153, -3863.8566570111107, -2857.7152320999185, -10320.85094700467, -15532.048408037235, 0.013000000000000001, -0.1125, 0.986, 192.0, 0.0, 0.0, 0.0, 0.0, 0.0, 0.0, 0.0, 0.0, 0.0, 1.645921403023001E9, 0.0, 2022-02-27 11:23:23.023
214.0, -1924.2393284129298, -5008.176566145011, -2002.2692683064067, -10562.719173755548, -938.3262322337905, 46.446924978128074, -5426.087132225887, -1625.7094294678486, -2103.8579468557773, -6810.285962854143, -4713.692332946341, -3205.9554107136028, -4211.202765846582, -3032.975260373981, -10000.282228026656, -14614.665760358068, 0.0125, -0.11025, 0.984, 192.0, 0.0, 48.0, 126.0, 80.0, 15.0, 88.0, 0.0, 0.0, 0.0, 1.645921403029999E9, 0.0, 2022-02-27 11:23:23.029
216.0, -1427.9858980162023, -4641.697364055796, -1697.7043983583926, -10236.40605645252, -505.19412817885024, 328.16831209281827, -5342.871587618779, -1568.2654462177095, -3373.19116272821, -6756.418258716853, -4358.143133895771, -3144.778686139427, -3796.309685267173, -2709.903146016973, -10044.002240181237, -14820.324161091348, 0.0125, -0.11025, 0.984, 192.0, 0.0, 0.0, 0.0, 0.0, 0.0, 0.0, 0.0, 0.0, 0.0, 1.645921403037548E9, 0.0, 2022-02-27 11:23:23.037
218.0, -2184.927723995176, -5220.071103581322, -2219.7517418565444, -10792.249237567095, -1169.197400712657, -146.69449886018026, -5640.418009807827, -1883.9838366489216, -3888.5329828897698, -7441.789798949933, -4731.685487232863, -3346.8608077598583, -4151.925939551108, -3097.527098360908, -10305.1823741415, -15425.609400941063, 0.0125, -0.11025, 0.984, 192.0, 0.0, 0.0, 0.0, 0.0, 0.0, 0.0, 0.0, 0.0, 0.0, 1.645921403045598E9, 0.0, 2022-02-27 11:23:23.045
220.0, -1541.1974836823326, -4718.74382719324, -1733.981279609356, -10268.74903067935, -582.3523500385702, 310.7339514176788, -5279.7949647659025, -1442.603938889973, -1969.9262940795772, -6473.75809833504, -4486.17392613577, -3105.394912409176, -3989.518164338847, -2807.0438274197377, -9874.576017210009, -14319.935657970389, 0.0125, -0.11025, 0.984, 192.0, 0.0, 0.0, 0.0, 0.0, 0.0, 0.0, 0.0, 0.0, 0.0, 1.645921403053551E9, 0.0, 2022-02-27 11:23:23.053
222.0, -1881.9274761590334, -4981.041548376268, -2036.5121408119371, -10599.264275939975, -892.8404322672407, 37.84150336283486, -5587.8690585934, -1847.1928652754864, -4665.59137887852, -7350.326460638817, -4475.1545161193035, -3294.9153536457247, -3859.743936031334, -2848.014575006315, -10307.886935220593, -15508.69083508144, 0.0125, -0.11025, 0.984, 192.0, 0.0, 0.0, 0.0, 0.0, 0.0, 0.0, 0.0, 0.0, 0.0, 1.64592140306014E9, 0.0, 2022-02-27 11:23:23.060
224.0, -1951.7990293263233, -5007.863641722637, -2021.4917685379708, -10577.694842540604, -945.4787904594888, 45.79872438892417, -5421.817949034924, -1633.8678161940356, -2172.5225058224805, -6853.693050586349, -4727.393952297443, -3215.007867218002, -4225.753751486987, -3024.6380596921517, -10001.198649549324, -14628.099158775707, 0.01425, -0.107125, 0.987, 192.0, 0.0, 64.0, 126.0, 96.0, 15.0, 120.0, 0.0, 0.0, 0.0, 1.645921403068404E9, 0.0, 2022-02-27 11:23:23.068
226.0, -1427.8517875494704, -4622.564270802053, -1704.208755994887, -10231.958059305915, -494.6664565404006, 353.5375420495918, -5332.992116569533, -1529.6639835433941, -3325.51489180504, -6748.639851646406, -4357.830209473397, -3143.4822849610196, -3800.7129789248684, -2705.0528174701712, -10034.32393483209, -14792.07155609984, 0.01425, -0.107125, 0.987, 192.0, 0.0, 0.0, 0.0, 0.0, 0.0, 0.0, 0.0, 0.0, 0.0, 1.645921403075226E9, 0.0, 2022-02-27 11:23:23.075
228.0, -2158.329148093361, -5176.239332704465, -2228.2677564940163, -10800.944066160211, -1166.3363774223778, -147.1415337492864, -5616.792215918567, -1872.8750196546341, -3941.5066172488473, -7450.149351376218, -4733.071295389092, -3352.9181305072466, -4153.87054131872, -3089.65928431264, -10305.249429374866, -15427.19637479739, 0.01425, -0.107125, 0.987, 192.0, 0.0, 0.0, 0.0, 0.0, 0.0, 0.0, 0.0, 0.0, 0.0, 1.645921403089731E9, 0.0, 2022-02-27 11:23:23.089
230.0, -1511.1567391344, -4673.481544671243, -1748.4875617608502, -10273.152324337045, -574.2163150568384, 310.7563031621341, -5264.036984924911, -1436.0995812534788, -1956.7834683398569, -6439.984612463071, -4483.067033656483, -3104.724360075517, -3992.088614951207, -2810.1507198990253, -9870.351537507957, -14306.9269426974, 0.01425, -0.107125, 0.987, 192.0, 0.0, 0.0, 0.0, 0.0, 0.0, 0.0, 0.0, 0.0, 0.0, 1.645921403097871E9, 0.0, 2022-02-27 11:23:23.097
232.0, -1812.1229782251096, -4906.274963173266, -2041.0048414474538, -10594.928037515645, -896.2378974244473, 27.78321835794668, -5592.026483062087, -1857.3852607471063, -4639.618651821453, -7322.54324228087, -4455.797905421007, -3285.751138419049, -3850.5797208046583, -2846.159380216525, -10305.629409030606, -15494.072794207668, 0.01425, -0.107125, 0.987, 192.0, 0.0, 0.0, 0.0, 0.0, 0.0, 0.0, 0.0, 0.0, 0.0, 1.645921403105794E9, 0.0, 2022-02-27 11:23:23.105
234.0, -1892.812775708768, -4956.476981219886, -2028.5996232747584, -10572.41983084915, -938.8403223562625, 50.403183746717424, -5415.134777442787, -1607.5821647145945, -2140.8500839293106, -6821.528890315162, -4705.668056686885, -3206.6930182806277, -4216.164853115661, -3032.349411529233, -10005.244315295735, -14626.51218491938, 0.015125, -0.1055625, 0.9884999999999999, 192.0, 0.0, 64.0, 126.0, 96.0, 15.0, 120.0, 0.0, 0.0, 0.0, 1.645921403112421E9, 0.0, 2022-02-27 11:23:23.112
236.0, -1361.6906239617615, -4552.648014145853, -1708.4108839524847, -10228.515890659797, -487.1339186589621, 366.72507127822297, -5325.884261832745, -1527.0041259532127, -3305.867708428825, -6714.084054718502, -4346.0731918899055, -3137.0896860468015, -3803.9316301264325, -2713.032390240716, -10038.079027900581, -14783.846114140288, 0.015125, -0.1055625, 0.9884999999999999, 192.0, 0.0, 0.0, 0.0, 0.0, 0.0, 0.0, 0.0, 0.0, 0.0, 1.645921403120544E9, 0.0, 2022-02-27 11:23:23.120
238.0, -2097.0183130524533, -5106.6360004706385, -2233.25219550755, -10802.687502227725, -1165.5764181108973, -133.9316527761999, -5621.553137487547, -1879.13350810212, -3958.6504052460677, -7434.123150601763, -4703.142309563435, -3354.5945113413945, -4139.6771835896, -3087.4464616115647, -10309.004522443358, -15439.2439650588, 0.015125, -0.1055625, 0.9884999999999999, 192.0, 0.0, 0.0, 0.0, 0.0, 0.0, 0.0, 0.0, 0.0, 0.0, 1.645921403128469E9, 0.0, 2022-02-27 11:23:23.128
240.0, -1470.8788956259366, -4622.63132603542, -1760.5798555111714, -10281.60128374115, -582.5982192275786, 318.9817451216871, -5259.298415100386, -1433.3279649410208, -1915.1198166751644, -6409.809757448406, -4467.621978237865, -3109.239412455489, -3989.6969782944893, -2797.0749493926705, -9865.4788572167, -14299.439108304872, 0.015125, -0.1055625, 0.9884999999999999, 192.0, 0.0, 0.0, 0.0, 0.0, 0.0, 0.0, 0.0, 0.0, 0.0, 1.645921403135655E9, 0.0, 2022-02-27 11:23:23.135
242.0, -1742.7655151802917, -4852.742535202806, -2029.4266378196048, -10578.410098363174, -874.1767256470592, 47.20688428960852, -5569.473572906682, -1844.0189175628327, -4604.839337448995, -7294.067119844809, -4426.181844017726, -3265.6345684092726, -3832.4748077958598, -2853.2672349533123, -10292.441879801974, -15473.263320119779, 0.015125, -0.1055625, 0.9884999999999999, 192.0, 0.0, 0.0, 0.0, 0.0, 0.0, 0.0, 0.0, 0.0, 0.0, 1.64592140314224E9, 0.0, 2022-02-27 11:23:23.142
244.0, -1854.5018857123716, -4915.752102822316, -2044.2681961379287, -10589.80948803538, -953.4583632300333, 39.160256285697976, -5415.0900739538765, -1633.6442987494827, -2173.5506860674245, -6831.765989275693, -4688.054882056103, -3207.25181189201, -4208.45350127858, -3046.5204175138974, -10008.59707696403, -14653.200167799017, 0.014562499999999999, -0.10578125, 0.98925, 192.0, 0.0, 56.0, 126.0, 88.0, 15.0, 120.0, 0.0, 0.0, 0.0, 1.645921403150151E9, 0.0, 2022-02-27 11:23:23.150
246.0, -1303.6878471002397, -4497.215687896692, -1704.9463635619122, -10230.415788938499, -477.45561330981417, 372.04478645858603, -5308.494604646517, -1527.5182160756847, -3224.395599889231, -6682.299874103055, -4314.8478048858415, -3134.6980493900837, -3789.6041619305806, -2721.4589979003667, -10018.856527669017, -14756.197006249073, 0.014562499999999999, -0.10578125, 0.98925, 192.0, 0.0, 0.0, 0.0, 0.0, 0.0, 0.0, 0.0, 0.0, 0.0, 1.645921403158163E9, 0.0, 2022-02-27 11:23:23.158
248.0, -2058.774478289423, -5070.783802364326, -2244.763343902033, -10802.821612694457, -1168.2586274455343, -142.671184858225, -5626.984611390187, -1895.5620402767709, -4010.3946936601037, -7432.603231978802, -4675.649663883408, -3351.7334880511153, -4124.634459571178, -3091.5815343357963, -10314.70421727946, -15459.181721112935, 0.014562499999999999, -0.10578125, 0.98925, 192.0, 0.0, 0.0, 0.0, 0.0, 0.0, 0.0, 0.0, 0.0, 0.0, 1.645921403165492E9, 0.0, 2022-02-27 11:23:23.165
250.0, -1437.418334176342, -4594.222258832724, -1768.335910837163, -10283.948216908959, -590.2872193202043, 309.7504746616453, -5266.093345414799, -1449.1530000153782, -1895.8302612102345, -6411.374379560278, -4450.9699286186615, -3074.6165602942183, -3990.12166143914, -2821.2595368933125, -9870.57505495251, -14300.154364127442, 0.014562499999999999, -0.10578125, 0.98925, 192.0, 0.0, 0.0, 0.0, 0.0, 0.0, 0.0, 0.0, 0.0, 0.0, 1.645921403172831E9, 0.0, 2022-02-27 11:23:23.172
