%OpenBCI Raw EEG Data
%Number of channels = 16
%Sample Rate = 125 Hz
%Board = OpenBCI_GUI$BoardCytonSerialDaisy
Sample Index, EXG Channel 0, EXG Channel 1, EXG Channel 2, EXG Channel 3, EXG Channel 4, EXG Channel 5, EXG Channel 6, EXG Channel 7, EXG Channel 8, EXG Channel 9, EXG Channel 10, EXG Channel 11, EXG Channel 12, EXG Channel 13, EXG Channel 14, EXG Channel 15, Accel Channel 0, Accel Channel 1, Accel Channel 2, Other, Other, Other, Other, Other, Other, Other, Analog Channel 0, Analog Channel 1, Analog Channel 2, Timestamp, Other, Timestamp (Formatted)
0.0, -813.44703596199, -4044.257586509894, -1674.95032250289, -9960.54082638512, -281.11789001439695, 327.3189458035166, -5254.403383064674, -1425.3036886815655, 0.0, 0.0, 0.0, 0.0, 0.0, 0.0, 0.0, 0.0, 0.006, -0.05, 0.5, 192.0, 0.0, 48.0, 126.0, 112.0, 15.5, 32.0, 0.0, 0.0, 0.0, 1.645921834150161E9, 0.0, 2022-02-27 11:30:34.150
70.0, -328.57064349301385, -3674.53738147466, -1363.8587431739263, -9626.471653756102, 134.8257225544122, 578.4184430144362, -5204.067254551323, -1404.002476215658, -2880.1116800441364, -5649.40341107886, -3640.0933432690317, -2731.182006738425, -2950.8773029896383, -1920.3501248777063, -9471.30584374736, -14855.014068485985, 0.006, -0.05, 0.5, 192.0, 0.0, 0.0, 0.0, 0.0, 0.0, 0.0, 0.0, 0.0, 0.0, 1.645921834150164E9, 0.0, 2022-02-27 11:30:34.150
0.0, -173.31542650645096, -1850.74679264388, -664.8973423120192, -4772.320958652611, 62.56253273040447, 318.51235848812564, -2526.8423589280083, -604.4582253048688, -401.5043856506808, -2611.778987858175, -1932.353011650206, -1348.7266121776834, -1644.5519500436724, -1040.2948904389013, -4625.5370528146095, -7079.780945751781, 0.01, -0.10400000000000001, 0.994, 192.0, 0.0, 40.0, 126.0, 96.0, 15.5, 8.0, 0.0, 0.0, 0.0, 1.64592183424376E9, 0.0, 2022-02-27 11:30:34.243
2.0, -616.5281673107347, -3926.486244974881, -1599.9602198553348, -9833.80643532353, -159.36793796633935, 372.60358006996876, -5392.78303298748, -1639.433400563407, -3871.7244710593786, -6066.308148659247, -3762.2456267172847, -2848.3945546620557, -3033.668164452096, -2045.6540042941576, -9645.492988287568, -15374.80388579415, 0.01, -0.10400000000000001, 0.994, 192.0, 0.0, 0.0, 0.0, 0.0, 0.0, 0.0, 0.0, 0.0, 0.0, 1.645921834250119E9, 0.0, 2022-02-27 11:30:34.250
4.0, -986.047206645871, -4204.810166932365, -1810.8712805356122, -10067.18099918139, -471.91238068489804, 208.5641275124702, -5360.931797138667, -1567.0361002726675, -1984.745500653446, -5919.188966654417, -4134.58098585379, -2901.85992739915, -3530.949775093767, -2386.987493871152, -9546.27359465046, -14928.752473444043, 0.01, -0.10400000000000001, 0.994, 192.0, 0.0, 0.0, 0.0, 0.0, 0.0, 0.0, 0.0, 0.0, 0.0, 1.645921834257869E9, 0.0, 2022-02-27 11:30:34.257
6.0, -299.0439890675532, -3677.9795501207773, -1322.9774025651698, -9540.12686492525, 155.702251875669, 621.4902545798129, -5109.608782483195, -1330.062905557502, -2195.835375289366, -5450.472885426627, -3706.768596979213, -2745.710640634375, -3083.110223187235, -1980.1857447845632, -9371.125325098674, -14591.643463569102, 0.009000000000000001, -0.10500000000000001, 0.993, 192.0, 0.0, 32.0, 126.0, 88.0, 15.5, 0.0, 0.0, 0.0, 0.0, 1.645921834265868E9, 0.0, 2022-02-27 11:30:34.265
8.0, -1092.173289319669, -4294.619476153788, -1933.2247296839632, -10202.699625813917, -572.8528586450647, 90.59162027735952, -5532.995525955621, -1821.7118765964362, -3860.772116276278, -6440.409295607722, -4032.9923073044192, -3003.8732890931715, -3318.3399818348867, -2313.964344735664, -9789.192353390736, -15657.329935709231, 0.009000000000000001, -0.10500000000000001, 0.993, 192.0, 0.0, 0.0, 0.0, 0.0, 0.0, 0.0, 0.0, 0.0, 0.0, 1.645921834272498E9, 0.0, 2022-02-27 11:30:34.272
10.0, -563.0180910847296, -3873.0879274711524, -1488.380311534442, -9720.930125824229, -62.45077400812794, 515.7217998172998, -5135.134474651155, -1314.2378704831447, -1126.6620310142077, -5334.444979959128, -3920.0265908272972, -2755.2101320278803, -3335.3049558764646, -2136.4244385271595, -9295.330559650727, -14320.78502425969, 0.009000000000000001, -0.10500000000000001, 0.993, 192.0, 0.0, 0.0, 0.0, 0.0, 0.0, 0.0, 0.0, 0.0, 0.0, 1.645921834280621E9, 0.0, 2022-02-27 11:30:34.280
12.0, -611.6554870194777, -3924.96632635192, -1593.5229174522065, -9840.310792960025, -146.38157443780597, 368.982597468209, -5373.739346711558, -1641.2885953531977, -3848.746877759323, -6047.800904250254, -3756.7694493257345, -2852.596682619653, -3024.794521903339, -2036.5344925563925, -9644.53186327599, -15373.03809798218, 0.009000000000000001, -0.10500000000000001, 0.993, 192.0, 0.0, 0.0, 0.0, 0.0, 0.0, 0.0, 0.0, 0.0, 0.0, 1.645921834288488E9, 0.0, 2022-02-27 11:30:34.288
14.0, -990.2716863479241, -4202.038550619906, -1810.267783435319, -10074.266502173723, -469.7442614727332, 206.53011876703727, -5370.319529809896, -1575.9767980547904, -1984.4102244866162, -5922.7205422783545, -4145.108657492239, -2898.730683175407, -3523.9089755903456, -2373.688205920244, -9546.966498728574, -14934.273354324503, 0.009000000000000001, -0.10500000000000001, 0.993, 192.0, 0.0, 0.0, 0.0, 0.0, 0.0, 0.0, 0.0, 0.0, 0.0, 1.645921834295126E9, 0.0, 2022-02-27 11:30:34.295
16.0, -308.65523918333525, -3676.817259409101, -1319.3117164744995, -9549.738115041031, 154.4058506972612, 610.1579201409722, -5115.017904641379, -1342.7586964081165, -2203.0326370039747, -5436.1677689752305, -3727.0863326890867, -2736.1440940075036, -3087.5582203338413, -1977.5258871943818, -9375.32745305627, -14596.806716538278, 0.009500000000000001, -0.10550000000000001, 0.9915, 192.0, 0.0, 40.0, 126.0, 88.0, 15.0, 120.0, 0.0, 0.0, 0.0, 1.645921834310173E9, 0.0, 2022-02-27 11:30:34.310
18.0, -1103.3938650362331, -4302.9343250911625, -1936.8457122857228, -10216.982390520858, -581.4582802603579, 72.12907935727588, -5544.752543539113, -1835.815827347735, -3890.164660235007, -6456.502551615543, -4033.5287491713466, -2999.2688297353784, -3321.7597987365484, -2325.386086152326, -9797.261333139102, -15679.860494120181, 0.009500000000000001, -0.10550000000000001, 0.9915, 192.0, 0.0, 0.0, 0.0, 0.0, 0.0, 0.0, 0.0, 0.0, 0.0, 1.645921834318148E9, 0.0, 2022-02-27 11:30:34.318
20.0, -591.4718617763355, -3891.3045992022276, -1502.1489861189111, -9739.415018488768, -92.82679472289023, 480.7413197447443, -5154.044050460345, -1323.4691409431864, -1143.2470254000457, -5360.931797138667, -3927.6261839421018, -2783.21686783038, -3357.5002381205845, -2155.8928079477323, -9311.736740080922, -14326.797643518168, 0.009500000000000001, -0.10550000000000001, 0.9915, 192.0, 0.0, 0.0, 0.0, 0.0, 0.0, 0.0, 0.0, 0.0, 0.0, 1.645921834324704E9, 0.0, 2022-02-27 11:30:34.324
22.0, -614.3600480985699, -3924.653401929546, -1595.825147131103, -9835.3710574354, -147.4991616605713, 378.1915161837955, -5377.181515357675, -1640.7968569751808, -3844.2765288682617, -6053.478247341901, -3759.0716790046313, -2877.630636409597, -3033.0646673518027, -2040.8707309807219, -9646.096485387861, -15361.415190865422, 0.009500000000000001, -0.10550000000000001, 0.9915, 192.0, 0.0, 0.0, 0.0, 0.0, 0.0, 0.0, 0.0, 0.0, 0.0, 1.645921834332993E9, 0.0, 2022-02-27 11:30:34.332
24.0, -1005.2920586218904, -4211.918021669152, -1822.427132419006, -10084.168324967424, -472.67233999637847, 214.15206362629698, -5362.58582622836, -1581.4306237018852, -2036.8921204676774, -5945.765190811777, -4158.318538465326, -2922.222366597935, -3532.0673623165326, -2366.0662610609843, -9553.582615087345, -14951.461845810634, 0.009500000000000001, -0.10550000000000001, 0.9915, 192.0, 0.0, 0.0, 0.0, 0.0, 0.0, 0.0, 0.0, 0.0, 0.0, 1.645921834340798E9, 0.0, 2022-02-27 11:30:34.340
26.0, -303.00024783614253, -3664.792020892146, -1319.1105507744016, -9544.396048116214, 160.68669088920248, 622.1384551690168, -5122.192814611532, -1334.7567718931166, -2166.778107497467, -5436.346582930873, -3736.742286293779, -2733.4618846728667, -3086.530040088897, -1972.6308551586694, -9364.486856995447, -14579.8417424967, 0.010750000000000001, -0.10575000000000001, 0.98975, 192.0, 0.0, 48.0, 126.0, 88.0, 15.0, 112.0, 0.0, 0.0, 0.0, 1.645921834347829E9, 0.0, 2022-02-27 11:30:34.347
28.0, -1092.2179928085795, -4291.959618563606, -1930.8554447717006, -10206.298256671222, -579.3125127926485, 75.68300672566971, -5552.016860487087, -1811.8100538027352, -3893.360959692116, -6428.942850702149, -4030.6230223921566, -2983.4884981499313, -3309.0863596303893, -2310.052789455985, -9792.455708081212, -15667.81290385877, 0.010750000000000001, -0.10575000000000001, 0.98975, 192.0, 0.0, 0.0, 0.0, 0.0, 0.0, 0.0, 0.0, 0.0, 0.0, 1.64592183435542E9, 0.0, 2022-02-27 11:30:34.355
30.0, -598.423254301936, -3898.9265440614877, -1504.4065123088972, -9746.83579764793, -93.60910577882598, 474.61694176399016, -5127.53488153635, -1321.479835686664, -1138.0167171975038, -5360.954148883123, -3936.6339369575903, -2761.8486001311067, -3357.9472730096904, -2164.85585747431, -9305.075920233241, -14330.060998208643, 0.010750000000000001, -0.10575000000000001, 0.98975, 192.0, 0.0, 0.0, 0.0, 0.0, 0.0, 0.0, 0.0, 0.0, 0.0, 1.645921834362456E9, 0.0, 2022-02-27 11:30:34.362
32.0, -620.6632400349665, -3926.6874106749788, -1592.539440696173, -9841.383676693878, -153.62353964132544, 366.2333329002062, -5362.228198317075, -1645.9154064554461, -3835.9393281864322, -6068.6327300826, -3764.0337662737093, -2870.0310432947927, -3039.4125627771095, -2052.8512660087667, -9640.329735318392, -15359.068257697614, 0.010750000000000001, -0.10575000000000001, 0.98975, 192.0, 0.0, 0.0, 0.0, 0.0, 0.0, 0.0, 0.0, 0.0, 0.0, 1.645921834370539E9, 0.0, 2022-02-27 11:30:34.370
34.0, -1018.9266227396278, -4221.1045886402835, -1828.976193544411, -10101.982665298303, -490.73254951626654, 185.25125804558493, -5360.864741905301, -1590.2372110172762, -2056.9863387329983, -5957.388097928536, -4157.53622740939, -2928.3914480675994, -3541.0080600986553, -2395.7717294420877, -9561.450429135613, -14970.617290808832, 0.010750000000000001, -0.10575000000000001, 0.98975, 192.0, 0.0, 0.0, 0.0, 0.0, 0.0, 0.0, 0.0, 0.0, 0.0, 1.645921834377501E9, 0.0, 2022-02-27 11:30:34.377
36.0, -317.0147916096201, -3676.8396111535567, -1325.54785317753, -9554.856664521298, 148.61674888333667, 610.0238096742404, -5115.353180808209, -1324.899652588326, -2169.057985431908, -5442.560367889449, -3737.8375217720895, -2761.8933036200174, -3099.9634385065365, -1993.9991228579431, -9371.594711732234, -14583.708594287467, 0.013375000000000001, -0.105875, 0.988875, 192.0, 0.0, 64.0, 126.0, 88.0, 15.0, 112.0, 0.0, 0.0, 0.0, 1.645921834384908E9, 0.0, 2022-02-27 11:30:34.384
38.0, -1095.9730858770713, -4283.600066137322, -1930.09548546022, -10208.01934099428, -566.6837771754, 83.41671030720596, -5533.28609863354, -1814.8051875597464, -3939.3384980366827, -6426.819434978895, -4035.7192201279668, -3003.8062338598056, -3306.582964251395, -2318.1217692043506, -9795.540248816043, -15680.732212153938, 0.013375000000000001, -0.105875, 0.988875, 192.0, 0.0, 0.0, 0.0, 0.0, 0.0, 0.0, 0.0, 0.0, 0.0, 1.645921834393118E9, 0.0, 2022-02-27 11:30:34.393
40.0, -605.0840741496175, -3895.260857970817, -1506.9769629212574, -9751.17203607226, -89.76460573251316, 487.78211924816605, -5148.92550098008, -1324.45261769922, -1139.402525353733, -5366.7879541859575, -3949.5085417638475, -2788.514231266288, -3352.1805229402216, -2165.124078407774, -9303.667760332557, -14338.398198890472, 0.013375000000000001, -0.105875, 0.988875, 192.0, 0.0, 0.0, 0.0, 0.0, 0.0, 0.0, 0.0, 0.0, 0.0, 1.645921834400106E9, 0.0, 2022-02-27 11:30:34.400
42.0, -606.9616206838633, -3922.261765272828, -1574.792155598659, -9822.719970073696, -118.7101148021358, 398.7774728271333, -5352.6392999457485, -1610.9349263828906, -3804.713941182368, -6050.259596140337, -3762.424440672927, -2866.633578137586, -3020.972373601481, -2031.7512192429567, -9630.785540435976, -15337.029437664682, 0.013375000000000001, -0.105875, 0.988875, 192.0, 0.0, 0.0, 0.0, 0.0, 0.0, 0.0, 0.0, 0.0, 0.0, 1.645921834407647E9, 0.0, 2022-02-27 11:30:34.407
44.0, -1037.7691433154516, -4247.367888375269, -1836.8440075926792, -10102.85438333206, -492.3418751170487, 194.48252850562676, -5369.537218753961, -1585.6774551483936, -2129.651859957202, -6000.035226349262, -4168.77915487041, -2927.0279916558256, -3532.4026384833624, -2387.0545491045177, -9572.447487407624, -14992.030261997017, 0.013375000000000001, -0.105875, 0.988875, 192.0, 0.0, 0.0, 0.0, 0.0, 0.0, 0.0, 0.0, 0.0, 0.0, 1.645921834415752E9, 0.0, 2022-02-27 11:30:34.415
46.0, -330.3811347938937, -3702.3876550659725, -1332.0522108140244, -9554.230815676548, 146.2474639710741, 617.9139754669637, -5115.956677908502, -1312.6956001157284, -2112.9104033601766, -5434.245518952074, -3749.9968707557764, -2749.5551406806876, -3107.227755454511, -1988.902925122133, -9364.933891884553, -14554.003125906363, 0.014687500000000001, -0.1049375, 0.9874375, 192.0, 0.0, 64.0, 126.0, 96.0, 15.0, 104.0, 0.0, 0.0, 0.0, 1.645921834429827E9, 0.0, 2022-02-27 11:30:34.429
48.0, -1113.6309639967637, -4307.225860026581, -1942.4783518884603, -10210.947419517925, -574.3727772680256, 72.71022471311387, -5545.423095872771, -1818.7390945838804, -3954.582387755202, -6432.250908881535, -4044.123476043162, -3011.271716507878, -3317.423560312219, -2312.310315645971, -9803.676283797775, -15674.026688817346, 0.014687500000000001, -0.1049375, 0.9874375, 192.0, 0.0, 0.0, 0.0, 0.0, 0.0, 0.0, 0.0, 0.0, 0.0, 1.645921834437289E9, 0.0, 2022-02-27 11:30:34.437
50.0, -633.9848797303296, -3935.136370079085, -1516.2529368702099, -9757.341117541924, -105.88021348478955, 457.38374678894843, -5146.153884667621, -1331.5381206915524, -1147.5385603354646, -5392.134832398276, -3960.9973384138752, -2789.5200597667767, -3377.0356627745227, -2185.4865176065587, -9312.295533692304, -14336.766521545234, 0.014687500000000001, -0.1049375, 0.9874375, 192.0, 0.0, 0.0, 0.0, 0.0, 0.0, 0.0, 0.0, 0.0, 0.0, 1.645921834445255E9, 0.0, 2022-02-27 11:30:34.445
52.0, -637.4494001209022, -3956.191713355984, -1580.5589056681283, -9830.833653310974, -125.46034162763854, 374.369367881938, -5346.447866731628, -1627.0281823907117, -3805.5856592161254, -6065.481134114401, -3773.242684989296, -2884.559677190742, -3039.949004644037, -2067.134030715708, -9630.494967758057, -15339.108149899024, 0.014687500000000001, -0.1049375, 0.9874375, 192.0, 0.0, 0.0, 0.0, 0.0, 0.0, 0.0, 0.0, 0.0, 0.0, 1.645921834453261E9, 0.0, 2022-02-27 11:30:34.453
54.0, -1081.2879897699345, -4288.428042939669, -1835.7711238588245, -10107.637656645496, -482.84238372354315, 187.91111563576646, -5358.003718615022, -1581.8776585909914, -2112.8209963823556, -6008.037150864262, -4182.145498054683, -2959.72859379394, -3539.666955431337, -2411.2167848607046, -9563.238568692037, -14990.309177673958, 0.014687500000000001, -0.1049375, 0.9874375, 192.0, 0.0, 0.0, 0.0, 0.0, 0.0, 0.0, 0.0, 0.0, 0.0, 1.645921834459931E9, 0.0, 2022-02-27 11:30:34.459
56.0, -401.9290687953316, -3768.638225631503, -1331.6945829027395, -9564.244397192526, 163.77123162403484, 640.1763129444496, -5096.1530323211, -1296.0882539854354, -2137.4973222610142, -5450.741106360091, -3768.4370599314047, -2777.8748009055616, -3107.585383365796, -1992.1439280681525, -9353.892130123631, -14558.965213175443, 0.01234375, -0.10646875, 0.98571875, 192.0, 0.0, 40.0, 126.0, 80.0, 15.0, 96.0, 0.0, 0.0, 0.0, 1.645921834467965E9, 0.0, 2022-02-27 11:30:34.467
58.0, -1217.5665757139416, -4425.913623084262, -1934.8787587736558, -10212.73555907435, -557.4972102042688, 103.01919019451026, -5529.352191609406, -1801.0365129752772, -3995.0166934748527, -6486.699758374662, -4065.379985020159, -3031.7682661733947, -3308.192289852177, -2306.6106208098677, -9788.722966757176, -15672.618528916662, 0.01234375, -0.10646875, 0.98571875, 192.0, 0.0, 0.0, 0.0, 0.0, 0.0, 0.0, 0.0, 0.0, 0.0, 1.645921834475934E9, 0.0, 2022-02-27 11:30:34.475
60.0, -780.9699512684288, -4085.7871277078543, -1524.3666201074864, -9769.902797925806, -89.2281638655858, 494.0629594401073, -5126.864329202692, -1305.9006698013152, -1172.2372379585788, -5431.74212357308, -3997.4753853649363, -2819.2925833812455, -3375.158116240277, -2158.642072515735, -9299.51033586387, -14326.730588284801, 0.01234375, -0.10646875, 0.98571875, 192.0, 0.0, 0.0, 0.0, 0.0, 0.0, 0.0, 0.0, 0.0, 0.0, 1.645921834483704E9, 0.0, 2022-02-27 11:30:34.483
62.0, -800.9524108114733, -4108.474148329991, -1586.2586005042317, -9836.958031291728, -91.84331796685672, 421.1962725158063, -5330.086389790344, -1603.7376646682817, -3835.067610152675, -6060.049660211762, -3818.6167262335694, -2924.3904858100996, -3040.3289842997774, -2015.322687068306, -9619.5202612305, -15304.17237331538, 0.01234375, -0.10646875, 0.98571875, 192.0, 0.0, 0.0, 0.0, 0.0, 0.0, 0.0, 0.0, 0.0, 0.0, 1.645921834490191E9, 0.0, 2022-02-27 11:30:34.490
64.0, -1259.7219657566507, -4459.329481044946, -1842.4095919620506, -10125.563755698653, -484.98815119125265, 214.44263630421597, -5359.098954093332, -1594.9757808418015, -2191.230915931573, -6024.175110360994, -4226.31254509837, -3020.279469523367, -3552.6533189598704, -2388.6862264497554, -9567.910083283197, -14993.706642831165, 0.01234375, -0.10646875, 0.98571875, 192.0, 0.0, 0.0, 0.0, 0.0, 0.0, 0.0, 0.0, 0.0, 0.0, 1.645921834497359E9, 0.0, 2022-02-27 11:30:34.497
66.0, -546.1872275098834, -3924.4298844849927, -1334.7120684042059, -9570.994624018029, 159.12206877733098, 611.6331352750225, -5115.979029652957, -1294.4118731512874, -2165.6158167857907, -5502.03835988502, -3808.3125720396724, -2851.8367233081726, -3126.2937934748884, -2002.2692683064067, -9355.99319410243, -14552.997297405875, 0.010171875, -0.108234375, 0.985859375, 192.0, 0.0, 32.0, 126.0, 72.0, 15.0, 104.0, 0.0, 0.0, 0.0, 1.645921834505065E9, 0.0, 2022-02-27 11:30:34.505
68.0, -1310.907460559304, -4528.396371411845, -1940.6678605875804, -10218.144681232534, -549.8082101116431, 79.61691374980376, -5518.779816482046, -1813.9781730149, -4039.94369983002, -6511.532546464508, -4085.876534685676, -3041.781847689372, -3316.060103900445, -2323.463836129169, -9798.043644195039, -15690.857552392192, 0.010171875, -0.108234375, 0.985859375, 192.0, 0.0, 0.0, 0.0, 0.0, 0.0, 0.0, 0.0, 0.0, 0.0, 1.645921834513039E9, 0.0, 2022-02-27 11:30:34.513
70.0, -816.5315766968223, -4116.543128078357, -1531.027439955168, -9781.972739931673, -98.25826862552985, 475.33219758655997, -5136.20735838501, -1295.2388876961336, -1202.233279017601, -5429.797521805468, -4022.3752286881486, -2840.1020574691365, -3391.4748896926512, -2203.7478928265446, -9304.74064406641, -14341.370980903028, 0.010171875, -0.108234375, 0.985859375, 192.0, 0.0, 0.0, 0.0, 0.0, 0.0, 0.0, 0.0, 0.0, 0.0, 1.645921834520933E9, 0.0, 2022-02-27 11:30:34.520
72.0, -751.9350352209849, -4085.8541829412206, -1569.472440418296, -9821.445920639744, -87.88705919826737, 413.3284584675382, -5338.8482736168235, -1592.2041645293432, -3807.2620400502733, -6092.504393160867, -3804.803348160189, -2919.7413229633958, -3035.009269119414, -2037.2050448900516, -9610.333694259369, -15307.949818128327, 0.010171875, -0.108234375, 0.985859375, 192.0, 0.0, 0.0, 0.0, 0.0, 0.0, 0.0, 0.0, 0.0, 0.0, 1.645921834527521E9, 0.0, 2022-02-27 11:30:34.527
74.0, -1177.489897905576, -4388.273285421525, -1842.7448681288802, -10123.172119041934, -469.52074402818016, 201.90330766478868, -5372.152372855231, -1582.5929144135612, -2211.414541174715, -6045.72219201591, -4205.815995432853, -2970.9268177660488, -3544.6513944448707, -2403.147805112339, -9567.552455371911, -15015.745462864097, 0.010171875, -0.108234375, 0.985859375, 192.0, 0.0, 0.0, 0.0, 0.0, 0.0, 0.0, 0.0, 0.0, 0.0, 1.64592183453555E9, 0.0, 2022-02-27 11:30:34.535
76.0, -448.19717981781724, -3810.9277261409434, -1332.029859069569, -9557.672984322666, 165.894647347289, 657.387156175036, -5091.883849130136, -1267.7909455050167, -2091.4750804275373, -5436.614803864337, -3779.679987392424, -2772.935065380939, -3117.107226503757, -1983.292637263851, -9341.710429395489, -14533.595983218669, 0.01, -0.106, 0.99, 192.0, 0.0, 40.0, 126.0, 88.0, 15.0, 120.0, 0.0, 0.0, 0.0, 1.645921834543443E9, 0.0, 2022-02-27 11:30:34.543
78.0, -1195.6618661477407, -4407.764006586553, -1928.4414563705275, -10199.16805018998, -547.4836286882912, 104.82968149539012, -5521.886708961333, -1798.8013385297465, -4033.4616939379807, -6469.667729099719, -4055.1428860596284, -3025.9568126150148, -3303.31960956092, -2291.0538066689737, -9787.851248723418, -15680.285177264832, 0.01, -0.106, 0.99, 192.0, 0.0, 0.0, 0.0, 0.0, 0.0, 0.0, 0.0, 0.0, 0.0, 1.645921834557249E9, 0.0, 2022-02-27 11:30:34.557
80.0, -736.4899798023678, -4033.975784060453, -1536.503617346718, -9773.970815416673, -117.68193455719168, 468.6713777388785, -5158.246178417942, -1334.6003096819295, -1167.744537323062, -5384.244666605552, -3998.034178976319, -2806.8426617196396, -3394.0006368161007, -2166.0181481859863, -9306.752301067389, -14349.663478095947, 0.01, -0.106, 0.99, 192.0, 0.0, 0.0, 0.0, 0.0, 0.0, 0.0, 0.0, 0.0, 0.0, 1.645921834565233E9, 0.0, 2022-02-27 11:30:34.565
82.0, -662.7515748443097, -3986.6347893041125, -1559.4365071578632, -9799.943542473738, -91.55274528893773, 419.56459517056885, -5349.621814444282, -1608.856214148547, -3754.7801440692124, -6011.367560788102, -3779.724690881335, -2870.8804095840947, -3043.5923389902523, -2037.3391553567835, -9614.357008261324, -15298.472678479277, 0.01, -0.106, 0.99, 192.0, 0.0, 0.0, 0.0, 0.0, 0.0, 0.0, 0.0, 0.0, 0.0, 1.645921834573202E9, 0.0, 2022-02-27 11:30:34.573
84.0, -1120.0906181443474, -4324.727275935087, -1850.8585513661567, -10122.166290541445, -495.20289840732795, 186.77117666854582, -5381.58480901537, -1581.6764928908938, -2249.211341048639, -6039.463703568424, -4187.979303357519, -2951.9725384679487, -3547.0653828460436, -2415.7094854962215, -9587.08788002585, -15050.54712898101, 0.01, -0.106, 0.99, 192.0, 0.0, 0.0, 0.0, 0.0, 0.0, 0.0, 0.0, 0.0, 0.0, 1.645921834580208E9, 0.0, 2022-02-27 11:30:34.580
86.0, -381.9242575078318, -3740.0950479620756, -1324.5867281659519, -9555.057830221394, 163.43595545720524, 631.1685599289608, -5105.943096392524, -1293.5625068619856, -2035.416905333627, -5410.530318084993, -3766.8500860750783, -2753.936082593928, -3126.874938830726, -2000.257611305429, -9345.376115486159, -14525.079968581196, 0.012, -0.106, 0.996, 192.0, 0.0, 48.0, 126.0, 88.0, 15.5, 16.0, 0.0, 0.0, 0.0, 1.645921834587924E9, 0.0, 2022-02-27 11:30:34.587
88.0, -1134.2616241290123, -4329.421142270701, -1921.288898144829, -10192.171954175468, -555.2173322698275, 96.33601860237344, -5550.496941864127, -1815.8557195491458, -3999.777615043833, -6435.044876938448, -4030.801836347799, -2999.6264576466633, -3288.992141365068, -2285.890553699798, -9790.354644102412, -15682.877979621648, 0.012, -0.106, 0.996, 192.0, 0.0, 0.0, 0.0, 0.0, 0.0, 0.0, 0.0, 0.0, 0.0, 1.645921834595714E9, 0.0, 2022-02-27 11:30:34.595
90.0, -685.550354188723, -3963.2101611149506, -1529.2840038876539, -9771.735640971141, -120.5653095919263, 454.7909444321328, -5141.571777054283, -1318.2835362295552, -1137.4802753305764, -5327.024200799966, -3975.54832405428, -2764.039071087727, -3385.708139623182, -2196.8859072787654, -9306.104100478186, -14345.684867582902, 0.012, -0.106, 0.996, 192.0, 0.0, 0.0, 0.0, 0.0, 0.0, 0.0, 0.0, 0.0, 0.0, 1.64592183460283E9, 0.0, 2022-02-27 11:30:34.602
92.0, -609.4426643184024, -3913.589288424169, -1547.768896552193, -9791.047548180526, -79.54985851643784, 411.62972588893484, -5328.76763686748, -1597.5015279652512, -3730.170873423919, -5974.151906270016, -3763.139696495497, -2856.508237899332, -3034.919862141593, -2046.9504054725655, -9605.840993623853, -15290.582512686553, 0.012, -0.106, 0.996, 192.0, 0.0, 0.0, 0.0, 0.0, 0.0, 0.0, 0.0, 0.0, 0.0, 1.645921834609484E9, 0.0, 2022-02-27 11:30:34.609
94.0, -1077.8011176349066, -4277.274522456471, -1844.3094902407518, -10115.125491038025, -491.6936745278448, 197.8352901739228, -5372.979387400078, -1607.023371103212, -2240.8517886223544, -6027.773741218298, -4176.535210196401, -2920.8812619306163, -3534.6154611844377, -2403.214860345705, -9581.254074723014, -15050.949460381205, 0.012, -0.106, 0.996, 192.0, 0.0, 0.0, 0.0, 0.0, 0.0, 0.0, 0.0, 0.0, 0.0, 1.645921834617363E9, 0.0, 2022-02-27 11:30:34.617
96.0, -338.628928497902, -3707.2603353572295, -1314.908422816804, -9544.865434749774, 170.74497589409066, 648.357051415092, -5094.096671831211, -1285.515878858075, -2003.6997799515464, -5374.387547300762, -3755.36128942505, -2725.7505328357856, -3116.056694514358, -1988.1876692995631, -9336.658935148589, -14517.010988832832, 0.008, -0.106, 0.99, 192.0, 0.0, 32.0, 126.0, 88.0, 15.0, 120.0, 0.0, 0.0, 0.0, 1.645921834625353E9, 0.0, 2022-02-27 11:30:34.625
98.0, -1082.2044112926021, -4275.911066044697, -1906.0673601707651, -10185.354672116599, -534.072582015107, 127.60610909534802, -5521.61848802787, -1794.778024527791, -4003.152728456584, -6388.508544982498, -4008.0477604922967, -2972.3349776667333, -3268.1826672771776, -2271.317216314938, -9783.64912076582, -15677.446505719008, 0.008, -0.106, 0.99, 192.0, 0.0, 0.0, 0.0, 0.0, 0.0, 0.0, 0.0, 0.0, 0.0, 1.645921834632786E9, 0.0, 2022-02-27 11:30:34.632
100.0, -653.3191386841702, -3932.6329747000905, -1527.1382364199444, -9770.260425837092, -119.24655666906318, 474.90751444190914, -5134.441570573041, -1313.813187338494, -1127.8690252147944, -5347.341936509841, -3970.45212631847, -2775.863143904584, -3382.489488421618, -2150.0142991559865, -9302.930152765532, -14348.456483895361, 0.008, -0.106, 0.99, 192.0, 0.0, 0.0, 0.0, 0.0, 0.0, 0.0, 0.0, 0.0, 0.0, 1.645921834640129E9, 0.0, 2022-02-27 11:30:34.640
102.0, -557.4525067153581, -3874.1831629494627, -1532.5250068336734, -9781.950388187217, -73.87251542478984, 431.54513019861344, -5318.865814073779, -1587.6444086604606, -3676.6831489423694, -5949.095600735617, -3743.559568352648, -2835.631708578075, -3015.4514927210207, -2034.9251669556104, -9600.007188321017, -15274.042221789627, 0.008, -0.106, 0.99, 192.0, 0.0, 0.0, 0.0, 0.0, 0.0, 0.0, 0.0, 0.0, 0.0, 1.645921834648021E9, 0.0, 2022-02-27 11:30:34.648
104.0, -1040.5184078834543, -4240.528254571946, -1832.55247265726, -10111.52686018072, -489.6820175268671, 191.10741509287539, -5377.896771180245, -1579.955408567835, -2213.5156051535137, -5960.025603774262, -4155.1892942415825, -2944.149427908591, -3515.7729406086137, -2407.841671447953, -9578.795382832932, -15044.042771344517, 0.008, -0.106, 0.99, 192.0, 0.0, 0.0, 0.0, 0.0, 0.0, 0.0, 0.0, 0.0, 0.0, 1.645921834656114E9, 0.0, 2022-02-27 11:30:34.656
106.0, -312.857367140933, -3691.3905967939613, -1308.0240855245693, -9537.042324190417, 168.9791880821214, 640.4445338779133, -5093.470822986463, -1286.2087829361897, -1983.940837853055, -5383.551762527438, -3738.7092398058467, -2697.4308726109116, -3100.6786943291063, -1986.9806750989767, -9337.195377015518, -14511.154831785541, 0.01, -0.10400000000000001, 0.99, 192.0, 0.0, 40.0, 126.0, 96.0, 15.0, 120.0, 0.0, 0.0, 0.0, 1.645921834662779E9, 0.0, 2022-02-27 11:30:34.662
108.0, -1065.5076581844876, -4267.08212698485, -1900.4794240569383, -10181.800744748205, -528.6411081124674, 105.85786174033424, -5524.8594909738895, -1787.2901901352634, -4008.4053884035816, -6404.065359123392, -3994.1449754410955, -2947.1892651545127, -3259.5772456618843, -2287.3881205783036, -9782.643292265331, -15686.700127923505, 0.01, -0.10400000000000001, 0.99, 192.0, 0.0, 0.0, 0.0, 0.0, 0.0, 0.0, 0.0, 0.0, 0.0, 1.64592183467778E9, 0.0, 2022-02-27 11:30:34.677
110.0, -643.3949641460138, -3921.032419327786, -1525.6183177969835, -9777.480039296155, -121.66054507023634, 468.11258412749584, -5149.0149079579005, -1322.7315333761615, -1124.560967035409, -5363.926930895678, -3966.4511640609703, -2766.296597277713, -3386.646912890305, -2185.732386795567, -9306.46172838947, -14354.290289198196, 0.01, -0.10400000000000001, 0.99, 192.0, 0.0, 0.0, 0.0, 0.0, 0.0, 0.0, 0.0, 0.0, 0.0, 1.645921834684926E9, 0.0, 2022-02-27 11:30:34.684
112.0, -551.4398874568806, -3864.974244233876, -1525.4842073302518, -9776.585969517942, -64.14950658673126, 417.95526956978676, -5322.352686208807, -1585.7221586373043, -3667.63069243797, -5946.79337105672, -3739.603309584059, -2825.3946096175446, -3022.469940479987, -2020.7318092264902, -9598.33080748687, -15264.430971673844, 0.01, -0.10400000000000001, 0.99, 192.0, 0.0, 0.0, 0.0, 0.0, 0.0, 0.0, 0.0, 0.0, 0.0, 1.645921834692514E9, 0.0, 2022-02-27 11:30:34.692
114.0, -1044.497018396499, -4246.674984297155, -1838.1627605155422, -10113.784386370706, -505.23883166776085, 172.443708472694, -5403.266001137019, -1601.5695454561169, -2260.0742888539185, -6018.900098669541, -4159.167904754628, -2909.9736106364267, -3532.8496733724683, -2408.7133894817102, -9587.289045725947, -15063.645251231821, 0.01, -0.10400000000000001, 0.99, 192.0, 0.0, 0.0, 0.0, 0.0, 0.0, 0.0, 0.0, 0.0, 0.0, 1.645921834700286E9, 0.0, 2022-02-27 11:30:34.700
116.0, -333.06334412853056, -3694.028102639688, -1313.9249460607705, -9543.189053915627, 161.33489147840638, 637.2705861652597, -5095.169555565066, -1286.4099486362875, -1967.3111399783065, -5367.883189664268, -3748.5887108550924, -2705.119872703537, -3127.5454911643856, -1992.6803699350799, -9338.983516571941, -14500.62716014709, 0.01, -0.10200000000000001, 0.984, 192.0, 0.0, 40.0, 126.0, 104.0, 15.0, 96.0, 0.0, 0.0, 0.0, 1.645921834708412E9, 0.0, 2022-02-27 11:30:34.708
118.0, -1078.8963531132167, -4280.046138768928, -1904.2568688698852, -10183.365366860076, -549.1600095224392, 113.3009926439515, -5533.174339911264, -1796.5438123397605, -4048.347955745215, -6420.046856408937, -4013.322772183749, -2969.563361354275, -3286.645208197261, -2290.4503095686805, -9785.41490857779, -15681.58157844324, 0.01, -0.10200000000000001, 0.984, 192.0, 0.0, 0.0, 0.0, 0.0, 0.0, 0.0, 0.0, 0.0, 0.0, 1.645921834715084E9, 0.0, 2022-02-27 11:30:34.715
120.0, -647.2394641923266, -3912.806977368233, -1527.2052916533103, -9782.151553887315, -129.4389521406832, 460.3565288015043, -5146.9585474680125, -1327.7606758786055, -1135.9603567076156, -5362.004680872522, -3981.873867735132, -2768.867047890073, -3406.9422968557237, -2201.57977361438, -9308.406330157082, -14359.654707867468, 0.01, -0.10200000000000001, 0.984, 192.0, 0.0, 0.0, 0.0, 0.0, 0.0, 0.0, 0.0, 0.0, 0.0, 1.645921834723374E9, 0.0, 2022-02-27 11:30:34.723
122.0, -545.2037507538498, -3857.6652237969906, -1520.8797479724585, -9770.59570200392, -62.09314609684302, 422.76089462767777, -5328.834692100846, -1565.7620508387151, -3658.175904533375, -5900.011169911763, -3745.884149776, -2826.288679395757, -3033.534053985364, -2042.3012426258617, -9593.636941151255, -15258.328945437544, 0.01, -0.10200000000000001, 0.984, 192.0, 0.0, 0.0, 0.0, 0.0, 0.0, 0.0, 0.0, 0.0, 0.0, 1.645921834730084E9, 0.0, 2022-02-27 11:30:34.730
124.0, -1046.888655053217, -4242.025821450451, -1838.430981449006, -10119.439377717898, -501.72960778827763, 161.53605717850414, -5380.310759581418, -1597.926211109902, -2278.3803675628146, -6033.808712221231, -4167.035718802896, -2915.3603810501554, -3530.0333535710997, -2403.3489708124366, -9587.669025381689, -15070.663698990787, 0.01, -0.10200000000000001, 0.984, 192.0, 0.0, 0.0, 0.0, 0.0, 0.0, 0.0, 0.0, 0.0, 0.0, 1.645921834738103E9, 0.0, 2022-02-27 11:30:34.738
126.0, -313.8631956414218, -3672.145744817942, -1307.8899750578375, -9551.638013319733, 164.8888188468002, 621.2667371352599, -5090.00630259589, -1283.4371666237316, -1953.38600318265, -5370.945378654645, -3745.6829840759024, -2706.036294226205, -3122.3598864507544, -2008.0136666314206, -9326.801815843799, -14501.7223956254, 0.012, -0.106, 0.988, 192.0, 0.0, 48.0, 126.0, 88.0, 15.0, 112.0, 0.0, 0.0, 0.0, 1.645921834744676E9, 0.0, 2022-02-27 11:30:34.744
128.0, -1049.2802917099348, -4238.673059782155, -1891.3152088302625, -10178.939721457926, -531.9938697807634, 89.67519875469193, -5524.56891829597, -1811.854757291646, -4042.0447638088185, -6391.615437461786, -3990.367530628149, -2969.20573344299, -3264.584036419873, -2302.609658552368, -9778.798792219019, -15696.669005950573, 0.012, -0.106, 0.988, 192.0, 0.0, 0.0, 0.0, 0.0, 0.0, 0.0, 0.0, 0.0, 0.0, 1.645921834752694E9, 0.0, 2022-02-27 11:30:34.752
130.0, -661.1869527324383, -3939.6290707146018, -1536.2577481577098, -9786.84542022293, -142.671184858225, 433.73560115523355, -5168.7962018008475, -1326.5983851669296, -1133.9710514510932, -5366.005643130022, -3978.0517194332747, -2763.480277476344, -3398.8956688518133, -2225.8537680928434, -9310.708559835979, -14371.70229812888, 0.012, -0.106, 0.988, 192.0, 0.0, 0.0, 0.0, 0.0, 0.0, 0.0, 0.0, 0.0, 0.0, 1.645921834760605E9, 0.0, 2022-02-27 11:30:34.760
132.0, -531.2786139581935, -3847.2716626252727, -1513.9060037024026, -9757.676393708754, -59.366233273295556, 437.6024529460017, -5321.145692008221, -1559.7270798357822, -3633.410171676895, -5941.205434942894, -3743.827789286112, -2811.3353623551566, -3028.594318460741, -2030.7006872535574, -9588.585446904355, -15240.78282604013, 0.012, -0.106, 0.988, 192.0, 0.0, 0.0, 0.0, 0.0, 0.0, 0.0, 0.0, 0.0, 0.0, 1.645921834767734E9, 0.0, 2022-02-27 11:30:34.767
134.0, -1072.6155129212752, -4257.649690824711, -1860.9391881155002, -10133.632735447018, -524.684849343878, 153.02004254103215, -5410.060931451432, -1612.343086283575, -2377.6891681777442, -6074.5112388743455, -4173.629483417211, -2928.3020410897784, -3536.738876907692, -2422.9738024441963, -9604.701054656633, -15110.941542499251, 0.012, -0.106, 0.988, 192.0, 0.0, 0.0, 0.0, 0.0, 0.0, 0.0, 0.0, 0.0, 0.0, 1.645921834775571E9, 0.0, 2022-02-27 11:30:34.775
136.0, -332.6163092394244, -3677.398404764939, -1320.004620552614, -9551.638013319733, 152.99769079657685, 612.3707428420475, -5110.234631327943, -1280.1514601888014, -1906.4026363375947, -5365.089221607354, -3766.6042168860695, -2718.6650298434533, -3142.2976425048882, -2021.5588237713366, -9325.438359432026, -14483.036337260764, 0.006, -0.10200000000000001, 0.986, 192.0, 0.0, 24.0, 126.0, 104.0, 15.0, 104.0, 0.0, 0.0, 0.0, 1.645921834783236E9, 0.0, 2022-02-27 11:30:34.783
138.0, -1070.559152431387, -4272.871228798775, -1905.1732903925529, -10185.868762239072, -538.2076547393388, 86.12127138629812, -5530.290964876529, -1810.5360043687826, -4057.6015779497125, -6425.478330311576, -4002.1468999560957, -2970.122154965658, -3275.4693359696075, -2288.2598386120603, -9783.291492854536, -15689.114116324678, 0.006, -0.10200000000000001, 0.986, 192.0, 0.0, 0.0, 0.0, 0.0, 0.0, 0.0, 0.0, 0.0, 0.0, 1.645921834790331E9, 0.0, 2022-02-27 11:30:34.790
140.0, -666.6854818684437, -3934.264652045328, -1541.3986493824304, -9790.309940613502, -139.81016156794567, 435.1437610559179, -5162.828286031281, -1336.2990422605328, -1138.262586386512, -5388.983236430077, -3987.6406178046013, -2776.5783997271537, -3414.1619103147877, -2226.479616937592, -9307.825184801244, -14368.729516116324, 0.006, -0.10200000000000001, 0.986, 192.0, 0.0, 0.0, 0.0, 0.0, 0.0, 0.0, 0.0, 0.0, 0.0, 1.645921834805012E9, 0.0, 2022-02-27 11:30:34.805
142.0, -560.9617305948414, -3874.205514693918, -1523.249032884721, -9769.209893847692, -63.07662285287653, 429.22054877526153, -5316.720046606069, -1561.8057920701258, -3638.4169624348838, -5942.770057054765, -3749.2816149332066, -2831.898967254039, -3035.9033388976263, -2046.5704258168253, -9583.75747010201, -15237.966506238761, 0.006, -0.10200000000000001, 0.986, 192.0, 0.0, 0.0, 0.0, 0.0, 0.0, 0.0, 0.0, 0.0, 0.0, 1.645921834812928E9, 0.0, 2022-02-27 11:30:34.812
144.0, -1096.621286466275, -4292.496060430534, -1858.1899235474973, -10132.626906946529, -511.2514509262384, 159.97143506663264, -5386.323378839896, -1607.3139437811308, -2346.7096503626885, -6078.288683687292, -4182.883105621709, -2946.8986924765936, -3542.6173856994374, -2427.2876891240703, -9592.027615550473, -15090.266178878092, 0.009000000000000001, -0.10200000000000001, 0.988, 192.0, 0.0, 48.0, 126.0, 104.0, 15.0, 120.0, 0.0, 0.0, 0.0, 1.645921834819885E9, 0.0, 2022-02-27 11:30:34.819
146.0, -375.17403068232903, -3732.629565314003, -1321.6362978978514, -9553.962594743085, 163.72652813512423, 638.097600710106, -5086.72059616096, -1265.9581024596814, -1953.6989276050244, -5385.54106778396, -3766.2912924636953, -2733.9759747953385, -3134.1839592676115, -2019.480111536993, -9320.520975651858, -14487.618444874102, 0.009000000000000001, -0.10200000000000001, 0.988, 192.0, 0.0, 0.0, 0.0, 0.0, 0.0, 0.0, 0.0, 0.0, 0.0, 1.645921834827577E9, 0.0, 2022-02-27 11:30:34.827
148.0, -1132.719353761596, -4342.876892432796, -1898.646581011603, -10178.649148780007, -509.7985875366435, 124.0298299824989, -5514.108301890887, -1786.619637801604, -4084.6471887406337, -6451.763981791018, -4010.9534872714867, -3004.409730960099, -3264.7404986310603, -2288.5504112899794, -9765.946539157218, -15678.854665619692, 0.009000000000000001, -0.10200000000000001, 0.988, 192.0, 0.0, 0.0, 0.0, 0.0, 0.0, 0.0, 0.0, 0.0, 0.0, 1.645921834835529E9, 0.0, 2022-02-27 11:30:34.835
150.0, -812.9776493284285, -4087.6199707531896, -1563.5268763931842, -9812.66168506881, -140.4583621571496, 445.2467495497167, -5153.932291738069, -1314.5954983944296, -1186.4752991766095, -5451.054030782465, -4020.609440876179, -2817.1691676579917, -3421.135654584844, -2220.7128668681225, -9300.493812619903, -14365.689678870402, 0.009000000000000001, -0.10200000000000001, 0.988, 192.0, 0.0, 0.0, 0.0, 0.0, 0.0, 0.0, 0.0, 0.0, 0.0, 1.645921834843546E9, 0.0, 2022-02-27 11:30:34.843
152.0, -729.516235532312, -4053.9805953479527, -1519.8739194719697, -9767.354699057902, -26.285651479441107, 456.6461392219233, -5282.633636311726, -1534.894291745936, -3654.5549219316154, -5978.175220271972, -3787.3913392295053, -2880.1787352775023, -3035.3221935417887, -2035.7298297560014, -9560.802228546409, -15203.813040711051, 0.009000000000000001, -0.10200000000000001, 0.988, 192.0, 0.0, 0.0, 0.0, 0.0, 0.0, 0.0, 0.0, 0.0, 0.0, 1.645921834850567E9, 0.0, 2022-02-27 11:30:34.850
154.0, -1324.4079142103094, -4515.924098005784, -1880.7875371918128, -10154.129285112534, -510.6032503370345, 168.01806307054318, -5378.92495142519, -1591.2206877733097, -2466.8949802988745, -6146.729725209442, -4230.671135267155, -3007.3601612281996, -3546.238368301197, -2426.080694923484, -9591.84880159483, -15108.460498864712, 0.009500000000000001, -0.10500000000000001, 0.989, 192.0, 0.0, 40.0, 126.0, 80.0, 15.0, 120.0, 0.0, 0.0, 0.0, 1.645921834857152E9, 0.0, 2022-02-27 11:30:34.857
156.0, -612.3707428420475, -3975.2577513763613, -1342.4681237301975, -9579.063603766395, 171.97432183913253, 646.6583188364887, -5058.378584191631, -1243.427544048732, -1989.5734774557923, -5456.1278767738195, -3836.4981217978147, -2822.7794555162736, -3155.485171733519, -2013.4004370451496, -9310.373283669149, -14462.562139339703, 0.009500000000000001, -0.10500000000000001, 0.989, 192.0, 0.0, 0.0, 0.0, 0.0, 0.0, 0.0, 0.0, 0.0, 0.0, 1.645921834865229E9, 0.0, 2022-02-27 11:30:34.865
158.0, -1342.937510363759, -4553.51973217961, -1911.1412061621197, -10184.795878505216, -493.54886931763525, 134.69161208768037, -5508.050979143498, -1777.947160952945, -4198.909306396164, -6515.779377911017, -4061.2002088070167, -3072.3143306153215, -3264.494629442052, -2288.5280595455242, -9768.74050721413, -15679.212293530976, 0.009500000000000001, -0.10500000000000001, 0.989, 192.0, 0.0, 0.0, 0.0, 0.0, 0.0, 0.0, 0.0, 0.0, 0.0, 1.645921834873074E9, 0.0, 2022-02-27 11:30:34.873
160.0, -980.660436232142, -4253.201693678105, -1588.2032022718433, -9832.487682400666, -149.15319075026403, 443.01157510418597, -5149.73016378047, -1317.3447629624322, -1276.2399049091227, -5501.010179640077, -4078.1875345930503, -2871.059223539737, -3437.5641867594945, -2226.8372448488767, -9310.954429024987, -14383.124039545542, 0.009500000000000001, -0.10500000000000001, 0.989, 192.0, 0.0, 0.0, 0.0, 0.0, 0.0, 0.0, 0.0, 0.0, 0.0, 1.645921834879743E9, 0.0, 2022-02-27 11:30:34.879
162.0, -805.0427800467945, -4116.498424589447, -1526.4900358307405, -9767.60056824691, -21.07769502135456, 465.34096781503774, -5284.555886334883, -1526.5794428085617, -3659.4276022228723, -5986.937104098452, -3808.9384208844212, -2916.9026514175716, -3042.0277168783805, -2014.0709893788087, -9559.41642039018, -15191.452526027266, 0.009500000000000001, -0.10500000000000001, 0.989, 192.0, 0.0, 0.0, 0.0, 0.0, 0.0, 0.0, 0.0, 0.0, 0.0, 1.645921834887879E9, 0.0, 2022-02-27 11:30:34.887
164.0, -1347.810190655016, -4544.176702997292, -1888.4541855399832, -10154.643375235008, -499.2485641537385, 180.17741205423025, -5364.038689617955, -1588.6502371609495, -2517.7675506791534, -6157.2797485923475, -4239.03068769344, -3062.9042461996373, -3542.9079583773564, -2440.4528666082465, -9593.435775451157, -15116.931810013273, 0.009750000000000002, -0.10650000000000001, 0.9884999999999999, 192.0, 0.0, 40.0, 126.0, 80.0, 15.0, 112.0, 0.0, 0.0, 0.0, 1.645921834895815E9, 0.0, 2022-02-27 11:30:34.895
166.0, -595.6963414783885, -3964.3724518266267, -1344.3680220088986, -9564.020879747974, 168.82272587093425, 652.4027171615026, -5066.7157848734605, -1238.778381202028, -1953.7212793494798, -5436.234824208596, -3823.5341100137366, -2795.3315133251567, -3157.8544566457817, -2023.995163916965, -9304.003036499385, -14449.32990662216, 0.009750000000000002, -0.10650000000000001, 0.9884999999999999, 192.0, 0.0, 0.0, 0.0, 0.0, 0.0, 0.0, 0.0, 0.0, 0.0, 1.645921834902902E9, 0.0, 2022-02-27 11:30:34.902
168.0, -1267.232151893634, -4482.016501667083, -1906.3802845931393, -10169.44023006442, -492.58774430605706, 141.799466824468, -5502.418339540761, -1775.264951618308, -4184.984169600507, -6492.354749721855, -4035.741571872422, -3036.7974086758386, -3260.583074162373, -2278.179201862717, -9767.913492669284, -15677.401802230097, 0.009750000000000002, -0.10650000000000001, 0.9884999999999999, 192.0, 0.0, 0.0, 0.0, 0.0, 0.0, 0.0, 0.0, 0.0, 0.0, 1.64592183491043E9, 0.0, 2022-02-27 11:30:34.910
170.0, -887.051330453316, -4159.927864066108, -1574.2110102428212, -9817.154385704325, -131.11533297483123, 450.49940949671384, -5146.064477689801, -1317.2106524957005, -1216.4713402356315, -5471.550580447982, -4039.0943335407183, -2842.7842668037733, -3419.548680728517, -2219.4835209230805, -9303.89127777711, -14378.363117976562, 0.009750000000000002, -0.10650000000000001, 0.9884999999999999, 192.0, 0.0, 0.0, 0.0, 0.0, 0.0, 0.0, 0.0, 0.0, 0.0, 1.645921834925622E9, 0.0, 2022-02-27 11:30:34.925
172.0, -680.1859355194492, -4016.2508507073944, -1507.222832110266, -9745.517044725066, 1.072883733854739, 477.5003167987248, -5271.211894895065, -1516.2976403591206, -3593.7805287576352, -5933.963469739374, -3770.336958210106, -2874.2778747413013, -3016.054989821314, -2016.1273498686971, -9547.681754551144, -15183.808229423552, 0.009750000000000002, -0.10650000000000001, 0.9884999999999999, 192.0, 0.0, 0.0, 0.0, 0.0, 0.0, 0.0, 0.0, 0.0, 0.0, 1.645921834932193E9, 0.0, 2022-02-27 11:30:34.932
174.0, -1228.0495438634807, -4428.752294630086, -1876.0489673672878, -10141.053514606181, -501.2602211547162, 175.39413874079452, -5382.009492160022, -1605.279935035698, -2484.3740444629248, -6127.440169744512, -4197.031759861918, -2990.953980798004, -3523.774865123614, -2427.8688344799084, -9593.972217318085, -15131.32633344249, 0.008875000000000001, -0.10825000000000001, 0.98725, 192.0, 0.0, 32.0, 126.0, 72.0, 15.0, 104.0, 0.0, 0.0, 0.0, 1.645921834940207E9, 0.0, 2022-02-27 11:30:34.940
176.0, -465.1621538593953, -3833.167711873974, -1332.8568736144155, -9552.956766242596, 161.82662985642312, 649.4969903823127, -5079.590389679717, -1233.168093343746, -1888.4765372844383, -5393.073605665399, -3792.107557309575, -2756.6853471619306, -3149.226683286033, -2006.4713962640044, -9302.997207998897, -14448.659354288502, 0.008875000000000001, -0.10825000000000001, 0.98725, 192.0, 0.0, 0.0, 0.0, 0.0, 0.0, 0.0, 0.0, 0.0, 0.0, 1.645921834948107E9, 0.0, 2022-02-27 11:30:34.948
178.0, -1138.4190485976992, -4357.561988539933, -1889.0129791513657, -10156.81149444717, -495.73934027425537, 143.3864406807948, -5510.621429755858, -1763.2173613568975, -4133.48575037548, -6440.632813052275, -3988.64644630509, -2996.564268656286, -3245.7862193329597, -2252.6311579503013, -9767.801733947008, -15678.072354563756, 0.008875000000000001, -0.10825000000000001, 0.98725, 192.0, 0.0, 0.0, 0.0, 0.0, 0.0, 0.0, 0.0, 0.0, 0.0, 1.645921834955156E9, 0.0, 2022-02-27 11:30:34.955
180.0, -784.479175147912, -4055.5005139709133, -1571.2605799747205, -9818.22726943818, -161.1113740338533, 443.34685127101557, -5149.976032969479, -1319.4458269412312, -1182.6755026192072, -5443.253271967563, -4011.266411693861, -2814.486958323355, -3428.958765144201, -2219.0588377784297, -9309.881545291131, -14386.901484358488, 0.008875000000000001, -0.10825000000000001, 0.98725, 192.0, 0.0, 0.0, 0.0, 0.0, 0.0, 0.0, 0.0, 0.0, 0.0, 1.645921834962708E9, 0.0, 2022-02-27 11:30:34.962
182.0, -582.262943060749, -3914.192785524462, -1501.5901925075284, -9744.64532669131, -31.761828870991337, 457.2496363222166, -5295.709406818081, -1540.4598761153075, -3550.820475914535, -5914.115120663062, -3740.1844549398966, -2850.8085430632286, -3030.784789417361, -2021.6929342380686, -9557.069487222372, -15184.948168390772, 0.008875000000000001, -0.10825000000000001, 0.98725, 192.0, 0.0, 0.0, 0.0, 0.0, 0.0, 0.0, 0.0, 0.0, 0.0, 1.645921834970773E9, 0.0, 2022-02-27 11:30:34.970
184.0, -1126.46086531411, -4308.052874571428, -1867.3094352852627, -10140.785293672716, -521.4661981423138, 161.7595746230572, -5399.8908877242675, -1619.2944788091754, -2442.5092270981345, -6095.454823428968, -4165.202875757561, -2961.069698461258, -3524.3336587349963, -2419.6433925203555, -9602.421176722191, -15135.193185233258, 0.0084375, -0.10612500000000001, 0.985625, 192.0, 0.0, 32.0, 126.0, 96.0, 15.0, 96.0, 0.0, 0.0, 0.0, 1.645921834978001E9, 0.0, 2022-02-27 11:30:34.978
186.0, -373.18472542580673, -3734.4847601037936, -1320.8316350974603, -9548.374658629258, 154.4058506972612, 637.3599931430809, -5069.330938974731, -1247.8531894508826, -1837.4475046929724, -5338.222424772075, -3756.210655714352, -2734.288899217713, -3141.3588692377652, -2007.8795561646887, -9303.131318465628, -14449.464017088892, 0.0084375, -0.10612500000000001, 0.985625, 192.0, 0.0, 0.0, 0.0, 0.0, 0.0, 0.0, 0.0, 0.0, 0.0, 1.645921834985071E9, 0.0, 2022-02-27 11:30:34.985
188.0, -1049.593216132309, -4277.788612578942, -1877.0547958677764, -10149.547177499197, -496.02991295217436, 137.93261503369988, -5528.56988055347, -1789.1006814361433, -4095.28661910136, -6413.095463883336, -3955.7670302113333, -2962.8131345287725, -3231.235233692555, -2253.435820750692, -9762.727887955652, -15685.001395344902, 0.0084375, -0.10612500000000001, 0.985625, 192.0, 0.0, 0.0, 0.0, 0.0, 0.0, 0.0, 0.0, 0.0, 0.0, 1.645921834992395E9, 0.0, 2022-02-27 11:30:34.992
190.0, -705.8904416430523, -3976.420042088037, -1560.7776118251816, -9807.341969888446, -171.03554857200965, 446.07376409456305, -5162.090678464256, -1325.7266671331724, -1128.4278188261771, -5404.316533126418, -3976.64355953259, -2776.779565427252, -3415.7488841711147, -2185.9112007512094, -9306.975818511943, -14388.80138263719, 0.0084375, -0.10612500000000001, 0.985625, 192.0, 0.0, 0.0, 0.0, 0.0, 0.0, 0.0, 0.0, 0.0, 0.0, 1.645921835001926E9, 0.0, 2022-02-27 11:30:35.001
192.0, -501.5507938326352, -3838.8897584545325, -1477.6514741958947, -9721.868899091352, -13.276936206452396, 468.82783995006565, -5278.56561882086, -1523.6066607960058, -3496.3269229324965, -5867.891713129487, -3715.150501149953, -2814.12933041207, -3022.894623624638, -2015.1438731126636, -9545.915966739174, -15170.821865895017, 0.0084375, -0.10612500000000001, 0.985625, 192.0, 0.0, 0.0, 0.0, 0.0, 0.0, 0.0, 0.0, 0.0, 0.0, 1.6459218350081E9, 0.0, 2022-02-27 11:30:35.008
194.0, -1083.9254956156608, -4280.068490513384, -1865.0295573508213, -10143.735723940817, -526.6294511114897, 154.7634786085461, -5388.82677421889, -1606.1963565583656, -2468.236084966193, -6099.902820575574, -4149.221378472016, -2934.918157448549, -3516.7787691091025, -2415.4859680516684, -9601.102423799328, -15157.902557599851, 0.009218750000000001, -0.1030625, 0.9868125, 192.0, 0.0, 40.0, 126.0, 112.0, 15.0, 112.0, 0.0, 0.0, 0.0, 1.645921835015136E9, 0.0, 2022-02-27 11:30:35.015
196.0, -331.63283248339087, -3696.375035807495, -1315.8918995728375, -9545.290117894427, 155.0540512864651, 638.1870076879272, -5074.024805310346, -1239.5159887690531, -1787.1560796685314, -5334.959070081601, -3754.757792324757, -2723.4930066457996, -3146.5668256958515, -2003.96800088501, -9292.916571249554, -14433.147243636518, 0.009218750000000001, -0.1030625, 0.9868125, 192.0, 0.0, 0.0, 0.0, 0.0, 0.0, 0.0, 0.0, 0.0, 0.0, 1.645921835023089E9, 0.0, 2022-02-27 11:30:35.023
198.0, -1006.208480144558, -4225.485530553524, -1862.7720311608352, -10132.358686013065, -490.8219564940878, 144.16875173673054, -5518.779816482046, -1780.8528877321348, -4095.867764457198, -6385.826335647862, -3946.4687045179257, -2952.1290006791355, -3224.037971977946, -2253.413469006237, -9765.275986823557, -15679.502866208895, 0.009218750000000001, -0.1030625, 0.9868125, 192.0, 0.0, 0.0, 0.0, 0.0, 0.0, 0.0, 0.0, 0.0, 0.0, 1.645921835031272E9, 0.0, 2022-02-27 11:30:35.031
200.0, -688.0984530566279, -3955.901140678065, -1558.5647891241063, -9805.643237309843, -172.22019102814093, 438.6976884243117, -5183.771870585903, -1338.2883475170552, -1133.8145892399061, -5413.279582652996, -3979.9516177119754, -2764.8437338881176, -3420.7333231846483, -2209.827567318388, -9317.145862239107, -14395.9986443518, 0.009218750000000001, -0.1030625, 0.9868125, 192.0, 0.0, 0.0, 0.0, 0.0, 0.0, 0.0, 0.0, 0.0, 0.0, 1.645921835037593E9, 0.0, 2022-02-27 11:30:35.037
202.0, -474.5051830417136, -3809.921897640455, -1464.3298345005317, -9709.374273940835, -9.655953604692652, 488.5197268151912, -5284.310017145875, -1523.3607916069975, -3449.3212043429858, -5836.398105191959, -3704.0193324112097, -2799.3995308160224, -3011.875213608171, -1997.8212711598005, -9543.591385315822, -15148.537176673077, 0.009218750000000001, -0.1030625, 0.9868125, 192.0, 0.0, 0.0, 0.0, 0.0, 0.0, 0.0, 0.0, 0.0, 0.0, 1.645921835052663E9, 0.0, 2022-02-27 11:30:35.052
204.0, -1073.755451888496, -4269.27259794147, -1861.65444393807, -10146.082657108624, -532.7761808366992, 163.83828685740076, -5408.652771550747, -1619.562699742639, -2508.715094174754, -6116.241945772404, -4151.322442450814, -2945.6022912981857, -3515.549423164061, -2399.973857399685, -9611.85361288233, -15174.174627563314, 0.009609375, -0.10353125, 0.98540625, 192.0, 0.0, 40.0, 126.0, 96.0, 15.0, 96.0, 0.0, 0.0, 0.0, 1.645921835060562E9, 0.0, 2022-02-27 11:30:35.060
206.0, -327.274242314606, -3692.5528875056375, -1308.6946378582286, -9545.871263250263, 148.63910062779198, 647.3512229146031, -5082.317302503265, -1245.9756429166368, -1753.561407752205, -5328.968802567578, -3758.0211470152317, -2722.3977711674897, -3151.171285053645, -2003.2080415735295, -9299.97972249743, -14433.23665061434, 0.009609375, -0.10353125, 0.98540625, 192.0, 0.0, 0.0, 0.0, 0.0, 0.0, 0.0, 0.0, 0.0, 0.0, 1.645921835067217E9, 0.0, 2022-02-27 11:30:35.067
208.0, -1008.7789307569184, -4234.605042291289, -1858.4357927365056, -10140.248851805789, -495.3370088740598, 151.85775182935618, -5520.9032322053, -1786.820803501702, -4102.19330813805, -6383.613512946787, -3952.1907510984843, -2957.694585048507, -3221.936907999147, -2246.0373933359856, -9769.299300825513, -15686.029575589846, 0.009609375, -0.10353125, 0.98540625, 192.0, 0.0, 0.0, 0.0, 0.0, 0.0, 0.0, 0.0, 0.0, 0.0, 1.645921835075331E9, 0.0, 2022-02-27 11:30:35.075
210.0, -694.7592729043095, -3968.0157861728417, -1551.9486727653352, -9815.209783936714, -176.80229864147887, 433.44502847731457, -5183.771870585903, -1345.351498764932, -1125.4773885580764, -5408.518661084016, -3986.3218648817383, -2777.472469505366, -3421.0238958625673, -2216.5330906549802, -9318.688132606523, -14402.972388621854, 0.009609375, -0.10353125, 0.98540625, 192.0, 0.0, 0.0, 0.0, 0.0, 0.0, 0.0, 0.0, 0.0, 0.0, 1.645921835083302E9, 0.0, 2022-02-27 11:30:35.083
212.0, -474.23696210824994, -3811.0618366076756, -1457.5572559305735, -9711.944724553196, -2.548098867905005, 500.9025932434313, -5272.195371651098, -1507.9380879328357, -3452.3386898444523, -5872.987910865297, -3720.8948994749667, -2822.2653653938014, -3018.916013111593, -2008.5054050094373, -9552.308565653393, -15156.293231999069, 0.009609375, -0.10353125, 0.98540625, 192.0, 0.0, 0.0, 0.0, 0.0, 0.0, 0.0, 0.0, 0.0, 0.0, 1.645921835090449E9, 0.0, 2022-02-27 11:30:35.090
214.0, -1081.3103415143898, -4280.671987613677, -1870.1928103199973, -10150.44124727741, -541.8062855966432, 151.9695105516327, -5415.894736754267, -1641.6909267533931, -2585.1133567229936, -6141.030030373339, -4160.643119888678, -2948.038631443814, -3520.243289499675, -2408.2440028481487, -9633.020714881506, -15213.401939082378, 0.0108046875, -0.105765625, 0.982703125, 192.0, 0.0, 48.0, 126.0, 80.0, 15.0, 80.0, 0.0, 0.0, 0.0, 1.645921835097902E9, 0.0, 2022-02-27 11:30:35.097
216.0, -329.57647199350265, -3696.8444224410564, -1321.6810013867619, -9545.491283594523, 144.54873139247078, 639.8857402665305, -5072.9966250654015, -1256.7715354885502, -1707.1144827740768, -5316.205956483598, -3768.235894231307, -2709.4337593834116, -3160.715479936061, -2007.9242596535994, -9304.092443477208, -14420.51850801927, 0.0108046875, -0.105765625, 0.982703125, 192.0, 0.0, 0.0, 0.0, 0.0, 0.0, 0.0, 0.0, 0.0, 0.0, 1.645921835104884E9, 0.0, 2022-02-27 11:30:35.104
218.0, -1020.5359483404098, -4240.192978405115, -1874.9537318889777, -10139.332430283122, -494.4652908403028, 141.73241159110208, -5514.890612946822, -1770.7051957494255, -4115.582003066779, -6392.755376429007, -3958.6504052460677, -2958.141619937613, -3224.1497307002223, -2245.6797654247007, -9773.277911338559, -15674.943110340013, 0.0108046875, -0.105765625, 0.982703125, 192.0, 0.0, 0.0, 0.0, 0.0, 0.0, 0.0, 0.0, 0.0, 0.0, 1.645921835112933E9, 0.0, 2022-02-27 11:30:35.112
220.0, -710.2490318118372, -3983.7961177582883, -1573.6522166314385, -9816.684999070763, -183.82074640044527, 424.593737673013, -5177.178105971588, -1336.321394004988, -1153.238255171568, -5440.012269021544, -4011.6240396051458, -2785.9884841428384, -3437.0053931481116, -2228.245404749561, -9327.114740266174, -14400.267827542762, 0.0108046875, -0.105765625, 0.982703125, 192.0, 0.0, 0.0, 0.0, 0.0, 0.0, 0.0, 0.0, 0.0, 0.0, 1.645921835119527E9, 0.0, 2022-02-27 11:30:35.119
222.0, -479.40021507742586, -3810.9947813743097, -1472.4211659933528, -9707.5414308955, -10.125340238254099, 485.5469448026353, -5276.218685653053, -1510.217965867277, -3443.286233340053, -5848.736268131289, -3726.9298704779, -2817.638554291553, -3026.0015161039255, -2003.0515793623424, -9548.821693518365, -15137.85304282344, 0.0108046875, -0.105765625, 0.982703125, 192.0, 0.0, 0.0, 0.0, 0.0, 0.0, 0.0, 0.0, 0.0, 0.0, 1.645921835127761E9, 0.0, 2022-02-27 11:30:35.127
224.0, -1087.5241264729652, -4276.760432333998, -1878.462955768461, -10145.00977337477, -545.9860618097856, 147.87914131631152, -5412.676085552703, -1630.626813248016, -2547.9871091827285, -6128.334239522725, -4167.505105436457, -2950.2067506559792, -3531.3968099828735, -2413.362552328414, -9631.277278813992, -15189.396165537379, 0.01, -0.10400000000000001, 0.982, 192.0, 0.0, 40.0, 126.0, 96.0, 15.0, 88.0, 0.0, 0.0, 0.0, 1.645921835135524E9, 0.0, 2022-02-27 11:30:35.135
226.0, -334.04682088456406, -3684.3497972905398, -1322.128036275868, -9542.183225415138, 137.61969061132558, 642.2997286677038, -5084.7983461378035, -1260.1242971568463, -1754.4778292748726, -5316.496529161516, -3767.587693642103, -2722.934213034417, -3165.498753249497, -2008.6395154761692, -9310.08271099123, -14428.788653467735, 0.01, -0.10400000000000001, 0.982, 192.0, 0.0, 0.0, 0.0, 0.0, 0.0, 0.0, 0.0, 0.0, 0.0, 1.645921835142647E9, 0.0, 2022-02-27 11:30:35.142
228.0, -988.2153258580358, -4201.0327221194175, -1860.9168363710448, -10123.306229508666, -489.9055349714202, 163.14538277928625, -5516.56699378097, -1785.2114779009198, -4114.531471077379, -6363.407535959189, -3940.009050370342, -2942.405991841077, -3222.1827771881553, -2229.8323786058877, -9775.848361950919, -15686.923645368059, 0.01, -0.10400000000000001, 0.982, 192.0, 0.0, 0.0, 0.0, 0.0, 0.0, 0.0, 0.0, 0.0, 0.0, 1.64592183515045E9, 0.0, 2022-02-27 11:30:35.150
230.0, -700.3695607625915, -3960.9526349249645, -1576.8261643440921, -9829.559603877022, -197.72353145164627, 425.15253128439565, -5190.209172989032, -1358.069641360002, -1149.8631417588165, -5412.519623341515, -4001.521051111347, -2776.5560479826986, -3438.9276431712683, -2226.792541359966, -9333.105007780196, -14411.689568959424, 0.01, -0.10400000000000001, 0.982, 192.0, 0.0, 0.0, 0.0, 0.0, 0.0, 0.0, 0.0, 0.0, 0.0, 1.645921835158194E9, 0.0, 2022-02-27 11:30:35.158
232.0, -453.00280487570825, -3785.4020339729827, -1458.8089536200707, -9688.20717194166, -3.7997965574022006, 490.5984390495347, -5272.173019906642, -1513.1013409020115, -3396.1017007949, -5815.432168892881, -3713.4070650824387, -2804.965115185394, -3022.961678858004, -1993.8203089023007, -9552.330917397847, -15128.532365385578, 0.01, -0.10400000000000001, 0.982, 192.0, 0.0, 0.0, 0.0, 0.0, 0.0, 0.0, 0.0, 0.0, 0.0, 1.645921835172425E9, 0.0, 2022-02-27 11:30:35.172
234.0, -1086.339484016834, -4269.2949496859255, -1882.0168831368546, -10142.998116373792, -565.297969019171, 141.28537670199594, -5416.721751299114, -1643.9261011989238, -2619.1774152728817, -6140.180664084037, -4159.950215810563, -2948.686832033018, -3516.443492942273, -2421.140959398861, -9643.928366175696, -15218.520488562643, 0.01, -0.11, 0.992, 192.0, 0.0, 40.0, 126.0, 72.0, 15.5, 0.0, 0.0, 0.0, 0.0, 1.645921835179793E9, 0.0, 2022-02-27 11:30:35.179
236.0, -321.1945678227625, -3669.016500594199, -1315.1989954947228, -9535.835329989832, 129.70717307414688, 637.4270483764468, -5116.984858153446, -1263.9464454587037, -1685.0086075077782, -5307.712293590581, -3767.9006180644774, -2715.3122681751574, -3164.135296837723, -2016.9767161579987, -9309.568620868757, -14411.71192070388, 0.01, -0.11, 0.992, 192.0, 0.0, 0.0, 0.0, 0.0, 0.0, 0.0, 0.0, 0.0, 0.0, 1.645921835187857E9, 0.0, 2022-02-27 11:30:35.187
238.0, -981.5321542658991, -4199.691617452099, -1855.84299037969, -10120.62402017403, -490.2631628827051, 145.17458023721937, -5501.054883128987, -1803.4728531209057, -4098.1923458805495, -6344.296794449901, -3929.5707857097136, -2943.814151741761, -3202.043855433924, -2235.7779426309994, -9780.050489908515, -15677.222988274454, 0.01, -0.11, 0.992, 192.0, 0.0, 0.0, 0.0, 0.0, 0.0, 0.0, 0.0, 0.0, 0.0, 1.645921835195792E9, 0.0, 2022-02-27 11:30:35.195
240.0, -694.4239967374798, -3961.645539003079, -1572.512277664218, -9817.534365360067, -198.32702855193958, 415.2507084906946, -5193.874859079702, -1363.5011152626414, -1135.55802530742, -5428.724638071613, -3996.31309465326, -2773.5609142256876, -3431.708029712204, -2227.954832071642, -9333.730856624945, -14413.768281193768, 0.01, -0.11, 0.992, 192.0, 0.0, 0.0, 0.0, 0.0, 0.0, 0.0, 0.0, 0.0, 0.0, 1.645921835202526E9, 0.0, 2022-02-27 11:30:35.202
242.0, -461.0717846240741, -3794.4544904773825, -1463.256950766677, -9692.275189432525, -12.449921661606034, 478.1932208768393, -5277.157458920176, -1526.0430009416343, -3391.877221092847, -5825.602212620046, -3712.043608670665, -2799.6230482605756, -3023.0734375802804, -2004.7056084520352, -9555.214292432582, -15134.120301499404, 0.01, -0.11, 0.992, 192.0, 0.0, 0.0, 0.0, 0.0, 0.0, 0.0, 0.0, 0.0, 0.0, 1.64592183521034E9, 0.0, 2022-02-27 11:30:35.210
244.0, -1096.3083620439008, -4282.929513803663, -1889.9294006740333, -10152.698773467395, -561.9005038619642, 131.76353356403513, -5405.121195926809, -1642.9426244428903, -2588.7566910692085, -6134.726838436943, -4172.131916538706, -2960.2873874053225, -3530.6815541603037, -2424.471369322702, -9647.325831332902, -15208.350444835478, 0.012, -0.108, 0.992, 192.0, 0.0, 48.0, 126.0, 80.0, 15.5, 0.0, 0.0, 0.0, 0.0, 1.645921835218465E9, 0.0, 2022-02-27 11:30:35.218
246.0, -335.8796639298992, -3681.4217187668946, -1330.1523125353233, -9551.950937742107, 132.07645798640942, 630.0062692172849, -5079.053947812789, -1256.0786314104357, -1723.945346348923, -5302.2137644545755, -3778.2271240028294, -2731.9196143054505, -3162.973006126047, -2014.9650591570212, -9314.865984304666, -14423.133662120541, 0.012, -0.108, 0.992, 192.0, 0.0, 0.0, 0.0, 0.0, 0.0, 0.0, 0.0, 0.0, 0.0, 1.645921835225528E9, 0.0, 2022-02-27 11:30:35.225
248.0, -972.4796977614997, -4188.336931268804, -1853.65251942307, -10121.47338646333, -473.1193748854846, 157.9374263211997, -5504.966438408665, -1780.8081842432243, -4112.9221454765975, -6370.73890814053, -3944.3452887946714, -2962.276692661845, -3209.8893177377367, -2221.0257912904967, -9777.949425929717, -15675.636014418127, 0.012, -0.108, 0.992, 192.0, 0.0, 0.0, 0.0, 0.0, 0.0, 0.0, 0.0, 0.0, 0.0, 1.645921835232078E9, 0.0, 2022-02-27 11:30:35.232
250.0, -702.8953078860412, -3974.45308857597, -1582.8611353470249, -9827.436188153766, -201.05394137548703, 407.785225842622, -5177.379271671685, -1350.9841383676694, -1134.6639555292077, -5429.059914238443, -4001.4986993668917, -2777.5395247387323, -3429.5399105000392, -2219.550576156447, -9337.016563059875, -14422.217240597874, 0.012, -0.108, 0.992, 192.0, 0.0, 0.0, 0.0, 0.0, 0.0, 0.0, 0.0, 0.0, 0.0, 1.645921835240124E9, 0.0, 2022-02-27 11:30:35.240
252.0, -434.3167465110715, -3771.3427867105947, -1444.928520313325, -9682.596884083378, 23.558738655893645, 498.62271530898994, -5257.174999377132, -1508.0721983995675, -3336.511950077051, -5787.33602611256, -3703.3264283330955, -2784.602675986609, -3012.0540275638136, -1992.456852490527, -9537.824635246354, -15102.872562750885, 0.012, -0.108, 0.992, 192.0, 0.0, 0.0, 0.0, 0.0, 0.0, 0.0, 0.0, 0.0, 0.0, 1.645921835248139E9, 0.0, 2022-02-27 11:30:35.248
254.0, -1069.9556553310938, -4258.521408858467, -1871.6009702206816, -10145.635622219519, -536.4642186718248, 150.2707779730294, -5397.521602812005, -1662.9250839859349, -2586.32035092358, -6128.222480800448, -4141.5100266349355, -2938.539140050309, -3500.1714229788095, -2408.8698516928976, -9640.530901018488, -15228.221145656247, 0.01, -0.108, 0.986, 192.0, 0.0, 40.0, 126.0, 80.0, 15.0, 104.0, 0.0, 0.0, 0.0, 1.645921835254689E9, 0.0, 2022-02-27 11:30:35.254
0.0, -339.12066687591874, -3692.9775706502883, -1325.6372601553512, -9546.810036517387, 136.23388245509653, 636.0859437091284, -5066.201694750988, -1228.6977444526844, -1669.3623863890632, -5287.595723580805, -3762.469144161838, -2719.4920443882997, -3156.334538022821, -2016.9320126690882, -9298.683321319024, -14407.442737512916, 0.01, -0.108, 0.986, 192.0, 0.0, 0.0, 0.0, 0.0, 0.0, 0.0, 0.0, 0.0, 0.0, 1.645921835262674E9, 0.0, 2022-02-27 11:30:35.262
2.0, -981.0627676323376, -4194.617771460745, -1858.100516569676, -10124.2897062647, -474.4157760638924, 149.0414320279875, -5517.259897859085, -1795.0909489501655, -4122.488692103469, -6351.337593953323, -3938.1538555805514, -2960.8908845056158, -3205.620134546773, -2223.6856488806784, -9771.825047948963, -15674.205502772988, 0.01, -0.108, 0.986, 192.0, 0.0, 0.0, 0.0, 0.0, 0.0, 0.0, 0.0, 0.0, 0.0, 1.645921835270725E9, 0.0, 2022-02-27 11:30:35.270
4.0, -717.1557208485272, -3984.7572427698665, -1597.7026936653488, -9835.214595224214, -204.29494432150656, 414.73661836822254, -5186.163507242622, -1355.6333012143734, -1145.9292347346825, -5442.336850444895, -4016.139091985118, -2799.533641282754, -3438.1676838597878, -2219.662334878723, -9339.631717161146, -14425.301781332706, 0.01, -0.108, 0.986, 192.0, 0.0, 0.0, 0.0, 0.0, 0.0, 0.0, 0.0, 0.0, 0.0, 1.645921835277745E9, 0.0, 2022-02-27 11:30:35.277
6.0, -454.5674269875797, -3791.235839275818, -1466.833229879526, -9692.655169088266, 2.2798779344413203, 498.1086251865179, -5251.810580707858, -1512.0955124015227, -3344.4691711031405, -5802.110529197518, -3722.9736117093103, -2797.1420046260364, -3023.8110451473053, -2003.0515793623424, -9539.590423058322, -15107.789946531053, 0.01, -0.108, 0.986, 192.0, 0.0, 0.0, 0.0, 0.0, 0.0, 0.0, 0.0, 0.0, 0.0, 1.645921835285389E9, 0.0, 2022-02-27 11:30:35.285
8.0, -1094.3190567873785, -4279.777917835465, -1900.2782583568405, -10161.483009038331, -564.4038992409586, 125.3038794164514, -5410.2173936626195, -1663.7520985307813, -2628.296927010647, -6147.8249606877525, -4166.700442636066, -2960.1309251941357, -3521.517338933628, -2429.3216978695036, -9647.459941799634, -15233.004418969682, 0.012, -0.11, 0.988, 192.0, 0.0, 48.0, 126.0, 72.0, 15.0, 112.0, 0.0, 0.0, 0.0, 1.64592183530036E9, 0.0, 2022-02-27 11:30:35.300
10.0, -355.90682696185434, -3698.2302305972853, -1349.7547924226276, -9553.292042409426, 125.05801022744302, 624.7536092702877, -5067.207523251477, -1251.3400615859107, -1681.566438861661, -5320.564546652383, -3781.423423459938, -2722.643640356498, -3173.031291130935, -2029.0019546749538, -9304.874754533143, -14407.241571812818, 0.012, -0.11, 0.988, 192.0, 0.0, 0.0, 0.0, 0.0, 0.0, 0.0, 0.0, 0.0, 0.0, 1.645921835307624E9, 0.0, 2022-02-27 11:30:35.307
12.0, -990.5622590258431, -4207.693541967099, -1875.0878423557094, -10125.586107443109, -478.1485173879287, 145.35339419286183, -5508.18508961023, -1782.68573077747, -4143.655794102645, -6378.651425677708, -3949.419134786026, -2959.214503671468, -3215.9242887406695, -2247.244387536572, -9779.98343467515, -15673.981985328435, 0.012, -0.11, 0.988, 192.0, 0.0, 0.0, 0.0, 0.0, 0.0, 0.0, 0.0, 0.0, 0.0, 1.645921835315059E9, 0.0, 2022-02-27 11:30:35.315
14.0, -726.7893227087644, -3986.0312922038192, -1612.566603728128, -9848.178607008293, -212.11805488086404, 390.10499597847416, -5192.779623601392, -1377.5603625250296, -1158.0215284850035, -5447.656565625259, -4024.588051389224, -2797.544336026232, -3447.7565822311144, -2235.3979629752594, -9349.42178123257, -14434.913031448488, 0.012, -0.11, 0.988, 192.0, 0.0, 0.0, 0.0, 0.0, 0.0, 0.0, 0.0, 0.0, 0.0, 1.64592183532295E9, 0.0, 2022-02-27 11:30:35.322
16.0, -441.0893250810296, -3781.2446095042956, -1467.8167066355595, -9692.543410365988, 11.958183283589278, 503.5177473447022, -5253.017574908445, -1515.7388467477379, -3321.3127638474425, -5798.646008806945, -3720.984306452788, -2815.9398217129497, -3027.9014143826266, -2006.1808235860854, -9547.011202217485, -15094.021271946584, 0.012, -0.11, 0.988, 192.0, 0.0, 0.0, 0.0, 0.0, 0.0, 0.0, 0.0, 0.0, 0.0, 1.645921835331008E9, 0.0, 2022-02-27 11:30:35.331
18.0, -1097.1800800776577, -4273.27356019897, -1914.4045608525946, -10173.754116744294, -568.2036957983609, 115.67027755621405, -5425.818911292424, -1685.8356220526246, -2699.5319365897103, -6170.7802022433525, -4165.2252275020155, -2973.3631579116773, -3522.0761325450103, -2413.206090117227, -9663.575549551912, -15263.134570495436, 0.01, -0.108, 0.98, 192.0, 0.0, 40.0, 126.0, 80.0, 15.0, 80.0, 0.0, 0.0, 0.0, 1.64592183533763E9, 0.0, 2022-02-27 11:30:35.337
20.0, -350.54240829258066, -3695.793890451657, -1354.0910308469572, -9571.106382740305, 124.3651061493285, 600.099635136084, -5073.734232632427, -1271.8589629958824, -1627.8775486800134, -5304.873622044757, -3784.5079641947705, -2725.906995046973, -3185.436509303631, -2027.6832017520908, -9307.780481312333, -14410.415519525472, 0.01, -0.108, 0.98, 192.0, 0.0, 0.0, 0.0, 0.0, 0.0, 0.0, 0.0, 0.0, 0.0, 1.645921835345639E9, 0.0, 2022-02-27 11:30:35.345
22.0, -986.114261879237, -4206.575954744334, -1873.0538336102766, -10128.33537201111, -482.82003197908784, 134.51279813203791, -5503.558278507981, -1791.7158355374143, -4139.274852189405, -6370.873018607262, -3941.171341082018, -2957.0016809703925, -3212.2809543944545, -2239.6894979106783, -9778.642330007831, -15677.20063653, 0.01, -0.108, 0.98, 192.0, 0.0, 0.0, 0.0, 0.0, 0.0, 0.0, 0.0, 0.0, 0.0, 1.64592183535259E9, 0.0, 2022-02-27 11:30:35.352
24.0, -738.3228228477029, -3983.840821247199, -1617.9310223974016, -9865.747078150163, -235.87795923685545, 396.8999262928875, -5200.692141138571, -1375.8616299464263, -1177.5793048833973, -5473.808106637968, -4038.1555602735953, -2819.9407839704495, -3461.25703588212, -2224.087980280874, -9353.154522556606, -14442.691438518936, 0.01, -0.108, 0.98, 192.0, 0.0, 0.0, 0.0, 0.0, 0.0, 0.0, 0.0, 0.0, 0.0, 1.645921835359706E9, 0.0, 2022-02-27 11:30:35.359
26.0, -446.76666817267756, -3795.013284088765, -1461.0441280656014, -9696.253799945569, 19.155444998198153, 473.8122789635991, -5260.438354067606, -1511.4249600678636, -3303.096092116367, -5783.469174321792, -3729.232100156796, -2813.0787984226704, -3029.8683678946936, -2027.5267395409037, -9544.686620794133, -15087.516914310088, 0.01, -0.108, 0.98, 192.0, 0.0, 0.0, 0.0, 0.0, 0.0, 0.0, 0.0, 0.0, 0.0, 1.645921835367381E9, 0.0, 2022-02-27 11:30:35.367
28.0, -1116.4472837981325, -4300.632095412266, -1919.3666481216728, -10185.086451183135, -577.9043528919641, 99.21939363710806, -5443.163864989742, -1689.9930465213117, -2721.190776966903, -6195.478879866467, -4182.59253294379, -2971.4185561440654, -3518.3880947098846, -2441.4139916198246, -9671.041032199983, -15270.980032799249, 0.018000000000000002, -0.108, 0.98, 192.0, 0.0, 72.0, 126.0, 80.0, 15.0, 80.0, 0.0, 0.0, 0.0, 1.645921835375187E9, 0.0, 2022-02-27 11:30:35.375
30.0, -368.1779346678179, -3718.436207584883, -1358.8519524159376, -9574.012109519495, 97.27479186949634, 599.5408415247014, -5098.097634088711, -1293.16017546179, -1643.0320314207115, -5329.013506056489, -3803.5740022151476, -2729.6173846265538, -3197.7970239874157, -2051.152533430163, -9316.072978505252, -14407.889772402023, 0.018000000000000002, -0.108, 0.98, 192.0, 0.0, 0.0, 0.0, 0.0, 0.0, 0.0, 0.0, 0.0, 0.0, 1.645921835383458E9, 0.0, 2022-02-27 11:30:35.383
32.0, -979.274628075913, -4194.438957505102, -1870.7516039313798, -10118.1876800284, -487.73741575925544, 142.24650171357413, -5525.28417411854, -1795.8956117505566, -4161.134858266694, -6382.585332701842, -3948.323899307716, -2957.0016809703925, -3208.525861325963, -2236.761419387033, -9782.5091817986, -15680.106363309189, 0.018000000000000002, -0.108, 0.98, 192.0, 0.0, 0.0, 0.0, 0.0, 0.0, 0.0, 0.0, 0.0, 0.0, 1.645921835389981E9, 0.0, 2022-02-27 11:30:35.389
34.0, -748.1128869191274, -4003.6668185790563, -1625.8211881901252, -9865.925892105806, -232.6369562908359, 388.6074290999686, -5205.207193518543, -1379.5720195260071, -1198.0758545489139, -5478.569028206948, -4046.157484788595, -2805.5239087967766, -3469.080146441477, -2246.0597450804407, -9362.676365694568, -14453.800255513223, 0.018000000000000002, -0.108, 0.98, 192.0, 0.0, 0.0, 0.0, 0.0, 0.0, 0.0, 0.0, 0.0, 0.0, 1.645921835397903E9, 0.0, 2022-02-27 11:30:35.397
36.0, -441.4246012478592, -3780.1940775148964, -1453.221017506244, -9688.810669041952, 21.994116544022148, 508.39042763595916, -5237.907795656657, -1488.4473667678078, -3280.833754638881, -5782.932732454865, -3724.4935303322713, -2807.8261384756734, -3025.2862602813557, -2002.2469165619514, -9526.805225229888, -15068.450876289711, 0.018000000000000002, -0.10600000000000001, 0.982, 192.0, 0.0, 72.0, 126.0, 96.0, 15.0, 96.0, 0.0, 0.0, 0.0, 1.64592183540599E9, 0.0, 2022-02-27 11:30:35.405
38.0, -1127.332583347867, -4303.649580913732, -1924.9322324910443, -10197.938704244936, -591.941248409897, 101.16399540471977, -5444.102638256864, -1682.885191784524, -2779.037091617238, -6215.595449876243, -4174.612960173245, -2989.5458208973196, -3514.677705130304, -2431.7803897595873, -9670.973976966618, -15290.247236519723, 0.018000000000000002, -0.10600000000000001, 0.982, 192.0, 0.0, 0.0, 0.0, 0.0, 0.0, 0.0, 0.0, 0.0, 0.0, 1.645921835420545E9, 0.0, 2022-02-27 11:30:35.420
40.0, -386.66282733235687, -3719.732608763291, -1370.676025232795, -9596.386205719258, 86.85887895332324, 583.0005506277741, -5105.317247547776, -1282.4536898676981, -1617.5063392527509, -5300.850308042802, -3815.532185498737, -2756.1712570394584, -3210.49281483803, -2062.7977922913783, -9315.670647105057, -14400.290179287218, 0.018000000000000002, -0.10600000000000001, 0.982, 192.0, 0.0, 0.0, 0.0, 0.0, 0.0, 0.0, 0.0, 0.0, 0.0, 1.645921835427519E9, 0.0, 2022-02-27 11:30:35.427
42.0, -999.145328896681, -4203.35730354277, -1878.03827262381, -10136.829034904127, -488.07269192608504, 120.65471656974752, -5525.842967729923, -1811.7653503138247, -4172.623654916722, -6382.495925724021, -3949.016803385831, -2991.1551464981017, -3210.2916491379324, -2252.7429166725774, -9788.36533884589, -15685.873113378659, 0.018000000000000002, -0.10600000000000001, 0.982, 192.0, 0.0, 0.0, 0.0, 0.0, 0.0, 0.0, 0.0, 0.0, 0.0, 1.645921835435645E9, 0.0, 2022-02-27 11:30:35.435
44.0, -785.7532245818645, -4054.807609892799, -1641.9814994313122, -9880.678043446309, -249.33370939895028, 365.7639462666448, -5203.419053962119, -1384.1764788838004, -1214.0573518344584, -5514.1753571242525, -4061.04374659583, -2826.288679395757, -3477.8196785235023, -2277.7768704625214, -9369.7618686869, -14463.299746906729, 0.018000000000000002, -0.10600000000000001, 0.982, 192.0, 0.0, 0.0, 0.0, 0.0, 0.0, 0.0, 0.0, 0.0, 0.0, 1.645921835442761E9, 0.0, 2022-02-27 11:30:35.442
46.0, -464.37984280345955, -3819.108464611586, -1472.5329247156292, -9696.946704023685, 17.546119397416046, 498.1756804198838, -5254.224569109031, -1491.6660179693722, -3303.4090165387415, -5812.079407224585, -3749.683946333402, -2835.2293771778795, -3045.5145890134086, -2017.1555301136411, -9539.41160910268, -15071.356603068902, 0.017, -0.10500000000000001, 0.983, 192.0, 0.0, 64.0, 126.0, 96.0, 15.0, 96.0, 0.0, 0.0, 0.0, 1.645921835450113E9, 0.0, 2022-02-27 11:30:35.450
48.0, -1134.686307273663, -4329.2870318039695, -1934.7670000513795, -10200.084471712646, -574.5068877347575, 114.79855952245707, -5433.373800918317, -1674.7715085472475, -2776.377234027056, -6225.363162203213, -4192.919038882142, -3001.3251902252664, -3528.7146006482367, -2430.819264748009, -9677.72420379212, -15285.888646350939, 0.017, -0.10500000000000001, 0.983, 192.0, 0.0, 0.0, 0.0, 0.0, 0.0, 0.0, 0.0, 0.0, 0.0, 1.645921835458266E9, 0.0, 2022-02-27 11:30:35.458
50.0, -387.22162094373954, -3741.7714287962235, -1371.41363279982, -9596.22974350807, 107.80246350794596, 605.1287776385282, -5090.296875273809, -1275.1223176863573, -1638.8522552075692, -5335.719029393081, -3808.8490139066, -2766.1848385554363, -3196.187698386633, -2028.7784372304009, -9310.127414480141, -14397.160935063475, 0.017, -0.10500000000000001, 0.983, 192.0, 0.0, 0.0, 0.0, 0.0, 0.0, 0.0, 0.0, 0.0, 0.0, 1.645921835465412E9, 0.0, 2022-02-27 11:30:35.465
52.0, -976.9947501414717, -4203.066730864851, -1857.6087781916594, -10117.42772071692, -461.1611916018953, 151.85775182935618, -5518.601002526403, -1799.0025042298441, -4192.44965224858, -6370.560094184887, -3947.2510155738614, -2977.4758788914537, -3202.401483345209, -2245.568006702424, -9781.481001553655, -15683.257959277387, 0.017, -0.10500000000000001, 0.983, 192.0, 0.0, 0.0, 0.0, 0.0, 0.0, 0.0, 0.0, 0.0, 0.0, 1.645921835471998E9, 0.0, 2022-02-27 11:30:35.471
54.0, -799.4101404440571, -4062.384851263148, -1659.438211850907, -9904.48265129121, -264.2423229506401, 362.7911642540889, -5220.205214048054, -1401.8790604924036, -1255.6315965213296, -5529.28513637604, -4072.152563590117, -2847.9028162840386, -3483.6534838263374, -2288.8186322234433, -9377.137944357151, -14494.167505999507, 0.017, -0.10500000000000001, 0.983, 192.0, 0.0, 0.0, 0.0, 0.0, 0.0, 0.0, 0.0, 0.0, 0.0, 1.64592183547986E9, 0.0, 2022-02-27 11:30:35.479
56.0, -447.48192399524737, -3790.2747142642397, -1468.8448868805037, -9685.6367213293, 28.856102091801418, 509.1503869474396, -5247.697859728081, -1485.541639988618, -3231.5034546260185, -5738.743333666723, -3739.9385857508883, -2833.1730166879915, -3022.8052166468165, -2014.518024267915, -9526.246431618505, -15040.35473350939, 0.0155, -0.10750000000000001, 0.9835, 192.0, 0.0, 56.0, 126.0, 72.0, 15.0, 96.0, 0.0, 0.0, 0.0, 1.645921835487904E9, 0.0, 2022-02-27 11:30:35.487
58.0, -1124.3374495908558, -4326.537767235967, -1936.6892500745357, -10199.324512401166, -573.2551900452603, 109.30003038645154, -5436.12306548632, -1689.434252909929, -2814.822234490184, -6225.854900581229, -4177.250466018971, -2988.182364485546, -3513.31424871853, -2425.4101425898248, -9677.72420379212, -15303.770041915184, 0.0155, -0.10750000000000001, 0.9835, 192.0, 0.0, 0.0, 0.0, 0.0, 0.0, 0.0, 0.0, 0.0, 0.0, 1.645921835495044E9, 0.0, 2022-02-27 11:30:35.495
60.0, -401.70555135077853, -3765.17370524093, -1380.2649236041218, -9601.415348221703, 112.6751437992029, 599.809062458165, -5069.8897325861135, -1263.2982448695, -1595.9145541089242, -5327.180663011153, -3817.074455866153, -2751.4326872149336, -3208.30234388141, -2040.3119373693394, -9298.683321319024, -14385.694490157903, 0.0155, -0.10750000000000001, 0.9835, 192.0, 0.0, 0.0, 0.0, 0.0, 0.0, 0.0, 0.0, 0.0, 0.0, 1.645921835502495E9, 0.0, 2022-02-27 11:30:35.502
62.0, -979.0064071424493, -4213.706161225577, -1864.269598039341, -10125.563755698653, -446.40904026139265, 145.66631861523612, -5514.0635984019755, -1798.331951896185, -4177.116355552239, -6375.745698898519, -3932.521215977814, -2992.987989543437, -3193.3713785852647, -2216.443683677159, -9765.544207757022, -15677.401802230097, 0.0155, -0.10750000000000001, 0.9835, 192.0, 0.0, 0.0, 0.0, 0.0, 0.0, 0.0, 0.0, 0.0, 0.0, 1.645921835510401E9, 0.0, 2022-02-27 11:30:35.510
64.0, -811.2565650053698, -4073.0466333683294, -1666.8142875211583, -9902.448642545778, -267.4162706632937, 340.8417511989774, -5240.65706022466, -1415.223051932222, -1254.4469540651983, -5526.088836918931, -4062.7871826633436, -2858.788115833773, -3480.3677773914073, -2311.103321445384, -9377.137944357151, -14502.929389825988, 0.0155, -0.10750000000000001, 0.9835, 192.0, 0.0, 0.0, 0.0, 0.0, 0.0, 0.0, 0.0, 0.0, 0.0, 1.645921835518453E9, 0.0, 2022-02-27 11:30:35.518
66.0, -454.65683396540095, -3809.385455773527, -1460.6641484098611, -9685.927294007219, 26.687982879636632, 502.40016012193684, -5258.7843249779135, -1517.996372937724, -3226.5637191013957, -5769.924017181876, -3732.6742688029135, -2823.002972960827, -3046.6098244917184, -2023.0563906498423, -9525.709989751576, -15046.635573701333, 0.01475, -0.10475000000000001, 0.98375, 192.0, 0.0, 56.0, 126.0, 104.0, 15.0, 96.0, 0.0, 0.0, 0.0, 1.64592183552512E9, 0.0, 2022-02-27 11:30:35.525
68.0, -1135.6697840296965, -4324.168482323705, -1938.9244245200664, -10204.979503748358, -583.06760586114, 98.81706223691252, -5458.497161686082, -1700.1183867595657, -2833.8212172771955, -6191.880249009162, -4171.595474671778, -2995.267867477878, -3512.666048129326, -2431.2215961482043, -9684.116802706338, -15326.613524748509, 0.01475, -0.10475000000000001, 0.98375, 192.0, 0.0, 0.0, 0.0, 0.0, 0.0, 0.0, 0.0, 0.0, 0.0, 1.645921835534089E9, 0.0, 2022-02-27 11:30:35.534
70.0, -388.67448433333453, -3743.3584026525505, -1375.4592985462307, -9593.569885917888, 96.58188779138182, 592.9917803992963, -5090.967427607468, -1260.4819250681312, -1591.734777895782, -5295.128261462243, -3808.2231650618514, -2751.410335470478, -3206.4695008360745, -2049.163228173641, -9309.07688249074, -14391.7965163942, 0.01475, -0.10475000000000001, 0.98375, 192.0, 0.0, 0.0, 0.0, 0.0, 0.0, 0.0, 0.0, 0.0, 0.0, 1.645921835548179E9, 0.0, 2022-02-27 11:30:35.548
72.0, -953.6371771856758, -4193.6342947047115, -1848.489266453894, -10111.035121802703, -450.7676304301775, 152.12597276281986, -5507.961572165677, -1798.913097252023, -4169.270893248427, -6363.228722003547, -3914.885689602577, -2954.878265247138, -3181.077919134846, -2209.6264016182904, -9775.557789273, -15680.799267387303, 0.01475, -0.10475000000000001, 0.98375, 192.0, 0.0, 0.0, 0.0, 0.0, 0.0, 0.0, 0.0, 0.0, 0.0, 1.645921835554848E9, 0.0, 2022-02-27 11:30:35.554
74.0, -794.962143297451, -4065.603502464712, -1656.1301536715216, -9901.688683234297, -262.6106456054027, 347.34610883547174, -5215.086664567789, -1388.8256417305042, -1244.7015934826843, -5530.827406743456, -4048.1467900451175, -2834.312955655212, -3467.157896418321, -2273.6865012272006, -9374.09810711123, -14508.91965734001, 0.01475, -0.10475000000000001, 0.98375, 192.0, 0.0, 0.0, 0.0, 0.0, 0.0, 0.0, 0.0, 0.0, 0.0, 1.645921835562729E9, 0.0, 2022-02-27 11:30:35.562
76.0, -438.6753366798564, -3792.733406154324, -1455.9702820742468, -9684.899113762274, 36.61215741779297, 506.91521250190885, -5238.13131310121, -1472.8234973935482, -3206.9612392140916, -5770.99690091573, -3727.667478044925, -2842.6278045925865, -3027.879062638171, -1995.4743379919933, -9516.79164371391, -15036.018495085062, 0.017375, -0.10437500000000001, 0.9858750000000001, 192.0, 0.0, 80.0, 126.0, 96.0, 15.0, 112.0, 0.0, 0.0, 0.0, 1.645921835570708E9, 0.0, 2022-02-27 11:30:35.570
78.0, -1132.1158566613028, -4307.09174955985, -1935.325793662762, -10206.387663649042, -590.9130681649528, 96.93951570266672, -5458.340699474896, -1693.9046018009903, -2836.0787434671815, -6216.377760932179, -4175.663492162645, -3000.11819602468, -3506.2734492151085, -2410.6803429937772, -9682.485125361101, -15318.07515836658, 0.017375, -0.10437500000000001, 0.9858750000000001, 192.0, 0.0, 0.0, 0.0, 0.0, 0.0, 0.0, 0.0, 0.0, 0.0, 1.645921835577286E9, 0.0, 2022-02-27 11:30:35.577
80.0, -383.5782865975245, -3749.4827806333046, -1371.0783566329906, -9593.882810340263, 91.53039354448242, 589.9966466422852, -5099.774014922859, -1283.9289050017483, -1585.8115656151256, -5293.42952888364, -3804.043388848709, -2740.3685737095566, -3198.199355387611, -2041.317765869828, -9310.7979668138, -14394.121097817553, 0.017375, -0.10437500000000001, 0.9858750000000001, 192.0, 0.0, 0.0, 0.0, 0.0, 0.0, 0.0, 0.0, 0.0, 0.0, 1.645921835585398E9, 0.0, 2022-02-27 11:30:35.585
82.0, -973.887857662184, -4229.307678855381, -1853.7419264008913, -10118.947639339882, -461.89879916892045, 152.12597276281986, -5527.340534608428, -1796.3426466396627, -4171.416660716136, -6348.633032874231, -3921.4347507279817, -2957.15814318158, -3181.6367127462286, -2215.1919859876616, -9780.832800964452, -15679.1005348087, 0.017375, -0.10437500000000001, 0.9858750000000001, 192.0, 0.0, 0.0, 0.0, 0.0, 0.0, 0.0, 0.0, 0.0, 0.0, 1.645921835593317E9, 0.0, 2022-02-27 11:30:35.593
84.0, -815.7939691297971, -4088.8716684426868, -1643.1214383985327, -9894.558476753054, -255.79336354653404, 356.0856409174968, -5236.633746222705, -1410.3727233854204, -1233.2798520660224, -5527.139368908331, -4058.2497785389164, -2828.121522441092, -3474.1092889439215, -2268.0315098800074, -9378.747269957932, -14499.420165946505, 0.017375, -0.10437500000000001, 0.9858750000000001, 192.0, 0.0, 0.0, 0.0, 0.0, 0.0, 0.0, 0.0, 0.0, 0.0, 1.645921835600278E9, 0.0, 2022-02-27 11:30:35.600
86.0, -499.6732472983894, -3870.517476858792, -1444.995575546691, -9681.255779416058, 31.560663170893573, 503.94243048935306, -5257.75614473297, -1503.6912564863273, -3209.7328555265494, -5782.016310932197, -3734.4177048704273, -2820.32076362619, -3033.332888285266, -1999.3188380383062, -9530.336800853825, -15050.971812125661, 0.0166875, -0.10418750000000002, 0.9859375, 192.0, 0.0, 64.0, 126.0, 96.0, 15.0, 104.0, 0.0, 0.0, 0.0, 1.645921835608634E9, 0.0, 2022-02-27 11:30:35.608
88.0, -1235.3362125559108, -4439.503483713089, -1941.7407443214352, -10214.50134688632, -590.6224954870338, 96.96186744712203, -5459.525341931027, -1703.6052588945936, -2888.0018458368595, -6266.468020256522, -4192.0473208483845, -3010.5788124297637, -3511.280239973097, -2420.7386279986654, -9697.527849379523, -15344.137292401469, 0.0166875, -0.10418750000000002, 0.9859375, 192.0, 0.0, 0.0, 0.0, 0.0, 0.0, 0.0, 0.0, 0.0, 0.0, 1.645921835615007E9, 0.0, 2022-02-27 11:30:35.615
90.0, -548.2882914886823, -3918.618430926613, -1380.3990340708535, -9605.617476179299, 100.69460877115831, 604.1229491380393, -5088.128756061645, -1263.0523756804914, -1595.4898709642735, -5340.591709684338, -3846.4446480804263, -2777.5618764831875, -3209.911669482192, -2041.5859868032917, -9309.590972613212, -14387.415574480961, 0.0166875, -0.10418750000000002, 0.9859375, 192.0, 0.0, 0.0, 0.0, 0.0, 0.0, 0.0, 0.0, 0.0, 0.0, 1.64592183562305E9, 0.0, 2022-02-27 11:30:35.623
92.0, -1149.393755125255, -4396.990465759095, -1844.5777111742154, -10111.884488092004, -418.7599323701778, 188.64872320279161, -5496.293961560007, -1777.5448295527494, -4238.963632460074, -6400.757300944007, -3965.422983816026, -3001.2357832474454, -3174.953541154092, -2198.8975642797427, -9774.395498561324, -15673.981985328435, 0.0166875, -0.10418750000000002, 0.9859375, 192.0, 0.0, 0.0, 0.0, 0.0, 0.0, 0.0, 0.0, 0.0, 0.0, 1.645921835630011E9, 0.0, 2022-02-27 11:30:35.630
94.0, -1025.3862768872116, -4284.002397537518, -1661.4498688518845, -9922.20758464427, -237.62139530436937, 366.5686090670358, -5210.571612187817, -1397.833394745993, -1330.1523125353233, -5581.968198057199, -4119.985296724474, -2894.506203473354, -3474.1986959217425, -2265.6175214788345, -9377.160296101607, -14517.100395810652, 0.0166875, -0.10418750000000002, 0.9859375, 192.0, 0.0, 0.0, 0.0, 0.0, 0.0, 0.0, 0.0, 0.0, 0.0, 1.645921835637669E9, 0.0, 2022-02-27 11:30:35.637
96.0, -667.579551646656, -4030.645374136612, -1446.1131627694563, -9686.910770763252, 71.5255822569826, 531.5691866361126, -5209.543431942872, -1456.9537588302803, -3245.4732949105855, -5782.4856975657585, -3797.851955634589, -2874.2555229968457, -3030.3154027837995, -1995.5413932253593, -9512.365998311758, -15020.461680944167, 0.01434375, -0.10609375000000001, 0.9879687500000001, 192.0, 0.0, 48.0, 126.0, 80.0, 15.0, 120.0, 0.0, 0.0, 0.0, 1.645921835645626E9, 0.0, 2022-02-27 11:30:35.645
98.0, -1371.3465775664542, -4579.313645281034, -1944.6688228450803, -10223.419692923986, -561.8334486285984, 113.32334438840681, -5431.093922983876, -1671.374043390041, -2959.460372860476, -6308.891631232695, -4252.665251811177, -3070.459135825531, -3502.630114868893, -2418.436398319769, -9687.380157396812, -15334.123710885491, 0.01434375, -0.10609375000000001, 0.9879687500000001, 192.0, 0.0, 0.0, 0.0, 0.0, 0.0, 0.0, 0.0, 0.0, 0.0, 1.64592183565361E9, 0.0, 2022-02-27 11:30:35.653
100.0, -619.2550801342821, -3978.386995600104, -1388.4903655636747, -9612.010075093518, 118.86657701332295, 621.1102749240727, -5067.408688951575, -1242.5781777594302, -1635.5889005170943, -5394.325303354896, -3892.5562968917247, -2821.3936473600447, -3210.2469456490217, -2048.515027584437, -9298.415100385559, -14374.049231296687, 0.01434375, -0.10609375000000001, 0.9879687500000001, 192.0, 0.0, 0.0, 0.0, 0.0, 0.0, 0.0, 0.0, 0.0, 0.0, 1.645921835667307E9, 0.0, 2022-02-27 11:30:35.667
102.0, -1155.138153450269, -4405.506480396567, -1850.7914961327906, -10113.583220670607, -422.9173568388649, 167.66043515925827, -5491.04130161301, -1778.8859342200678, -4248.17255117566, -6407.328713813868, -3984.712539280956, -3008.9694868289816, -3177.8369161888263, -2206.117177738807, -9770.550998515011, -15664.549549168296, 0.01434375, -0.10609375000000001, 0.9879687500000001, 192.0, 0.0, 0.0, 0.0, 0.0, 0.0, 0.0, 0.0, 0.0, 0.0, 1.645921835675279E9, 0.0, 2022-02-27 11:30:35.675
104.0, -974.6478169736645, -4244.193940662616, -1657.113630427555, -9914.116253151447, -243.65636630730228, 371.0389579580972, -5195.260667235932, -1386.836336473982, -1310.192204736734, -5598.0614540650195, -4127.629593328189, -2871.0815752841922, -3474.9810069776786, -2275.586399505901, -9374.232217577961, -14501.878857836587, 0.01434375, -0.10609375000000001, 0.9879687500000001, 192.0, 0.0, 0.0, 0.0, 0.0, 0.0, 0.0, 0.0, 0.0, 0.0, 1.645921835682442E9, 0.0, 2022-02-27 11:30:35.682
106.0, -584.1404895949947, -3942.6912597049786, -1436.926595798325, -9680.115840448838, 69.20100083363067, 540.5769396516013, -5211.577440688306, -1459.2336367647215, -3226.3402016568425, -5792.901610481931, -3788.0171880742537, -2856.0164995213154, -3029.7119056835063, -1994.9602478695213, -9513.081254134328, -15019.321741976946, 0.01, -0.108, 0.992, 192.0, 0.0, 40.0, 126.0, 80.0, 15.5, 0.0, 0.0, 0.0, 0.0, 1.645921835689849E9, 0.0, 2022-02-27 11:30:35.689
108.0, -1279.5032595995974, -4492.1194901608815, -1932.9118052615888, -10214.993085264336, -562.3698904955257, 112.04929495445431, -5440.615766121837, -1689.4789563988397, -2964.3554048961887, -6286.808107710852, -4214.756693214977, -3026.917937626593, -3488.0120739951226, -2425.6113082899224, -9691.805802798963, -15347.490054069765, 0.01, -0.108, 0.992, 192.0, 0.0, 0.0, 0.0, 0.0, 0.0, 0.0, 0.0, 0.0, 0.0, 1.645921835698005E9, 0.0, 2022-02-27 11:30:35.698
110.0, -532.910291303431, -3901.1840702514737, -1374.2523043456442, -9613.194717549648, 114.06095195543195, 606.648696261489, -5070.157953519578, -1249.551922029486, -1552.3510041655309, -5316.541232650427, -3869.1540204470184, -2781.2722660627683, -3212.2809543944545, -2049.4090973626494, -9297.610437585168, -14361.375792190527, 0.01, -0.108, 0.992, 192.0, 0.0, 0.0, 0.0, 0.0, 0.0, 0.0, 0.0, 0.0, 0.0, 1.645921835705948E9, 0.0, 2022-02-27 11:30:35.705
112.0, -1037.791495059907, -4292.808984852909, -1817.26387944983, -10097.624075129519, -395.2682489476501, 191.93442963772173, -5482.748804420091, -1765.0278526577774, -4220.411684562169, -6404.110062612303, -3957.6222250011238, -3006.823719361272, -3159.329671779832, -2190.605067086824, -9761.207969332692, -15650.222080972444, 0.01, -0.108, 0.992, 192.0, 0.0, 0.0, 0.0, 0.0, 0.0, 0.0, 0.0, 0.0, 0.0, 1.645921835712523E9, 0.0, 2022-02-27 11:30:35.712
114.0, -912.1076359877153, -4167.818029858831, -1663.66269155296, -9921.782901499619, -258.00618624760943, 344.41803031182656, -5226.217833306531, -1406.5505750835628, -1319.9152135747927, -5569.473572906682, -4105.09903491724, -2867.0135577933265, -3476.16564943381, -2282.2025158646725, -9380.66951998109, -14535.048846608264, 0.01, -0.108, 0.992, 192.0, 0.0, 0.0, 0.0, 0.0, 0.0, 0.0, 0.0, 0.0, 0.0, 1.64592183572117E9, 0.0, 2022-02-27 11:30:35.721
116.0, -493.81709025109893, -3860.1239156870743, -1424.990764259191, -9657.33941284888, 78.61108524931494, 536.0618872716293, -5237.617222978738, -1457.4007937193865, -3130.942956321592, -5735.971717354264, -3761.239798216796, -2805.2109843744024, -3030.918899884093, -1995.3178757808062, -9501.815974928853, -14978.999194979573, 0.012, -0.108, 0.99, 192.0, 0.0, 48.0, 126.0, 80.0, 15.0, 120.0, 0.0, 0.0, 0.0, 1.645921835727633E9, 0.0, 2022-02-27 11:30:35.727
118.0, -1206.7706831420282, -4404.0089135180615, -1933.7164680619799, -10215.663637597996, -564.7615271522435, 101.05223668244324, -5459.100658786376, -1699.693703614915, -2972.402032900099, -6261.95296787655, -4193.410777260158, -3001.5934111587303, -3486.1568792053317, -2412.8708139503974, -9702.467584904145, -15362.979812977293, 0.012, -0.108, 0.99, 192.0, 0.0, 0.0, 0.0, 0.0, 0.0, 0.0, 0.0, 0.0, 0.0, 1.645921835735574E9, 0.0, 2022-02-27 11:30:35.735
120.0, -471.2865318401494, -3827.7585897157896, -1378.2309148586887, -9610.311342514915, 93.92203020120027, 596.1210246230394, -5091.481517729941, -1258.6267302783408, -1517.8399107265368, -5310.819186069869, -3857.3075958857057, -2767.324777522657, -3214.940811984636, -2065.8376295373, -9301.700806820489, -14360.347611945585, 0.012, -0.108, 0.99, 192.0, 0.0, 0.0, 0.0, 0.0, 0.0, 0.0, 0.0, 0.0, 0.0, 1.645921835742245E9, 0.0, 2022-02-27 11:30:35.742
122.0, -1000.9111167086503, -4254.900426256708, -1834.8323505917015, -10105.268371733233, -417.84351084751023, 162.6089409123589, -5490.124880090342, -1783.9374284669673, -4199.982190130018, -6357.461971934077, -3944.25588181685, -2974.9054282790935, -3164.336462537821, -2183.184287927662, -9773.032042149549, -15655.273575219344, 0.012, -0.108, 0.99, 192.0, 0.0, 0.0, 0.0, 0.0, 0.0, 0.0, 0.0, 0.0, 0.0, 1.645921835750223E9, 0.0, 2022-02-27 11:30:35.750
124.0, -860.8774376961516, -4134.2904131758705, -1663.9756159753342, -9912.194003128292, -276.0663957674975, 340.3947163098713, -5222.1498158156655, -1410.2162611742333, -1294.5236318735638, -5554.900235521822, -4103.601468038734, -2846.8746360390946, -3480.2113151802205, -2300.0615596844627, -9386.883304939665, -14517.234506277384, 0.012, -0.108, 0.99, 192.0, 0.0, 0.0, 0.0, 0.0, 0.0, 0.0, 0.0, 0.0, 0.0, 1.645921835758212E9, 0.0, 2022-02-27 11:30:35.758
126.0, -451.19231357482835, -3820.5613280011808, -1423.739066569694, -9656.668860515221, 67.3905095327508, 522.2708609427049, -5225.860205395246, -1471.7282619152381, -3133.021668555936, -5741.671412190368, -3756.277710947718, -2806.7532547418186, -3036.9985743759366, -1990.9145821231107, -9509.393216299202, -14992.097317230382, 0.014, -0.11, 0.992, 192.0, 0.0, 56.0, 126.0, 72.0, 15.5, 0.0, 0.0, 0.0, 0.0, 1.645921835765288E9, 0.0, 2022-02-27 11:30:35.765
128.0, -1166.0458047444588, -4373.767003270031, -1937.4045058971055, -10208.868707283582, -583.3805302835143, 92.44681506715001, -5465.470905956138, -1708.2991252302081, -2977.855858547194, -6269.731374946997, -4188.582800457812, -2993.21150698799, -3490.314303674019, -2416.849424463442, -9702.44523315969, -15379.721269574318, 0.014, -0.11, 0.992, 192.0, 0.0, 0.0, 0.0, 0.0, 0.0, 0.0, 0.0, 0.0, 0.0, 1.645921835772894E9, 0.0, 2022-02-27 11:30:35.772
130.0, -431.7015924098006, -3795.9073538669772, -1377.292141591566, -9610.646618681743, 91.93272494467794, 595.3163618226483, -5104.244363813921, -1259.4090413342765, -1513.637782768939, -5297.81047079688, -3842.868368967577, -2745.3753644675453, -3219.7687887869824, -2047.1068676837526, -9299.130356208128, -14363.253338724773, 0.014, -0.11, 0.992, 192.0, 0.0, 0.0, 0.0, 0.0, 0.0, 0.0, 0.0, 0.0, 0.0, 1.645921835780864E9, 0.0, 2022-02-27 11:30:35.780
132.0, -943.310671247324, -4198.752844184976, -1822.7624085858356, -10088.236342458289, -410.1768624993399, 182.83726964441178, -5496.361016793373, -1772.0910039056546, -4192.8743353932305, -6327.085951219315, -3920.6077361831353, -2959.125096693647, -3157.5191804789524, -2185.441814117648, -9765.275986823557, -15654.781836841326, 0.014, -0.11, 0.992, 192.0, 0.0, 0.0, 0.0, 0.0, 0.0, 0.0, 0.0, 0.0, 0.0, 1.64592183579452E9, 0.0, 2022-02-27 11:30:35.794
134.0, -826.992193101906, -4091.9785609219743, -1666.5237148432393, -9921.604087543976, -276.0440440230422, 353.4928385606812, -5233.593908976783, -1416.6535635773616, -1309.2757832140665, -5542.9420522382325, -4098.281752858371, -2838.604490590631, -3486.7827280500806, -2288.371597334337, -9387.553857273324, -14531.316105284228, 0.014, -0.11, 0.992, 192.0, 0.0, 0.0, 0.0, 0.0, 0.0, 0.0, 0.0, 0.0, 0.0, 1.645921835802456E9, 0.0, 2022-02-27 11:30:35.802
136.0, -409.7521793546891, -3775.880190835022, -1417.055894977557, -9647.526997033001, 71.97261714608874, 536.330108205093, -5231.246975808976, -1448.9071308263697, -3085.9265429886036, -5701.818251826555, -3738.083390961098, -2793.386911557545, -3023.1628445581014, -1987.4053582436275, -9499.603152227779, -14974.797067021975, 0.008, -0.10200000000000001, 0.988, 192.0, 0.0, 32.0, 126.0, 104.0, 15.0, 112.0, 0.0, 0.0, 0.0, 1.645921835810514E9, 0.0, 2022-02-27 11:30:35.810
138.0, -1139.6930980316517, -4340.976994154095, -1934.945814007022, -10210.433329395453, -578.3960912699808, 101.23105063808569, -5460.151190775775, -1705.661619384482, -3018.625440433674, -6260.656566698142, -4183.531306210913, -2985.6119138731856, -3486.0227687386, -2406.455863291724, -9705.127442494326, -15378.670737584918, 0.008, -0.10200000000000001, 0.988, 192.0, 0.0, 0.0, 0.0, 0.0, 0.0, 0.0, 0.0, 0.0, 0.0, 1.645921835817571E9, 0.0, 2022-02-27 11:30:35.817
140.0, -395.82704255903275, -3763.6090831290585, -1374.162897367823, -9602.152955788726, 91.4409865666612, 598.5350130242125, -5091.392110752119, -1262.515933813564, -1497.0080848941905, -5285.226438668542, -3828.786769960734, -2729.282108459724, -3212.437416605642, -2038.7920187463785, -9292.760109038367, -14360.057039267665, 0.008, -0.10200000000000001, 0.988, 192.0, 0.0, 0.0, 0.0, 0.0, 0.0, 0.0, 0.0, 0.0, 0.0, 1.645921835825173E9, 0.0, 2022-02-27 11:30:35.825
142.0, -896.4167113800897, -4157.312709964837, -1811.2289084468973, -10069.147952693458, -398.17397572684, 201.21040358667418, -5491.488336502116, -1784.1609459115205, -4182.6372364327, -6311.730302778519, -3901.4746429293923, -2940.573148795742, -3142.141180293701, -2165.5934650413355, -9759.643347220821, -15651.13850249511, 0.008, -0.10200000000000001, 0.988, 192.0, 0.0, 0.0, 0.0, 0.0, 0.0, 0.0, 0.0, 0.0, 0.0, 1.645921835833172E9, 0.0, 2022-02-27 11:30:35.833
144.0, -813.5811464287218, -4081.2050200945164, -1669.9882352338118, -9919.167747398347, -295.15478553232975, 342.54048377758073, -5246.356755060763, -1434.8478835639817, -1311.6674198707844, -5529.799226498512, -4078.1875345930503, -2813.9505164564275, -3475.9421319892567, -2276.949855917675, -9397.947418445041, -14549.197500848473, 0.008, -0.10200000000000001, 0.988, 192.0, 0.0, 0.0, 0.0, 0.0, 0.0, 0.0, 0.0, 0.0, 0.0, 1.64592183584112E9, 0.0, 2022-02-27 11:30:35.841
146.0, -396.34113268150486, -3769.2193709873404, -1417.4582263777527, -9646.543520276968, 67.83754442185693, 537.1794744943946, -5221.658077437649, -1434.445552163786, -3062.9042461996373, -5688.36250166446, -3729.0532862011537, -2778.0089113722934, -3029.5107399834087, -1982.5997331857366, -9497.680902204622, -14963.19651164967, 0.01, -0.1, 0.984, 192.0, 0.0, 40.0, 126.0, 112.0, 15.0, 96.0, 0.0, 0.0, 0.0, 1.645921835847447E9, 0.0, 2022-02-27 11:30:35.847
148.0, -1139.916615476205, -4350.9458721811625, -1940.332584420751, -10213.137890474545, -588.8120041861539, 88.24468710955229, -5465.001519322577, -1707.33800021863, -3024.816873647794, -6272.86061917074, -4170.880218849208, -2983.4214429165654, -3486.8497832834464, -2410.6356395048665, -9711.989428042107, -15386.04681325517, 0.01, -0.1, 0.984, 192.0, 0.0, 0.0, 0.0, 0.0, 0.0, 0.0, 0.0, 0.0, 0.0, 1.645921835854919E9, 0.0, 2022-02-27 11:30:35.854
150.0, -407.87463282044325, -3773.5109059227593, -1374.4981735346526, -9606.824470379886, 89.18346037667519, 592.3882832990031, -5088.396976995108, -1268.7520705165948, -1486.1451370889113, -5288.646255570204, -3837.593357276125, -2728.186872981414, -3218.8970707532253, -2058.1039259557638, -9292.715405549456, -14353.50797814226, 0.01, -0.1, 0.984, 192.0, 0.0, 0.0, 0.0, 0.0, 0.0, 0.0, 0.0, 0.0, 0.0, 1.645921835862839E9, 0.0, 2022-02-27 11:30:35.862
152.0, -893.5333363453551, -4164.241750745982, -1794.4874518498723, -10070.019670727215, -384.1594319533625, 199.31050530797307, -5480.111298574365, -1767.5535997812271, -4181.005559087463, -6311.573840567332, -3895.909058560021, -2929.821959712739, -3141.2471105154887, -2177.350482624827, -9750.769704672064, -15644.120054736146, 0.01, -0.1, 0.984, 192.0, 0.0, 0.0, 0.0, 0.0, 0.0, 0.0, 0.0, 0.0, 0.0, 1.645921835870838E9, 0.0, 2022-02-27 11:30:35.870
154.0, -819.6831726650206, -4088.290523086849, -1666.5907700766052, -9937.652640062886, -294.3277709874834, 331.54342550556964, -5247.653156239171, -1441.7098691117608, -1331.8286933694712, -5571.1723054852855, -4081.2720753278827, -2830.9378422424606, -3477.9761407346896, -2283.141289131795, -9387.57620901778, -14563.949652188976, 0.01, -0.1, 0.984, 192.0, 0.0, 0.0, 0.0, 0.0, 0.0, 0.0, 0.0, 0.0, 0.0, 1.645921835877495E9, 0.0, 2022-02-27 11:30:35.877
156.0, -380.3819871404156, -3756.5459318811813, -1398.4368918462865, -9644.889491187274, 79.21458234960824, 555.1949805253721, -5225.100246083766, -1446.962529058758, -3026.4485509930314, -5674.213847424251, -3722.9736117093103, -2778.679463705953, -3027.476731237976, -1983.1808785415744, -9484.40396599817, -14951.260680110538, 0.014, -0.108, 0.982, 192.0, 0.0, 56.0, 126.0, 80.0, 15.0, 88.0, 0.0, 0.0, 0.0, 1.645921835885415E9, 0.0, 2022-02-27 11:30:35.885
158.0, -1132.6522985282302, -4333.936194650673, -1931.101313960709, -10213.093186985634, -599.7196554803438, 99.08528317037621, -5466.70025190118, -1723.0736283151662, -3077.3881766066766, -6268.680842957598, -4157.044489031374, -2978.4593556474874, -3478.6690448128043, -2390.8990491508307, -9711.341227452902, -15410.343159478089, 0.014, -0.108, 0.982, 192.0, 0.0, 0.0, 0.0, 0.0, 0.0, 0.0, 0.0, 0.0, 0.0, 1.645921835893415E9, 0.0, 2022-02-27 11:30:35.893
160.0, -407.0029147866863, -3774.136754767508, -1374.8781531903928, -9605.684531412666, 73.09020436885409, 573.8139836566429, -5092.934381119536, -1274.809393263983, -1460.7759071321377, -5281.001958966489, -3840.074400910664, -2728.835073570618, -3237.78429481796, -2078.6898825991016, -9295.732891050922, -14352.770370575236, 0.014, -0.108, 0.982, 192.0, 0.0, 0.0, 0.0, 0.0, 0.0, 0.0, 0.0, 0.0, 0.0, 1.645921835900062E9, 0.0, 2022-02-27 11:30:35.900
162.0, -889.6217810656764, -4158.1173727652285, -1801.6400100755704, -10067.583330581587, -411.92029856685383, 187.12880457983073, -5500.339627306417, -1786.0608441902214, -4177.094003807784, -6278.649720984665, -3891.394006180049, -2926.603308511175, -3147.2820815184214, -2189.2639624195053, -9757.810504175486, -15637.235717443911, 0.014, -0.108, 0.982, 192.0, 0.0, 0.0, 0.0, 0.0, 0.0, 0.0, 0.0, 0.0, 0.0, 1.645921835915103E9, 0.0, 2022-02-27 11:30:35.915
164.0, -801.3323904672135, -4067.9504356325197, -1666.94839798789, -9919.01128518716, -303.67080016980174, 342.92046343332095, -5259.8348569673135, -1440.9052063113697, -1317.1659490067898, -5563.729174581668, -4077.9193136595864, -2808.4743390648773, -3491.476594385695, -2293.3113328589598, -9399.065005667808, -14545.062428124242, 0.014, -0.108, 0.982, 192.0, 0.0, 0.0, 0.0, 0.0, 0.0, 0.0, 0.0, 0.0, 0.0, 1.645921835923221E9, 0.0, 2022-02-27 11:30:35.923
166.0, -372.62593181442406, -3744.1630654529413, -1401.5661360700294, -9633.311287559425, 87.79765222044614, 560.0229573277185, -5202.50263243945, -1456.9984623191908, -3026.69442018204, -5665.742536275689, -3720.425512841405, -2775.639626460031, -3040.8654261667048, -2002.2022130730406, -9498.574971982835, -14948.354953331347, 0.016, -0.112, 0.984, 192.0, 0.0, 64.0, 126.0, 64.0, 15.0, 96.0, 0.0, 0.0, 0.0, 1.645921835929732E9, 0.0, 2022-02-27 11:30:35.929
168.0, -1128.2490048705347, -4338.831226686386, -1940.2431774429297, -10220.312800444699, -611.45432131938, 92.20094587814164, -5462.900455343778, -1714.7587793777918, -3095.4260343821093, -6256.767363162919, -4159.704346621555, -2984.784899328339, -3485.5086786161282, -2425.0972181674506, -9717.845585089397, -15410.946656578382, 0.016, -0.112, 0.984, 192.0, 0.0, 0.0, 0.0, 0.0, 0.0, 0.0, 0.0, 0.0, 0.0, 1.645921835937836E9, 0.0, 2022-02-27 11:30:35.937
170.0, -416.3235922245494, -3793.850993377089, -1385.9199149513145, -9620.973124620095, 64.68594845365864, 587.5603064966567, -5098.567020722273, -1272.6636257962734, -1456.4620204522635, -5291.462575371573, -3841.3484503446166, -2730.6008613825875, -3244.3110041989094, -2076.834687809311, -9295.621132328646, -14348.12120772853, 0.016, -0.112, 0.984, 192.0, 0.0, 0.0, 0.0, 0.0, 0.0, 0.0, 0.0, 0.0, 0.0, 1.645921835945765E9, 0.0, 2022-02-27 11:30:35.945
172.0, -894.9861997349501, -4174.1435735396835, -1801.9529344979449, -10084.861229045538, -407.0252665311416, 188.022874358043, -5491.890667902311, -1777.947160952945, -4199.512803496457, -6320.760407538463, -3899.9547243064317, -2936.1475033935913, -3151.975947854036, -2188.414596130204, -9750.210911060682, -15636.05107498778, 0.016, -0.112, 0.984, 192.0, 0.0, 0.0, 0.0, 0.0, 0.0, 0.0, 0.0, 0.0, 0.0, 1.645921835952765E9, 0.0, 2022-02-27 11:30:35.952
174.0, -825.4946262234005, -4092.6267615111783, -1678.3477876600966, -9948.336773912522, -316.09837008695246, 322.02158236760886, -5242.400496292174, -1444.7273546132274, -1352.7499261796388, -5589.836012105467, -4093.900810945131, -2833.418885877, -3498.40563516684, -2331.7116298331775, -9393.678235254078, -14573.69501277149, 0.013000000000000001, -0.109, 0.987, 192.0, 0.0, 40.0, 126.0, 88.0, 15.0, 120.0, 0.0, 0.0, 0.0, 1.645921835960322E9, 0.0, 2022-02-27 11:30:35.960
176.0, -387.0204552436418, -3766.0007197857763, -1403.6001448154623, -9650.231558112093, 74.05132938043229, 546.6342623989896, -5202.793205117369, -1445.9343488138138, -3024.213376547501, -5689.882420287421, -3740.1173997065307, -2782.926295152461, -3050.6107867492187, -2023.548129027859, -9480.78298339641, -14941.135339872282, 0.013000000000000001, -0.109, 0.987, 192.0, 0.0, 0.0, 0.0, 0.0, 0.0, 0.0, 0.0, 0.0, 0.0, 1.645921835967364E9, 0.0, 2022-02-27 11:30:35.967
178.0, -1142.196493410646, -4345.492046534067, -1942.7242210774687, -10236.003725052326, -610.9625829413633, 87.060044653421, -5491.5777434799365, -1734.1600935649985, -3129.33363072081, -6279.230866340503, -4179.507992208957, -3009.1930042735344, -3497.958600277734, -2435.200206661249, -9715.409244943768, -15424.223592784834, 0.013000000000000001, -0.109, 0.987, 192.0, 0.0, 0.0, 0.0, 0.0, 0.0, 0.0, 0.0, 0.0, 0.0, 1.645921835975347E9, 0.0, 2022-02-27 11:30:35.975
180.0, -416.23418524672815, -3776.818964102145, -1386.1210806514123, -9630.606726480333, 61.288483296451965, 573.746928423277, -5095.169555565066, -1283.6383323238292, -1465.514476956663, -5288.355682892285, -3843.225996878862, -2745.6435854010087, -3238.9912890185465, -2076.7452808314897, -9293.430661372025, -14354.64791710948, 0.013000000000000001, -0.109, 0.987, 192.0, 0.0, 0.0, 0.0, 0.0, 0.0, 0.0, 0.0, 0.0, 0.0, 1.645921835982558E9, 0.0, 2022-02-27 11:30:35.982
182.0, -899.6577143261093, -4163.191218756583, -1803.562260098727, -10082.491944133275, -406.6452868754014, 186.77117666854582, -5495.131670848331, -1786.105547679132, -4202.440882020102, -6293.781851980907, -3897.965419049909, -2948.8432942442055, -3148.5784826968293, -2200.059854991419, -9751.93199538374, -15643.538909380308, 0.013000000000000001, -0.109, 0.987, 192.0, 0.0, 0.0, 0.0, 0.0, 0.0, 0.0, 0.0, 0.0, 0.0, 1.645921835989964E9, 0.0, 2022-02-27 11:30:35.989
184.0, -843.6218909766544, -4109.9270117195865, -1686.3944156640073, -9949.722582068753, -313.48321598568157, 322.1333410898854, -5242.8698829257355, -1440.2793574666211, -1364.484592018675, -5592.58527667347, -4098.438215069558, -2855.413002421022, -3504.8205858255133, -2328.2918129315153, -9404.161203403617, -14574.454972082971, 0.0115, -0.1085, 0.9884999999999999, 192.0, 0.0, 40.0, 126.0, 80.0, 15.0, 120.0, 0.0, 0.0, 0.0, 1.645921835997911E9, 0.0, 2022-02-27 11:30:35.997
186.0, -398.64336236040145, -3782.3174932381507, -1408.3163628955322, -9647.303479588447, 76.75589045952445, 549.428230455903, -5202.927315584102, -1441.2181307337441, -3024.1686730585902, -5699.828946570033, -3736.5187688492265, -2794.5268505247655, -3045.6486994801403, -2032.801751232356, -9486.97441661053, -14937.38024680379, 0.0115, -0.1085, 0.9884999999999999, 192.0, 0.0, 0.0, 0.0, 0.0, 0.0, 0.0, 0.0, 0.0, 0.0, 1.645921836005924E9, 0.0, 2022-02-27 11:30:36.005
188.0, -1156.6133685843192, -4369.766041012531, -1951.5755118817704, -10232.092169772646, -600.7254839808326, 89.04934990994333, -5467.303749001473, -1726.9851835948448, -3151.685375176117, -6310.702122533575, -4175.462326462546, -2999.134719268646, -3480.7254053026923, -2439.8717212524084, -9720.34898046839, -15425.430586985422, 0.0115, -0.1085, 0.9884999999999999, 192.0, 0.0, 0.0, 0.0, 0.0, 0.0, 0.0, 0.0, 0.0, 0.0, 1.645921836013528E9, 0.0, 2022-02-27 11:30:36.013
190.0, -442.5421884706245, -3798.65661843498, -1400.3144383805322, -9642.900185930752, 68.30693105541839, 582.6652744609445, -5086.742947905415, -1270.4955065841089, -1458.026642564135, -5262.584121535316, -3852.6360812945463, -2753.01966107126, -3238.7230680850826, -2092.704426372579, -9290.927265993032, -14339.292268668685, 0.0115, -0.1085, 0.9884999999999999, 192.0, 0.0, 0.0, 0.0, 0.0, 0.0, 0.0, 0.0, 0.0, 0.0, 1.645921836020539E9, 0.0, 2022-02-27 11:30:36.020
192.0, -916.019191267394, -4165.53815192439, -1813.106454981143, -10089.979778525803, -388.0486354885859, 196.71770295115746, -5485.7662899215575, -1773.297998106241, -4221.842196207309, -6303.840136985796, -3908.5601459217246, -2981.58859987123, -3139.838950614804, -2196.371817156293, -9747.953384870694, -15626.66334231655, 0.0115, -0.1085, 0.9884999999999999, 192.0, 0.0, 0.0, 0.0, 0.0, 0.0, 0.0, 0.0, 0.0, 0.0, 1.645921836028613E9, 0.0, 2022-02-27 11:30:36.028
194.0, -868.8570104666961, -4135.340945165271, -1705.52750891775, -9961.300785696601, -319.80875966653343, 305.0119048371202, -5252.369374319241, -1446.00140404718, -1411.6020693304622, -5614.802910662045, -4121.460511858525, -2884.7384911463846, -3509.089769016477, -2339.087705503429, -9404.027092936885, -14582.74746927589, 0.012750000000000001, -0.10725, 0.99025, 192.0, 0.0, 56.0, 126.0, 88.0, 15.5, 0.0, 0.0, 0.0, 0.0, 1.645921836042314E9, 0.0, 2022-02-27 11:30:36.042
196.0, -405.28183046362767, -3798.6789701794355, -1412.2949734085767, -9655.640680270277, 82.05325389543222, 547.3718699660146, -5199.328684726797, -1438.1112382544563, -3013.1939665310347, -5688.69777783129, -3749.1922079553856, -2809.7707402432848, -3053.0471268948468, -2023.5034255389485, -9477.743146150488, -14923.455110008135, 0.012750000000000001, -0.10725, 0.99025, 192.0, 0.0, 0.0, 0.0, 0.0, 0.0, 0.0, 0.0, 0.0, 0.0, 1.645921836050302E9, 0.0, 2022-02-27 11:30:36.050
198.0, -1157.9321215071823, -4356.220883872615, -1957.5210759068818, -10247.2690042578, -606.6263445170337, 81.0250736504881, -5481.117127074853, -1740.1280093345654, -3189.7950994724156, -6266.222151067514, -4172.489544449991, -3044.978147146481, -3476.3444633894524, -2438.7094305407322, -9720.527794424033, -15442.44026451591, 0.012750000000000001, -0.10725, 0.99025, 192.0, 0.0, 0.0, 0.0, 0.0, 0.0, 0.0, 0.0, 0.0, 0.0, 1.645921836058235E9, 0.0, 2022-02-27 11:30:36.058
200.0, -444.2185693047726, -3789.045368319198, -1403.7342552821942, -9647.929328433196, 63.21073331960837, 575.0433296016848, -5090.632151440639, -1277.357492131888, -1454.4950669401965, -5235.314993299841, -3849.8421132376334, -2785.0720626201705, -3240.4441524081412, -2113.6256591827464, -9286.322806635239, -14347.31654492814, 0.012750000000000001, -0.10725, 0.99025, 192.0, 0.0, 0.0, 0.0, 0.0, 0.0, 0.0, 0.0, 0.0, 0.0, 1.64592183606479E9, 0.0, 2022-02-27 11:30:36.064
202.0, -897.89192651414, -4175.328215995814, -1802.6681903205147, -10071.85251377255, -379.30910340656084, 216.29783109400645, -5476.445612483694, -1765.8548672026238, -4223.429170063636, -6309.830404499818, -3899.1500615060404, -2971.9102945220825, -3135.592119168296, -2163.090069662341, -9741.31491676747, -15623.176470181523, 0.012750000000000001, -0.10725, 0.99025, 192.0, 0.0, 0.0, 0.0, 0.0, 0.0, 0.0, 0.0, 0.0, 0.0, 1.645921836072915E9, 0.0, 2022-02-27 11:30:36.072
204.0, -876.635417537143, -4148.528474393902, -1715.854014856102, -9969.503875911698, -329.6658789713239, 312.566794463014, -5245.306223071364, -1450.6952703827942, -1432.0092120181575, -5550.005203486109, -4118.308915890327, -2845.9582145164272, -3506.0052282816446, -2349.8388945864317, -9408.989180205963, -14592.60458858068, 0.013375000000000001, -0.107625, 0.9901249999999999, 192.0, 0.0, 56.0, 126.0, 80.0, 15.0, 120.0, 0.0, 0.0, 0.0, 1.645921836080882E9, 0.0, 2022-02-27 11:30:36.080
206.0, -412.8814235784321, -3811.978258130343, -1408.89750825137, -9642.229633597093, 84.60135276333723, 559.2853497606933, -5188.353978199241, -1429.0811334945124, -2971.105631721691, -5642.362611575439, -3743.559568352648, -2820.723095026385, -3041.2677575669004, -2011.7464079554568, -9472.132858292205, -14899.248170763038, 0.013375000000000001, -0.107625, 0.9901249999999999, 192.0, 0.0, 0.0, 0.0, 0.0, 0.0, 0.0, 0.0, 0.0, 0.0, 1.645921836088011E9, 0.0, 2022-02-27 11:30:36.088
208.0, -1181.8931915632716, -4385.926352253718, -1961.5667416532924, -10241.234033254867, -615.8129114881649, 78.74519571604678, -5490.1695835792525, -1746.3641460375961, -3239.773600074482, -6328.695276820097, -4178.6362741752, -3025.6662399370957, -3478.154954690332, -2432.227424648693, -9723.96996307015, -15450.285726819722, 0.013375000000000001, -0.107625, 0.9901249999999999, 192.0, 0.0, 0.0, 0.0, 0.0, 0.0, 0.0, 0.0, 0.0, 0.0, 1.645921836094576E9, 0.0, 2022-02-27 11:30:36.094
210.0, -471.08536614005163, -3824.651697236502, -1414.351333898465, -9642.922537675207, 41.19426503113092, 573.1434313229837, -5125.724390235471, -1291.8190707944716, -1445.3084999690652, -5273.894104229701, -3863.9013605000214, -2761.9827105978384, -3260.963053818113, -2087.451766425582, -9294.011806727864, -14339.001695990766, 0.013375000000000001, -0.107625, 0.9901249999999999, 192.0, 0.0, 0.0, 0.0, 0.0, 0.0, 0.0, 0.0, 0.0, 0.0, 1.645921836102571E9, 0.0, 2022-02-27 11:30:36.102
212.0, -905.6256300956762, -4188.873373135731, -1784.0268354447885, -10051.288908873667, -365.62983579991294, 225.79732248751193, -5468.287225757507, -1762.2562363453194, -4214.1755478591385, -6266.155095834148, -3890.4999364018367, -2964.400108385099, -3129.8030173543716, -2160.1619911386956, -9741.158454556282, -15612.827612498715, 0.013375000000000001, -0.107625, 0.9901249999999999, 192.0, 0.0, 0.0, 0.0, 0.0, 0.0, 0.0, 0.0, 0.0, 0.0, 1.64592183611048E9, 0.0, 2022-02-27 11:30:36.110
214.0, -910.6771243425757, -4177.742204396988, -1718.268003257275, -9980.657396394898, -344.5521407785584, 301.212108279718, -5247.7425632169925, -1474.3881195054198, -1481.0489393531013, -5628.884509668888, -4123.829796770787, -2879.731700388396, -3506.765187593125, -2329.8340832989315, -9414.308895386326, -14620.767786594366, 0.013687500000000002, -0.1068125, 0.9890625, 192.0, 0.0, 56.0, 126.0, 88.0, 15.0, 112.0, 0.0, 0.0, 0.0, 1.645921836118562E9, 0.0, 2022-02-27 11:30:36.118
216.0, -415.3401154685158, -3804.401016759994, -1390.0102841866355, -9631.880775914286, 100.3369808598734, 563.77805039621, -5176.507553637928, -1430.1316654839118, -2917.2379275844014, -5632.617250992925, -3735.1553124374527, -2788.514231266288, -3032.975260373981, -1991.451023990038, -9448.663526614133, -14876.13646699625, 0.013687500000000002, -0.1068125, 0.9890625, 192.0, 0.0, 0.0, 0.0, 0.0, 0.0, 0.0, 0.0, 0.0, 0.0, 1.645921836125193E9, 0.0, 2022-02-27 11:30:36.125
218.0, -1208.6258779318189, -4416.30237296848, -1947.2839769463512, -10240.049390798735, -596.4786525343243, 92.24564936705225, -5476.646778183792, -1741.1561895795096, -3233.425704649175, -6295.882915959706, -4162.8782943342085, -3007.7401408839396, -3456.697280013237, -2405.3382760689587, -9714.895154821295, -15449.43636053042, 0.013687500000000002, -0.1068125, 0.9890625, 192.0, 0.0, 0.0, 0.0, 0.0, 0.0, 0.0, 0.0, 0.0, 0.0, 1.645921836133155E9, 0.0, 2022-02-27 11:30:36.133
220.0, -521.846177798054, -3887.527154389281, -1399.3756651134092, -9641.581433007888, 61.48964899654973, 578.5972569700787, -5082.496116458907, -1274.6305793083407, -1431.316307940043, -5278.900894987691, -3856.592340063136, -2761.4909722198217, -3234.677402338672, -2063.7812690474116, -9275.8398384857, -14332.609097076547, 0.013687500000000002, -0.1068125, 0.9890625, 192.0, 0.0, 0.0, 0.0, 0.0, 0.0, 0.0, 0.0, 0.0, 0.0, 1.645921836140523E9, 0.0, 2022-02-27 11:30:36.140
222.0, -994.5408695388877, -4274.949941033118, -1787.2454866463527, -10051.266557129211, -362.0982601759744, 226.75844749909015, -5453.736240117102, -1750.141590850543, -4215.7625217154655, -6269.329043546802, -3888.91296254551, -2953.4254018575434, -3112.748636334972, -2148.5614357663912, -9729.759064884074, -15606.077385673212, 0.013687500000000002, -0.1068125, 0.9890625, 192.0, 0.0, 0.0, 0.0, 0.0, 0.0, 0.0, 0.0, 0.0, 0.0, 1.645921836148577E9, 0.0, 2022-02-27 11:30:36.148
224.0, -1022.659364063664, -4290.953790063118, -1700.274848970753, -9969.213303233779, -303.2908205140615, 333.1527511063518, -5227.55893797385, -1446.8731220809368, -1462.899322855392, -5616.300477540551, -4129.574195095801, -2881.7880608782843, -3498.6515043558484, -2296.306466615971, -9399.62379927919, -14590.615283324158, 0.013843750000000002, -0.10740625000000001, 0.98953125, 192.0, 0.0, 56.0, 126.0, 80.0, 15.0, 120.0, 0.0, 0.0, 0.0, 1.645921836162149E9, 0.0, 2022-02-27 11:30:36.162
226.0, -573.523410978724, -3951.5425505092803, -1393.675970277306, -9639.614479495822, 120.83353052538997, 577.1890970693943, -5164.8622947767135, -1403.063702948535, -2974.7713178123618, -5650.565701790536, -3761.9774057838213, -2834.5364730997653, -3031.947080129037, -1969.5463144238372, -9448.797637080865, -14881.679699621165, 0.013843750000000002, -0.10740625000000001, 0.98953125, 192.0, 0.0, 0.0, 0.0, 0.0, 0.0, 0.0, 0.0, 0.0, 0.0, 1.645921836170115E9, 0.0, 2022-02-27 11:30:36.170
228.0, -1363.9928536406583, -4582.264075549135, -1962.036128286854, -10243.133931533568, -587.2473820742824, 95.03961742396564, -5455.613786651348, -1717.463340456884, -3309.4439875416742, -6348.878902063239, -4199.289286051904, -3055.1928943625567, -3455.7585067461146, -2396.6210957313892, -9715.073968776938, -15453.43732278792, 0.013843750000000002, -0.10740625000000001, 0.98953125, 192.0, 0.0, 0.0, 0.0, 0.0, 0.0, 0.0, 0.0, 0.0, 0.0, 1.645921836178193E9, 0.0, 2022-02-27 11:30:36.178
230.0, -663.8244585781645, -4014.8873942956207, -1415.513624610141, -9648.71163948913, 63.32249204188491, 590.0189983867406, -5071.499058186896, -1254.5810645319302, -1471.9517793597913, -5300.067996986866, -3902.2793057297836, -2787.6872167214415, -3248.580187389873, -2095.6772083851347, -9275.906893719066, -14325.210669661841, 0.013843750000000002, -0.10740625000000001, 0.98953125, 192.0, 0.0, 0.0, 0.0, 0.0, 0.0, 0.0, 0.0, 0.0, 0.0, 1.645921836184657E9, 0.0, 2022-02-27 11:30:36.184
232.0, -1077.555248445898, -4356.377346083802, -1793.235754160375, -10054.46285658632, -351.9282164488097, 225.0597149204868, -5456.060821540454, -1756.3777275535738, -4263.349385660814, -6292.351340335767, -3924.943974607465, -2987.981198785448, -3124.550357407374, -2161.4360405726484, -9731.323686995947, -15597.918998947025, 0.013843750000000002, -0.10740625000000001, 0.98953125, 192.0, 0.0, 0.0, 0.0, 0.0, 0.0, 0.0, 0.0, 0.0, 0.0, 1.645921836192612E9, 0.0, 2022-02-27 11:30:36.192
234.0, -1059.3609284592783, -4320.592203210856, -1714.3117444886857, -9973.996576547215, -318.3335445324832, 324.7037917022457, -5240.768818946936, -1441.1063720114676, -1509.7932827226261, -5645.648318010369, -4157.245654731471, -2893.8803546286053, -3511.324943462008, -2319.664039571767, -9410.218526151006, -14604.65217884209, 0.014921875000000001, -0.10870312500000001, 0.991765625, 192.0, 0.0, 64.0, 126.0, 72.0, 15.5, 8.0, 0.0, 0.0, 0.0, 1.645921836200877E9, 0.0, 2022-02-27 11:30:36.200
236.0, -544.3096809756375, -3925.7709891523114, -1396.2464208896663, -9629.243270068559, 112.45162635464983, 595.6292862450226, -5159.475524362984, -1399.3309616244987, -2978.3252451807557, -5664.110858930452, -3772.0356907887094, -2816.096283924137, -3045.1346093576685, -1990.8922303786553, -9455.793733095376, -14873.431905917158, 0.014921875000000001, -0.10870312500000001, 0.991765625, 192.0, 0.0, 0.0, 0.0, 0.0, 0.0, 0.0, 0.0, 0.0, 0.0, 1.645921836207952E9, 0.0, 2022-02-27 11:30:36.207
238.0, -1287.5051841145973, -4495.449900084723, -1949.742668836435, -10235.087303529657, -579.647788959478, 110.48467284258281, -5445.130818501809, -1724.079456815655, -3309.3992840527635, -6324.9178320071505, -4184.40302424467, -3033.690516196551, -3456.0714311684887, -2399.303305066026, -9722.271230491548, -15453.079694876635, 0.014921875000000001, -0.10870312500000001, 0.991765625, 192.0, 0.0, 0.0, 0.0, 0.0, 0.0, 0.0, 0.0, 0.0, 0.0, 1.645921836214426E9, 0.0, 2022-02-27 11:30:36.214
240.0, -564.3368440075927, -3928.9672886094204, -1397.162842412334, -9645.269470843014, 73.06785262439878, 580.9218383934306, -5066.201694750988, -1255.1175063988576, -1425.5048543816633, -5275.95046471959, -3871.0762704701747, -2764.083774576637, -3236.331431428365, -2066.7540510599674, -9272.464725072949, -14313.051320678154, 0.014921875000000001, -0.10870312500000001, 0.991765625, 192.0, 0.0, 0.0, 0.0, 0.0, 0.0, 0.0, 0.0, 0.0, 0.0, 1.645921836222535E9, 0.0, 2022-02-27 11:30:36.222
242.0, -951.5137614624217, -4226.379600331736, -1763.6420445015485, -10050.193673395357, -334.38209705139366, 242.6952412957241, -5463.883932099811, -1741.2679483017862, -4207.872355922742, -6216.221298720992, -3886.1189944885964, -2960.1309251941357, -3102.623296096718, -2127.036705855931, -9723.433521203224, -15593.85098145616, 0.014921875000000001, -0.10870312500000001, 0.991765625, 192.0, 0.0, 0.0, 0.0, 0.0, 0.0, 0.0, 0.0, 0.0, 0.0, 1.645921836230426E9, 0.0, 2022-02-27 11:30:36.230
244.0, -952.2513690294468, -4233.062771923873, -1700.207793737387, -9968.498047411209, -318.60176546594687, 319.89816664435466, -5219.109978569744, -1439.0723632660347, -1454.7632878736601, -5631.1643876033295, -4114.643229799656, -2858.5869501336756, -3487.609742594927, -2313.271440657549, -9406.731654015977, -14609.994245766908, 0.016, -0.11, 0.986, 192.0, 0.0, 64.0, 126.0, 72.0, 15.0, 104.0, 0.0, 0.0, 0.0, 1.645921836237721E9, 0.0, 2022-02-27 11:30:36.237
