%OpenBCI Raw EEG Data
%Number of channels = 16
%Sample Rate = 125 Hz
%Board = OpenBCI_GUI$BoardCytonSerialDaisy
Sample Index, EXG Channel 0, EXG Channel 1, EXG Channel 2, EXG Channel 3, EXG Channel 4, EXG Channel 5, EXG Channel 6, EXG Channel 7, EXG Channel 8, EXG Channel 9, EXG Channel 10, EXG Channel 11, EXG Channel 12, EXG Channel 13, EXG Channel 14, EXG Channel 15, Accel Channel 0, Accel Channel 1, Accel Channel 2, Other, Other, Other, Other, Other, Other, Other, Analog Channel 0, Analog Channel 1, Analog Channel 2, Timestamp, Other, Timestamp (Formatted)
0.0, -1347.676080188284, -2971.507963121887, -1330.062905557502, -5692.162298221862, -838.7492106853975, -246.47268610867098, -3108.7700258219274, -1142.3753073662886, -2565.2203041577704, -3994.256734163372, -2270.7360709591, -1823.7682370863245, -2348.3860311968365, -1724.1018085601104, -5292.244886427508, -7959.567959257121, 0.014, -0.10400000000000001, 0.992, 192.0, 0.0, 56.0, 126.0, 96.0, 15.5, 0.0, 0.0, 0.0, 0.0, 1.645921235746097E9, 0.0, 2022-02-27 11:20:35.746
2.0, -2113.446845227104, -5486.928580633233, -2198.2940671794495, -10884.897218334345, -1121.1187983892917, -45.53050345546049, -5842.768352361722, -1815.587498615682, -1855.3736037461288, -6836.929242244869, -4695.006274581704, -3454.2385881231535, -4548.870569332907, -3291.875516399803, -10082.581351111097, -14398.904371130988, 0.014, -0.10400000000000001, 0.992, 192.0, 0.0, 0.0, 0.0, 0.0, 0.0, 0.0, 0.0, 0.0, 0.0, 1.64592123575357E9, 0.0, 2022-02-27 11:20:35.753
4.0, -1888.0295023953322, -5322.397389697718, -2101.443958454604, -10797.725414958646, -945.3893834816676, 48.01154708999957, -5940.736048309333, -1975.2236575154852, -4266.590388606834, -7252.783447835857, -4386.015759231539, -3477.5961610789495, -4138.850169044754, -3054.947025173548, -10333.971420999935, -15207.232857612713, 0.014, -0.10400000000000001, 0.992, 192.0, 0.0, 0.0, 0.0, 0.0, 0.0, 0.0, 0.0, 0.0, 0.0, 1.645921235760316E9, 0.0, 2022-02-27 11:20:35.760
6.0, -2521.008553625173, -5795.67322679439, -2511.9337453763183, -11221.179213664438, -1497.5221750166627, -336.43845754128193, -6086.424718669024, -2128.3331070343384, -3300.905621159747, -7539.310460008438, -4846.215825821856, -3609.314991154074, -4643.507855356676, -3462.2628643826088, -10384.106383813189, -15214.519526305143, 0.014, -0.10400000000000001, 0.992, 192.0, 0.0, 0.0, 0.0, 0.0, 0.0, 0.0, 0.0, 0.0, 0.0, 1.645921235768143E9, 0.0, 2022-02-27 11:20:35.768
8.0, -1736.015288354789, -5191.215001489521, -1946.9934042684324, -10614.731683103048, -779.3382739231913, 208.8770519348445, -5750.18742682784, -1700.7442356043143, -2465.5091721426456, -6731.361953182453, -4450.589948962921, -3381.8189360879587, -4282.437775425646, -3060.9372926875703, -10079.049775487158, -14435.941211693433, 0.01, -0.108, 0.988, 192.0, 0.0, 40.0, 126.0, 80.0, 15.0, 112.0, 0.0, 0.0, 0.0, 1.645921235776136E9, 0.0, 2022-02-27 11:20:35.776
10.0, -2439.044706707562, -5737.245766788217, -2493.806480623064, -11212.685550771423, -1451.5893401610065, -320.61342246692453, -6208.420539906089, -2244.7186404131226, -4888.259457142289, -7767.208846474749, -4607.186270616802, -3616.4004941464063, -4337.557177252434, -3278.21860053761, -10533.505443752461, -15716.874982938169, 0.01, -0.108, 0.988, 192.0, 0.0, 0.0, 0.0, 0.0, 0.0, 0.0, 0.0, 0.0, 0.0, 1.645921235783312E9, 0.0, 2022-02-27 11:20:35.783
12.0, -2116.1067028172856, -5479.597208451893, -2192.3932066432485, -10877.364680452905, -1118.9283274326715, -37.84150336283486, -5822.003581762741, -1800.0977397081542, -1832.9548040574557, -6828.301468885121, -4680.097661030014, -3436.379544303363, -4531.592670868954, -3279.850277882848, -10067.695089303863, -14383.66048141247, 0.01, -0.108, 0.988, 192.0, 0.0, 0.0, 0.0, 0.0, 0.0, 0.0, 0.0, 0.0, 0.0, 1.645921235790855E9, 0.0, 2022-02-27 11:20:35.790
14.0, -1882.5309732593266, -5312.361456437285, -2099.544060175903, -10793.567990489959, -940.1590752791257, 51.54312271393809, -5927.235594658327, -1969.5463144238372, -4233.8450829798085, -7247.9107675446, -4390.128480211315, -3474.7127860442147, -4138.604299855745, -3062.5466182883524, -10318.928696981513, -15192.123078360926, 0.01, -0.108, 0.988, 192.0, 0.0, 0.0, 0.0, 0.0, 0.0, 0.0, 0.0, 0.0, 0.0, 1.645921235798831E9, 0.0, 2022-02-27 11:20:35.798
16.0, -2520.3380012915136, -5790.129994169473, -2512.5372424766115, -11222.654428798489, -1510.7320559897491, -350.16242863684045, -6099.142861264094, -2115.8608336282773, -3291.31672278842, -7540.718619909123, -4842.5501397311855, -3605.3140288965737, -4635.327116886034, -3457.479591069173, -10371.678813896038, -15207.031691912616, 0.012, -0.11, 0.988, 192.0, 0.0, 56.0, 126.0, 64.0, 15.0, 112.0, 0.0, 0.0, 0.0, 1.645921235812954E9, 0.0, 2022-02-27 11:20:35.812
18.0, -1734.5177214762834, -5188.845716577258, -1952.0001950264211, -10624.275877985463, -797.2420212318923, 183.79839465598997, -5764.604302001513, -1724.7723608937695, -2473.913428057841, -6735.005287528669, -4449.986451862628, -3386.7810233570367, -4277.498039901023, -3062.211342121523, -10077.731022564296, -14445.61951704258, 0.012, -0.11, 0.988, 192.0, 0.0, 0.0, 0.0, 0.0, 0.0, 0.0, 0.0, 0.0, 0.0, 1.645921235820447E9, 0.0, 2022-02-27 11:20:35.820
20.0, -2427.0865234239727, -5730.3614294959825, -2493.6723701563324, -11209.578658292134, -1456.1937995187998, -334.71737321822326, -6210.365141673701, -2269.30555931396, -4922.390570925542, -7772.796782588575, -4599.631380990909, -3613.025380733655, -4330.829302171386, -3273.994120835557, -10533.326629796818, -15732.610611034706, 0.012, -0.11, 0.988, 192.0, 0.0, 0.0, 0.0, 0.0, 0.0, 0.0, 0.0, 0.0, 0.0, 1.645921235828491E9, 0.0, 2022-02-27 11:20:35.828
22.0, -2123.6615924431794, -5480.983016608121, -2210.2298987185836, -10891.647445159846, -1146.5997870683418, -66.33997754335137, -5873.747870176777, -1836.754600614858, -1867.0635660962544, -6843.657117325916, -4695.967399593282, -3443.8226752069804, -4552.737421123675, -3281.146679061256, -10086.179981968402, -14418.909182418489, 0.012, -0.11, 0.988, 192.0, 0.0, 0.0, 0.0, 0.0, 0.0, 0.0, 0.0, 0.0, 0.0, 1.645921235835598E9, 0.0, 2022-02-27 11:20:35.835
24.0, -1854.5912926901929, -5286.031101468933, -2077.907571543166, -10764.22015002014, -928.2008919955364, 64.35067228682904, -5941.071324476162, -1950.7037938480132, -4179.217419531038, -7218.473520096961, -4373.7222997811205, -3454.707974756715, -4137.464360888524, -3024.9956876034366, -10310.524441066318, -15164.295156514068, 0.012, -0.11, 0.988, 192.0, 0.0, 0.0, 0.0, 0.0, 0.0, 0.0, 0.0, 0.0, 0.0, 1.645921235843083E9, 0.0, 2022-02-27 11:20:35.843
26.0, -2526.4847310167233, -5795.33795062756, -2512.78311166562, -11222.721484031856, -1519.8068642386038, -343.21103611123993, -6119.371189996146, -2128.9813076235423, -3395.475851950151, -7555.940157883187, -4833.2741657822335, -3609.38204638744, -4635.237709908212, -3438.100628626422, -10387.414441992574, -15247.913032521372, 0.013000000000000001, -0.10500000000000001, 0.984, 192.0, 0.0, 56.0, 126.0, 112.0, 15.0, 80.0, 0.0, 0.0, 0.0, 1.64592123585111E9, 0.0, 2022-02-27 11:20:35.851
28.0, -1740.1503610790207, -5191.438518934074, -1947.9098257910998, -10619.470252927573, -801.9135358230515, 193.92373489424406, -5764.336081068049, -1716.3904567230293, -2407.3052295810257, -6712.675894817817, -4458.033079866538, -3379.8519825758917, -4298.195755266637, -3058.70211824204, -10067.024536970202, -14420.876135930555, 0.013000000000000001, -0.10500000000000001, 0.984, 192.0, 0.0, 0.0, 0.0, 0.0, 0.0, 0.0, 0.0, 0.0, 0.0, 1.64592123585916E9, 0.0, 2022-02-27 11:20:35.859
30.0, -2412.244965105649, -5713.821138599055, -2478.853163582464, -11198.983931420318, -1442.0004417896798, -323.8320736684887, -6221.093979012248, -2287.3881205783036, -4924.156358737512, -7752.635509089889, -4590.645979719875, -3609.9631917432775, -4326.895395147252, -3249.6977746126386, -10530.242089061987, -15724.1616516306, 0.013000000000000001, -0.10500000000000001, 0.984, 192.0, 0.0, 0.0, 0.0, 0.0, 0.0, 0.0, 0.0, 0.0, 0.0, 1.645921235865296E9, 0.0, 2022-02-27 11:20:35.865
32.0, -2138.257281572495, -5493.678807458736, -2212.107445252829, -10902.10806156493, -1157.2392174290678, -79.28163758297416, -5887.471841272336, -1850.1879990324974, -1863.1743625610309, -6859.97389077829, -4703.008199096704, -3441.5651490169944, -4555.956072325239, -3283.65007444025, -10091.94673203787, -14437.416426827482, 0.013000000000000001, -0.10500000000000001, 0.984, 192.0, 0.0, 0.0, 0.0, 0.0, 0.0, 0.0, 0.0, 0.0, 0.0, 1.645921235872751E9, 0.0, 2022-02-27 11:20:35.872
34.0, -1859.6651386815477, -5289.160345692676, -2075.091251741797, -10764.823647120435, -927.1280082616817, 63.94834088663351, -5932.264737160771, -1945.518189134382, -4146.516817392924, -7217.601802063204, -4381.299541151469, -3460.92175971529, -4148.550826138357, -3038.6526034656295, -10311.105586422156, -15152.739304630675, 0.013000000000000001, -0.10500000000000001, 0.984, 192.0, 0.0, 0.0, 0.0, 0.0, 0.0, 0.0, 0.0, 0.0, 0.0, 1.645921235880842E9, 0.0, 2022-02-27 11:20:35.880
36.0, -2535.35837356548, -5796.053206450129, -2518.594565224, -11230.544594591212, -1529.1722451653775, -371.12836493591846, -6135.799722170797, -2149.768429966978, -3419.1687010727765, -7550.240463047084, -4842.639546709007, -3615.864052279479, -4644.625442579441, -3474.891599999857, -10399.193811320521, -15268.387230442433, 0.015500000000000002, -0.10450000000000001, 0.983, 192.0, 0.0, 72.0, 126.0, 96.0, 15.0, 88.0, 0.0, 0.0, 0.0, 1.645921235888715E9, 0.0, 2022-02-27 11:20:35.888
38.0, -1747.9511198939229, -5196.758234114437, -1949.809724069801, -10629.349723976818, -807.0767887922274, 178.03164458652074, -5818.0026195052415, -1742.363183780096, -2403.550136512534, -6725.416389157342, -4461.631710723843, -3380.9695697986567, -4300.430929712168, -3072.783717248883, -10075.115868463025, -14432.09671164712, 0.015500000000000002, -0.10450000000000001, 0.983, 192.0, 0.0, 0.0, 0.0, 0.0, 0.0, 0.0, 0.0, 0.0, 0.0, 1.645921235895254E9, 0.0, 2022-02-27 11:20:35.895
40.0, -2412.960220928219, -5713.374103709949, -2469.5771896335114, -11199.7438907318, -1434.289089952599, -318.9593933772318, -6212.667371352598, -2254.955739373653, -4956.231112030878, -7771.612140132444, -4585.90740989535, -3609.6055638319926, -4319.318153776902, -3255.3080624709205, -10534.623030975226, -15737.729160514971, 0.015500000000000002, -0.10450000000000001, 0.983, 192.0, 0.0, 0.0, 0.0, 0.0, 0.0, 0.0, 0.0, 0.0, 0.0, 1.645921235903405E9, 0.0, 2022-02-27 11:20:35.903
42.0, -2174.310645378905, -5518.511595548582, -2227.44074194917, -10927.186718843785, -1178.003988028048, -87.35061733134, -5870.909198630953, -1837.3357459706958, -1916.550328320304, -6901.816356398625, -4726.566937752597, -3469.437774352762, -4584.208677316747, -3310.092188130878, -10095.590066384086, -14458.605880571115, 0.015500000000000002, -0.10450000000000001, 0.983, 192.0, 0.0, 0.0, 0.0, 0.0, 0.0, 0.0, 0.0, 0.0, 0.0, 1.645921235911374E9, 0.0, 2022-02-27 11:20:35.911
44.0, -1831.6584028790478, -5262.762935490959, -2049.0067659624538, -10747.501045167572, -895.8802695131624, 84.55664927442662, -5915.478577074836, -1934.8340552847453, -4090.726863232477, -7196.6582175085805, -4374.0128724590395, -3463.514562072106, -4149.713116850033, -3025.755646914917, -10291.70427223495, -15115.434243134767, 0.015500000000000002, -0.10450000000000001, 0.983, 192.0, 0.0, 0.0, 0.0, 0.0, 0.0, 0.0, 0.0, 0.0, 0.0, 1.645921235918577E9, 0.0, 2022-02-27 11:20:35.918
46.0, -2537.8841206889297, -5800.188279174362, -2520.159187335871, -11238.948850506407, -1523.7407712627378, -366.2556846446615, -6142.594652485211, -2155.423421314171, -3527.2617372586415, -7591.054748422474, -4830.234328536311, -3616.869880779968, -4628.934517971816, -3442.0792391394666, -10402.166593333077, -15305.111146582503, 0.01575, -0.10425000000000001, 0.9844999999999999, 192.0, 0.0, 64.0, 126.0, 96.0, 15.0, 104.0, 0.0, 0.0, 0.0, 1.64592123592501E9, 0.0, 2022-02-27 11:20:35.925
48.0, -1755.2154368418976, -5197.2052690035425, -1948.8933025471333, -10629.14855827672, -801.2653352338476, 180.62444694333638, -5783.268008621694, -1732.4613609863952, -2329.1188274763617, -6686.636112527384, -4468.516048016078, -3377.929732552735, -4318.982877610073, -3061.98782467697, -10062.263615401223, -14402.681815943935, 0.01575, -0.10425000000000001, 0.9844999999999999, 192.0, 0.0, 0.0, 0.0, 0.0, 0.0, 0.0, 0.0, 0.0, 0.0, 1.64592123594099E9, 0.0, 2022-02-27 11:20:35.940
50.0, -2392.5530782405235, -5696.878516301932, -2452.72397431421, -11175.983986375808, -1404.8965459938702, -306.80004439354474, -6180.011472703394, -2247.311442769938, -4946.061068303713, -7736.274032148604, -4565.790839885573, -3588.9078484663787, -4307.024694326484, -3246.099143755334, -10521.480205235506, -15719.512488783896, 0.01575, -0.10425000000000001, 0.9844999999999999, 192.0, 0.0, 0.0, 0.0, 0.0, 0.0, 0.0, 0.0, 0.0, 0.0, 1.645921235948058E9, 0.0, 2022-02-27 11:20:35.948
52.0, -2173.4612790896035, -5519.80799672699, -2223.05980003593, -10926.40440778785, -1175.9923310270706, -96.04544592445446, -5877.480611500813, -1834.944109313978, -1903.0945781582093, -6901.771652909715, -4716.218080069791, -3453.478628811673, -4582.554648227054, -3316.328324833909, -10088.728080836307, -14454.850787502623, 0.01575, -0.10425000000000001, 0.9844999999999999, 192.0, 0.0, 0.0, 0.0, 0.0, 0.0, 0.0, 0.0, 0.0, 0.0, 1.645921235957103E9, 0.0, 2022-02-27 11:20:35.957
54.0, -1827.813902832735, -5266.85330472628, -2038.8814257241997, -10746.94225155619, -887.4983653424222, 70.51975375649378, -5924.88866149052, -1937.940947764033, -4041.642432408623, -7186.063490636765, -4370.928331724207, -3455.423230579285, -4149.936634294586, -3043.882911668171, -10276.683899960983, -15099.340987126947, 0.01575, -0.10425000000000001, 0.9844999999999999, 192.0, 0.0, 0.0, 0.0, 0.0, 0.0, 0.0, 0.0, 0.0, 0.0, 1.645921235963646E9, 0.0, 2022-02-27 11:20:35.963
56.0, -2537.1241613774496, -5797.953104728831, -2511.620820953944, -11242.949812763907, -1528.3675823649862, -378.4373853728039, -6158.039707903828, -2158.1726858821735, -3510.8108533395357, -7590.361844344359, -4820.578374931619, -3618.769779058669, -4628.934517971816, -3489.6884548292705, -10398.657369453595, -15315.102376354025, 0.014875, -0.10412500000000001, 0.98425, 192.0, 0.0, 56.0, 126.0, 96.0, 15.0, 96.0, 0.0, 0.0, 0.0, 1.645921235970849E9, 0.0, 2022-02-27 11:20:35.970
58.0, -1755.8636374311016, -5200.200402760554, -1945.2723199453737, -10635.272936257476, -809.155501026571, 161.53605717850414, -5771.242770104739, -1713.887061344035, -2328.0682954869626, -6716.743912308683, -4455.21676006517, -3383.361206455375, -4307.427025726679, -3089.4804703569976, -10052.585310052074, -14406.571019479159, 0.014875, -0.10412500000000001, 0.98425, 192.0, 0.0, 0.0, 0.0, 0.0, 0.0, 0.0, 0.0, 0.0, 0.0, 1.645921235978285E9, 0.0, 2022-02-27 11:20:35.978
60.0, -2375.9010286213197, -5683.959208006765, -2432.1156659264166, -11169.904311883964, -1396.6040488009512, -305.0566083260308, -6180.79378375933, -2249.0995823263625, -4948.832684616171, -7751.316756167025, -4559.845275860462, -3596.5744968145486, -4299.2909907449475, -3255.397469448742, -10509.454966718551, -15722.373512074175, 0.014875, -0.10412500000000001, 0.98425, 192.0, 0.0, 0.0, 0.0, 0.0, 0.0, 0.0, 0.0, 0.0, 0.0, 1.645921235986267E9, 0.0, 2022-02-27 11:20:35.986
62.0, -2174.66827329019, -5515.024723413554, -2217.96360230012, -10922.358742041439, -1185.6929881206738, -89.60814352132601, -5903.051007157685, -1866.0130341068548, -1903.6086682806813, -6908.410121012941, -4714.631106213464, -3456.8537422244244, -4578.218409802725, -3295.876478657303, -10088.012825013737, -14470.586415599158, 0.014875, -0.10412500000000001, 0.98425, 192.0, 0.0, 0.0, 0.0, 0.0, 0.0, 0.0, 0.0, 0.0, 0.0, 1.645921235993248E9, 0.0, 2022-02-27 11:20:35.993
64.0, -1801.7741205423024, -5236.857263667258, -2022.6540592496467, -10720.231916932096, -886.8725164976736, 101.38751284927284, -5932.264737160771, -1931.8165697832787, -3982.7232340244336, -7143.12578953812, -4361.697061264165, -3446.840160708447, -4142.314689435326, -3002.956867570504, -10274.135801093078, -15073.949405425717, 0.014875, -0.10412500000000001, 0.98425, 192.0, 0.0, 0.0, 0.0, 0.0, 0.0, 0.0, 0.0, 0.0, 0.0, 1.645921236000511E9, 0.0, 2022-02-27 11:20:36.000
66.0, -2537.8841206889297, -5790.2417528917495, -2516.9628878787626, -11243.016867997274, -1542.762105794204, -384.33824590900497, -6171.137830154637, -2176.948151224631, -3587.589095543515, -7610.344303887404, -4818.678476652918, -3622.0107820046883, -4621.893718468395, -3448.963576431701, -10420.115044130689, -15342.304449356134, 0.0134375, -0.1060625, 0.985125, 192.0, 0.0, 48.0, 126.0, 80.0, 15.0, 104.0, 0.0, 0.0, 0.0, 1.645921236008036E9, 0.0, 2022-02-27 11:20:36.008
68.0, -1764.49141079085, -5214.952554101057, -1950.256758958907, -10637.776331636469, -828.3780012581351, 154.94229256418856, -5782.999787688231, -1732.6625266864928, -2278.514478029547, -6694.302760875555, -4468.381937549346, -3380.5672383984615, -4321.508624733523, -3088.6758075566063, -10055.759257764728, -14391.103612316087, 0.0134375, -0.1060625, 0.985125, 192.0, 0.0, 0.0, 0.0, 0.0, 0.0, 0.0, 0.0, 0.0, 0.0, 1.64592123601591E9, 0.0, 2022-02-27 11:20:36.015
70.0, -2334.572653123457, -5658.12059141643, -2412.043799405551, -11147.35140172856, -1383.5729817835072, -297.88169835587723, -6206.252420693925, -2280.123803630329, -4960.1203155661005, -7738.308040894037, -4543.193226241258, -3592.2829618791297, -4292.2501912415255, -3233.1798354601665, -10517.121615066722, -15716.517355026885, 0.0134375, -0.1060625, 0.985125, 192.0, 0.0, 0.0, 0.0, 0.0, 0.0, 0.0, 0.0, 0.0, 0.0, 1.64592123602393E9, 0.0, 2022-02-27 11:20:36.023
72.0, -2189.57688684188, -5531.073275932465, -2242.438762478681, -10943.235271362695, -1228.0495438634807, -127.04731548396535, -5928.017905714262, -1872.9197231435446, -1955.8893985616446, -6941.915385951446, -4722.230699328268, -3470.0189197086, -4587.226162818213, -3321.2457086140766, -10119.752302140272, -14515.91575335452, 0.0134375, -0.1060625, 0.985125, 192.0, 0.0, 0.0, 0.0, 0.0, 0.0, 0.0, 0.0, 0.0, 0.0, 1.645921236030641E9, 0.0, 2022-02-27 11:20:36.030
74.0, -1796.1414809395649, -5238.779513690414, -2020.9553266710434, -10714.420463373717, -894.3603508902015, 90.30104759944054, -5935.617498829067, -1919.9477934775107, -3921.1218263056076, -7129.580632398204, -4363.239331631581, -3444.023840907078, -4144.9745470255075, -3017.2172805329897, -10274.448725515453, -15037.69487591921, 0.0134375, -0.1060625, 0.985125, 192.0, 0.0, 0.0, 0.0, 0.0, 0.0, 0.0, 0.0, 0.0, 0.0, 1.64592123603859E9, 0.0, 2022-02-27 11:20:36.038
76.0, -2548.45649581629, -5819.053151494641, -2515.331210533525, -11242.659240085988, -1557.8718850459916, -398.33043793802716, -6172.545990055321, -2191.4991368650362, -3606.1633951858757, -7612.288905655016, -4814.051665550669, -3620.7814360596462, -4617.602183532976, -3455.4679340681955, -10427.02173316738, -15349.144083159457, 0.010718749999999999, -0.10703125, 0.9885625, 192.0, 0.0, 32.0, 126.0, 80.0, 15.5, 0.0, 0.0, 0.0, 0.0, 1.645921236046552E9, 0.0, 2022-02-27 11:20:36.046
78.0, -1790.0618064477214, -5238.377182290218, -1950.3685176811837, -10639.117436303788, -844.8735886661517, 147.5215134050266, -5773.455592805814, -1736.9093581330012, -2260.8118964209434, -6706.149185436868, -4473.187562607237, -3380.254313976087, -4331.09752310485, -3096.655380327151, -10060.698993289352, -14385.538027946715, 0.010718749999999999, -0.10703125, 0.9885625, 192.0, 0.0, 0.0, 0.0, 0.0, 0.0, 0.0, 0.0, 0.0, 0.0, 1.645921236060436E9, 0.0, 2022-02-27 11:20:36.060
80.0, -2399.4150637883026, -5705.327475706038, -2413.04962790604, -11153.20755877585, -1389.1832696417891, -295.2218407656957, -6188.281618151858, -2251.893550383276, -4969.6868621929725, -7737.168101926816, -4548.557644910532, -3613.4947673672164, -4290.283237729459, -3238.9465855296357, -10515.199365043565, -15706.414366533087, 0.010718749999999999, -0.10703125, 0.9885625, 192.0, 0.0, 0.0, 0.0, 0.0, 0.0, 0.0, 0.0, 0.0, 0.0, 1.645921236068271E9, 0.0, 2022-02-27 11:20:36.068
82.0, -2295.6135625378565, -5648.2411203671845, -2232.7828088739884, -10943.525844040614, -1220.651116448774, -124.54392010497095, -5924.911013234975, -1896.523165288349, -1965.612407399703, -6959.237987904309, -4745.901196706438, -3511.8166818400246, -4592.657636720853, -3331.1698831522326, -10108.129395023512, -14504.248142748851, 0.010718749999999999, -0.10703125, 0.9885625, 192.0, 0.0, 0.0, 0.0, 0.0, 0.0, 0.0, 0.0, 0.0, 0.0, 1.645921236076123E9, 0.0, 2022-02-27 11:20:36.076
84.0, -1947.7980670688235, -5400.583791802382, -2012.998105644954, -10703.155184168243, -874.5567053027994, 108.65182979724763, -5897.619533255045, -1900.9488106904998, -3929.101399076152, -7149.473684963427, -4398.86801229334, -3478.2667134126086, -4152.44002967358, -3026.8955858821378, -10260.635347442074, -15025.982561824629, 0.010718749999999999, -0.10703125, 0.9885625, 192.0, 0.0, 0.0, 0.0, 0.0, 0.0, 0.0, 0.0, 0.0, 0.0, 1.645921236083331E9, 0.0, 2022-02-27 11:20:36.083
86.0, -2770.565780468676, -6030.768874975309, -2540.231053856737, -11252.918690790975, -1554.2285506997766, -388.11569072195186, -6147.64614673211, -2170.421441843682, -3751.2932719341843, -7679.299435532026, -4872.009738923281, -3682.986340878766, -4624.464169080755, -3465.3697568618963, -10430.10627390221, -15373.798057293661, 0.008, -0.11, 0.994, 192.0, 0.0, 32.0, 126.0, 72.0, 15.5, 8.0, 0.0, 0.0, 0.0, 1.645921236090923E9, 0.0, 2022-02-27 11:20:36.090
88.0, -2037.7638385014343, -5463.79452512199, -1974.6872156485579, -10642.760770650002, -839.3080042967802, 166.20757176966333, -5773.433241061359, -1688.629590109538, -2296.462928827158, -6733.552424139074, -4546.948319309749, -3456.1831898907653, -4341.781656954487, -3077.209362651034, -10046.997373938248, -14360.951109045876, 0.008, -0.11, 0.994, 192.0, 0.0, 0.0, 0.0, 0.0, 0.0, 0.0, 0.0, 0.0, 0.0, 1.645921236098901E9, 0.0, 2022-02-27 11:20:36.098
90.0, -2622.261956007714, -5945.4969698783125, -2441.1904741752714, -11143.909233082442, -1376.2416096021664, -286.63877089485777, -6163.31471959528, -2234.950928086153, -5054.019994022846, -7775.166067500838, -4607.1639188723475, -3655.270177754185, -4282.393071936735, -3240.9582425306135, -10505.386949227686, -15690.477572736452, 0.008, -0.11, 0.994, 192.0, 0.0, 0.0, 0.0, 0.0, 0.0, 0.0, 0.0, 0.0, 0.0, 1.645921236105964E9, 0.0, 2022-02-27 11:20:36.105
92.0, -2506.9269546183295, -5831.860701067531, -2286.1587746332616, -10972.001966476675, -1244.6345382493184, -150.87427507332268, -5905.2861816032155, -1879.7370052024135, -2082.2661617119506, -7049.226111081375, -4830.860177381061, -3554.016775371644, -4625.492349325699, -3361.0988689778887, -10124.043837075691, -14532.50074774036, 0.008, -0.11, 0.994, 192.0, 0.0, 0.0, 0.0, 0.0, 0.0, 0.0, 0.0, 0.0, 0.0, 1.645921236112506E9, 0.0, 2022-02-27 11:20:36.112
94.0, -2050.9513677300656, -5489.811955667968, -2025.3139168398282, -10709.011341215533, -868.2758651108581, 99.28644887047398, -5875.5807132221125, -1917.3773428651505, -3941.0148788708307, -7174.775859686835, -4452.489847241623, -3518.8127778545354, -4175.931713096108, -3045.9392721580593, -10257.774324151793, -15013.73380586312, 0.008, -0.11, 0.994, 192.0, 0.0, 0.0, 0.0, 0.0, 0.0, 0.0, 0.0, 0.0, 0.0, 1.64592123612051E9, 0.0, 2022-02-27 11:20:36.120
96.0, -2807.356751842112, -6067.045756226273, -2556.8607517314854, -11270.621272399578, -1572.6463881309496, -414.80367360158846, -6150.015431644372, -2210.8780993077876, -3848.6351190370465, -7743.605404329945, -4893.132137433546, -3698.9007829309444, -4626.162901659358, -3486.223934438698, -10445.059590942812, -15416.311075247655, 0.012, -0.10400000000000001, 0.996, 192.0, 0.0, 48.0, 126.0, 96.0, 15.5, 16.0, 0.0, 0.0, 0.0, 1.645921236128448E9, 0.0, 2022-02-27 11:20:36.128
98.0, -2002.8727654067, -5432.524434629016, -1985.4607564760158, -10656.216520812097, -859.6704434955649, 136.85973129984515, -5785.212610389306, -1732.2154917973867, -2287.8351554674095, -6754.272491249143, -4559.085316548982, -3447.868340953391, -4360.400660085757, -3120.5493951498743, -10058.709688032828, -14377.357289476073, 0.012, -0.10400000000000001, 0.996, 192.0, 0.0, 0.0, 0.0, 0.0, 0.0, 0.0, 0.0, 0.0, 0.0, 1.645921236135672E9, 0.0, 2022-02-27 11:20:36.135
100.0, -2494.6334951679105, -5814.135767714473, -2413.9660494287073, -11129.514709653224, -1372.4418130447643, -288.7845383625673, -6174.669405778576, -2237.2531577650498, -5034.439865879996, -7748.120456709917, -4584.007511616649, -3640.026288035666, -4284.337673704347, -3240.265338452499, -10517.948629611568, -15695.43966000553, 0.012, -0.10400000000000001, 0.996, 192.0, 0.0, 0.0, 0.0, 0.0, 0.0, 0.0, 0.0, 0.0, 0.0, 1.645921236143157E9, 0.0, 2022-02-27 11:20:36.143
102.0, -2388.7979851720315, -5723.566499181569, -2283.029530409519, -10980.093297969497, -1272.5071635850863, -175.10356606287553, -5927.280298147238, -1925.4463226135163, -2059.6014928342693, -7014.759721131292, -4793.7115780963395, -3535.2860135180968, -4619.77030274514, -3376.1415929963105, -10129.855290634072, -14547.476416525415, 0.012, -0.10400000000000001, 0.996, 192.0, 0.0, 0.0, 0.0, 0.0, 0.0, 0.0, 0.0, 0.0, 0.0, 1.645921236151173E9, 0.0, 2022-02-27 11:20:36.151
104.0, -1909.2860113723293, -5348.526578965972, -2008.1701288426077, -10699.176573655197, -875.2049058920034, 104.4273500951946, -5894.02090239774, -1906.939078204522, -3852.4796190833595, -7120.215251471431, -4414.2236607341365, -3497.1986409662536, -4170.276721748915, -3053.0471268948468, -10265.195103310956, -15004.390776680802, 0.012, -0.10400000000000001, 0.996, 192.0, 0.0, 0.0, 0.0, 0.0, 0.0, 0.0, 0.0, 0.0, 0.0, 1.645921236159198E9, 0.0, 2022-02-27 11:20:36.159
106.0, -2677.3143026011353, -5952.403658915003, -2547.0259841711504, -11259.937138549942, -1593.9699523413126, -424.50433069519175, -6184.2806558943585, -2214.67789586519, -3879.9052095300212, -7725.47813957669, -4846.640508966507, -3667.2060092933193, -4601.263058336146, -3491.3648356634185, -10462.225730684488, -15438.931040636426, 0.014, -0.1, 0.994, 192.0, 0.0, 56.0, 126.0, 112.0, 15.5, 8.0, 0.0, 0.0, 0.0, 1.645921236165744E9, 0.0, 2022-02-27 11:20:36.165
108.0, -1897.4842902999271, -5338.334183494352, -1980.744538395946, -10655.903596389722, -886.8054612643077, 114.5526903334487, -5777.0318719186635, -1743.1901983249425, -2186.604104829324, -6721.102502477468, -4526.764694066607, -3411.703218424704, -4369.117840423327, -3147.7961716408936, -10061.593063067563, -14365.600271892581, 0.014, -0.1, 0.994, 192.0, 0.0, 0.0, 0.0, 0.0, 0.0, 0.0, 0.0, 0.0, 0.0, 1.645921236172734E9, 0.0, 2022-02-27 11:20:36.172
110.0, -2378.538534467046, -5718.291487490116, -2399.973857399685, -11116.595401358058, -1379.549667781552, -278.5697911464919, -6169.997891187417, -2236.7837711314883, -4997.425377062008, -7714.548136538046, -4536.174778482292, -3602.3188951395628, -4269.451411897113, -3233.7386290715494, -10511.779548141903, -15681.939206354524, 0.014, -0.1, 0.994, 192.0, 0.0, 0.0, 0.0, 0.0, 0.0, 0.0, 0.0, 0.0, 0.0, 1.645921236188775E9, 0.0, 2022-02-27 11:20:36.188
112.0, -2300.2180218956496, -5638.674573740313, -2282.02370190903, -10977.947530501788, -1286.231134680645, -167.95100783717726, -5950.503760636301, -1934.9234622625665, -2058.9532922450653, -6996.364235444575, -4770.175191184901, -3511.12377776191, -4623.726561513729, -3376.7227383521486, -10147.759037942773, -14567.21300687945, 0.014, -0.1, 0.994, 192.0, 0.0, 0.0, 0.0, 0.0, 0.0, 0.0, 0.0, 0.0, 0.0, 1.645921236195335E9, 0.0, 2022-02-27 11:20:36.195
114.0, -1807.2055944449419, -5269.379051849729, -1988.165317555108, -10681.094012390855, -867.605312777199, 107.53424257448228, -5946.346336167614, -1910.0236189393545, -3754.8248475581227, -7073.120125904099, -4371.755346269053, -3453.7244980006813, -4162.498314678468, -3050.566083260308, -10261.171789309, -14970.326718130913, 0.014, -0.1, 0.994, 192.0, 0.0, 0.0, 0.0, 0.0, 0.0, 0.0, 0.0, 0.0, 0.0, 1.645921236203371E9, 0.0, 2022-02-27 11:20:36.203
116.0, -2606.7945488446417, -5868.808134652154, -2538.8005422115975, -11275.002214312819, -1599.1108535660333, -454.7462409432222, -6166.622777774665, -2234.839169363877, -3890.4999364018367, -7692.866944416398, -4810.162462015446, -3667.027195337677, -4596.390378044889, -3474.8468965109464, -10473.759230823425, -15468.860026462082, 0.014, -0.11, 0.994, 192.0, 0.0, 56.0, 126.0, 72.0, 15.5, 8.0, 0.0, 0.0, 0.0, 1.645921236211377E9, 0.0, 2022-02-27 11:20:36.211
118.0, -1845.2259117634192, -5283.483002601029, -1971.423860958083, -10659.725744691581, -892.1028247002155, 100.02405643749911, -5762.100906622518, -1746.274739059775, -2133.7422291925227, -6704.89748774737, -4497.416853596789, -3407.188166044732, -4353.9410059381735, -3158.390898512709, -10044.2704611147, -14363.968594547343, 0.014, -0.11, 0.994, 192.0, 0.0, 0.0, 0.0, 0.0, 0.0, 0.0, 0.0, 0.0, 0.0, 1.645921236218066E9, 0.0, 2022-02-27 11:20:36.218
120.0, -2305.4259783537364, -5641.759114475145, -2369.083746562451, -11090.153287667428, -1336.7237254051836, -269.8749625533775, -6161.861856205685, -2241.678803167201, -4978.918132653014, -7696.28676131806, -4508.302153146524, -3595.367502613962, -4253.98400473404, -3225.8261115343707, -10505.498707949962, -15678.832313875237, 0.014, -0.11, 0.994, 192.0, 0.0, 0.0, 0.0, 0.0, 0.0, 0.0, 0.0, 0.0, 0.0, 1.645921236226008E9, 0.0, 2022-02-27 11:20:36.226
122.0, -2303.727245775133, -5619.675590953301, -2302.944934719197, -10999.338149945515, -1319.3117164744995, -205.23371758862945, -5956.9410630394295, -1940.5561018653038, -2132.1105518472855, -7054.165846605998, -4770.912798751927, -3516.1976237532645, -4624.799445247584, -3399.968552585668, -10161.639471249518, -14624.858155829688, 0.014, -0.11, 0.994, 192.0, 0.0, 0.0, 0.0, 0.0, 0.0, 0.0, 0.0, 0.0, 0.0, 1.645921236234072E9, 0.0, 2022-02-27 11:20:36.234
124.0, -1763.686747990459, -5207.822347619814, -1972.8096691143119, -10657.401163268229, -853.5907690037214, 118.93363224668889, -5863.756640405255, -1878.9323424020224, -3645.591872405037, -7024.996820091823, -4357.249064117559, -3433.7867419465474, -4155.703384364055, -3036.4844842534644, -10225.207832480412, -14916.660179693721, 0.014, -0.11, 0.994, 192.0, 0.0, 0.0, 0.0, 0.0, 0.0, 0.0, 0.0, 0.0, 0.0, 1.645921236241232E9, 0.0, 2022-02-27 11:20:36.241
126.0, -2572.0599379610944, -5835.794608091665, -2536.6994782327984, -11257.120818748572, -1587.7561673827372, -420.2798509931387, -6183.721862282975, -2237.476675209603, -3989.518164338847, -7709.966028924708, -4777.417156388421, -3642.507331670205, -4561.2087322722355, -3450.8858264548576, -10465.332623163775, -15493.335186640643, 0.016, -0.10400000000000001, 0.992, 192.0, 0.0, 64.0, 126.0, 96.0, 15.5, 0.0, 0.0, 0.0, 0.0, 1.645921236247734E9, 0.0, 2022-02-27 11:20:36.247
128.0, -1836.5981384036706, -5270.407232094673, -1986.064253576309, -10659.122247591287, -903.1669382055925, 112.31751588791799, -5787.984226701764, -1742.9443291359341, -2057.6345393222023, -6687.820754983516, -4508.324504890979, -3401.8237473754584, -4364.803953743452, -3142.3870494827092, -10038.436655811865, -14337.079445967609, 0.016, -0.10400000000000001, 0.992, 192.0, 0.0, 0.0, 0.0, 0.0, 0.0, 0.0, 0.0, 0.0, 0.0, 1.6459212362557E9, 0.0, 2022-02-27 11:20:36.255
130.0, -2278.447422796181, -5613.506509483637, -2363.115830792884, -11071.310767091605, -1330.8005131245272, -243.65636630730228, -6161.772449227864, -2223.2833174804828, -4942.976527568881, -7666.916569103786, -4492.03008318306, -3579.453060561784, -4227.8548154657865, -3196.500622809008, -10491.953550810045, -15648.18807222701, 0.016, -0.10400000000000001, 0.992, 192.0, 0.0, 0.0, 0.0, 0.0, 0.0, 0.0, 0.0, 0.0, 0.0, 1.645921236263672E9, 0.0, 2022-02-27 11:20:36.263
132.0, -2299.636876539812, -5612.746550172156, -2308.4211121107473, -10998.287617956117, -1317.098893773424, -193.11907209385302, -5956.7622490837875, -1951.8213810707787, -2139.6207379842685, -7042.274718555775, -4772.008034230236, -3511.3025917175523, -4615.612878276454, -3391.541944926017, -10160.320718326655, -14629.954353565498, 0.016, -0.10400000000000001, 0.992, 192.0, 0.0, 0.0, 0.0, 0.0, 0.0, 0.0, 0.0, 0.0, 0.0, 1.645921236270898E9, 0.0, 2022-02-27 11:20:36.270
134.0, -1764.8266869576798, -5210.504556954451, -1975.6036371712253, -10652.416724254696, -844.8288851772411, 138.3125946894401, -5870.238646297294, -1888.387130306617, -3619.3062209255963, -7023.186328790943, -4362.233503131092, -3444.4261723072736, -4142.068820246318, -3029.8013126613278, -10215.082492242158, -14905.976045844085, 0.016, -0.10400000000000001, 0.992, 192.0, 0.0, 0.0, 0.0, 0.0, 0.0, 0.0, 0.0, 0.0, 0.0, 1.645921236278294E9, 0.0, 2022-02-27 11:20:36.278
136.0, -2582.0511677326167, -5837.985079048286, -2545.9307486928406, -11260.764153094788, -1589.2313825167876, -409.9086415658762, -6176.546952312822, -2231.508759440036, -3979.7281002674226, -7713.743473737654, -4785.6649500924295, -3646.3965352054283, -4553.229159501691, -3448.3600793314076, -10459.92350100559, -15487.836657504638, 0.012, -0.1, 0.99, 192.0, 0.0, 48.0, 126.0, 112.0, 15.0, 120.0, 0.0, 0.0, 0.0, 1.645921236286601E9, 0.0, 2022-02-27 11:20:36.286
138.0, -1853.8089816342572, -5273.827048996335, -1997.8659746487112, -10668.219407584598, -906.5644033627991, 126.2873561724849, -5771.242770104739, -1750.4545152729172, -2069.860943539255, -6695.397996353865, -4505.1505571783255, -3402.8072241314917, -4348.286014590981, -3131.1664737661454, -10030.971173163793, -14336.386541889495, 0.012, -0.1, 0.99, 192.0, 0.0, 0.0, 0.0, 0.0, 0.0, 0.0, 0.0, 0.0, 0.0, 1.645921236294333E9, 0.0, 2022-02-27 11:20:36.294
140.0, -2270.5572570034574, -5598.1732127872965, -2361.2829877475488, -11068.650909501423, -1317.0541902845134, -219.53883404002596, -6150.037783388828, -2223.81975934741, -4955.046469574746, -7659.808714366998, -4492.901801216817, -3594.048749691099, -4222.289231096414, -3182.0837476353345, -10486.097393762755, -15646.802264070782, 0.012, -0.1, 0.99, 192.0, 0.0, 0.0, 0.0, 0.0, 0.0, 0.0, 0.0, 0.0, 0.0, 1.645921236307938E9, 0.0, 2022-02-27 11:20:36.307
142.0, -2304.6883707867114, -5610.287858282073, -2318.635859326823, -11000.656902868379, -1319.1552542633121, -176.82465038593418, -5962.484295664346, -1946.1440379791306, -2153.6799852466565, -7048.86848317009, -4773.997339486759, -3530.8827198604013, -4615.411712576355, -3377.236828474621, -10158.666689236963, -14634.290591989828, 0.012, -0.1, 0.99, 192.0, 0.0, 0.0, 0.0, 0.0, 0.0, 0.0, 0.0, 0.0, 0.0, 1.645921236316003E9, 0.0, 2022-02-27 11:20:36.316
144.0, -1750.2309978283643, -5194.299542224353, -1969.1439830236416, -10637.753979892013, -834.2788617943361, 161.55840892295944, -5864.3154340166375, -1863.0626038387543, -3564.566798754549, -7006.109596027089, -4361.205322886148, -3437.184207103754, -4142.426448157603, -3025.107446325713, -10208.555782861207, -14875.04123151794, 0.012, -0.1, 0.99, 192.0, 0.0, 0.0, 0.0, 0.0, 0.0, 0.0, 0.0, 0.0, 0.0, 1.645921236323245E9, 0.0, 2022-02-27 11:20:36.323
146.0, -2583.7722520556754, -5827.77033183221, -2549.9317109503404, -11258.998365282818, -1589.0078650722344, -406.0194380306528, -6178.245684891425, -2255.380422518304, -4047.8115138782878, -7731.401351857347, -4778.244170933267, -3654.1302387869646, -4545.249586731146, -3442.4368670507515, -10470.49587613295, -15514.725806084372, 0.006, -0.108, 0.992, 192.0, 0.0, 24.0, 126.0, 80.0, 15.5, 0.0, 0.0, 0.0, 0.0, 1.645921236330624E9, 0.0, 2022-02-27 11:20:36.330
148.0, -1854.8595136236565, -5265.80277273688, -2001.554012483837, -10665.604253483327, -913.761665077408, 120.83353052538997, -5780.228171375772, -1759.9763584108782, -2036.6462512786688, -6675.013205410624, -4514.851214271929, -3404.3047910099976, -4360.2218461301145, -3142.8340843718156, -10031.865242942005, -14331.826786020612, 0.006, -0.108, 0.992, 192.0, 0.0, 0.0, 0.0, 0.0, 0.0, 0.0, 0.0, 0.0, 0.0, 1.645921236338573E9, 0.0, 2022-02-27 11:20:36.338
150.0, -2226.792541359966, -5564.735003082157, -2331.242243199616, -11036.218528296773, -1283.6383323238292, -191.24152555960723, -6138.660745461077, -2220.243480234561, -4924.715152348895, -7635.1323884883395, -4470.639463739331, -3573.887476192412, -4195.109509838761, -3165.9234363941478, -10472.954568023035, -15628.85381327317, 0.006, -0.108, 0.992, 192.0, 0.0, 0.0, 0.0, 0.0, 0.0, 0.0, 0.0, 0.0, 0.0, 1.645921236346604E9, 0.0, 2022-02-27 11:20:36.346
152.0, -2328.403571653792, -5631.477312025704, -2328.2024059536943, -11014.492632686215, -1334.5779579374741, -191.28622904851784, -5978.555199927712, -1971.4015092136276, -2213.4261981756927, -7096.924733749001, -4771.471592363309, -3527.664068658837, -4607.476843294721, -3375.1357644958216, -10170.2001893759, -14671.886226163653, 0.006, -0.108, 0.992, 192.0, 0.0, 0.0, 0.0, 0.0, 0.0, 0.0, 0.0, 0.0, 0.0, 1.645921236353379E9, 0.0, 2022-02-27 11:20:36.353
154.0, -1751.5050472623168, -5189.180992744087, -1965.0759655327756, -10633.86477635679, -825.9193093680512, 167.056938058965, -5849.876207098509, -1865.744813173391, -3493.376492664396, -6976.806459046181, -4361.920578708718, -3434.613756491394, -4143.6781458471, -3021.4194084905876, -10193.20013442041, -14845.112245692284, 0.009000000000000001, -0.107, 0.992, 192.0, 0.0, 48.0, 126.0, 88.0, 15.5, 0.0, 0.0, 0.0, 0.0, 1.645921236360377E9, 0.0, 2022-02-27 11:20:36.360
156.0, -2586.4097579014015, -5826.988020776274, -2551.9657196957733, -11262.41818218448, -1576.1779637548882, -405.6618101193679, -6191.992007731439, -2263.0917743553846, -4147.522645893413, -7752.702564323255, -4771.270426663212, -3662.378032490973, -4531.436208657767, -3429.1375790998436, -10475.592073868762, -15544.520681443297, 0.009000000000000001, -0.107, 0.992, 192.0, 0.0, 0.0, 0.0, 0.0, 0.0, 0.0, 0.0, 0.0, 0.0, 1.645921236369819E9, 0.0, 2022-02-27 11:20:36.369
158.0, -1870.684548698014, -5279.303226387886, -2012.126387611197, -10675.371965810296, -909.8501097977293, 120.38649563628384, -5778.372976585982, -1748.4875617608502, -2001.3751985281945, -6680.042347913069, -4529.51395863461, -3415.0783318374556, -4375.622198059821, -3130.004183054469, -10021.806957937117, -14321.902611482456, 0.009000000000000001, -0.107, 0.992, 192.0, 0.0, 0.0, 0.0, 0.0, 0.0, 0.0, 0.0, 0.0, 0.0, 1.645921236377336E9, 0.0, 2022-02-27 11:20:36.377
160.0, -2226.5466721709577, -5557.448334389727, -2332.0245542555517, -11029.13302530444, -1266.3157303709663, -192.33676103791728, -6127.037838344317, -2200.708055580623, -4907.571364351674, -7624.515309872068, -4460.804696178996, -3568.076022634032, -4191.913210381653, -3151.685375176117, -10453.173274180088, -15598.61190302514, 0.009000000000000001, -0.107, 0.992, 192.0, 0.0, 0.0, 0.0, 0.0, 0.0, 0.0, 0.0, 0.0, 0.0, 1.645921236382872E9, 0.0, 2022-02-27 11:20:36.382
162.0, -2339.9594235371856, -5641.781466219601, -2343.401592183303, -11021.868708356466, -1334.2650335150997, -203.1997088431965, -5979.270455750282, -1975.067195304298, -2206.765378328011, -7100.903344262046, -4770.063432462625, -3527.2393855141863, -4609.488500295699, -3375.7616133405704, -10155.380982802031, -14657.111723078695, 0.009000000000000001, -0.107, 0.992, 192.0, 0.0, 0.0, 0.0, 0.0, 0.0, 0.0, 0.0, 0.0, 0.0, 1.645921236390834E9, 0.0, 2022-02-27 11:20:36.390
164.0, -1743.816047169691, -5185.1129752532215, -1962.8184393427898, -10624.991133808033, -812.6647249060542, 167.95100783717726, -5846.970480319319, -1854.6583479235587, -3505.9828765371894, -7003.3603314590855, -4372.224732902615, -3450.5281985435727, -4156.217474486527, -3023.6769346805736, -10195.614122821586, -14842.854719502297, 0.0115, -0.10550000000000001, 0.99, 192.0, 0.0, 56.0, 126.0, 96.0, 15.0, 112.0, 0.0, 0.0, 0.0, 1.645921236398899E9, 0.0, 2022-02-27 11:20:36.398
166.0, -2586.253295690214, -5836.711029614334, -2557.978338954251, -11264.966281052386, -1583.4869841917734, -406.55587989758016, -6200.552725857821, -2251.49121898308, -4174.478849706513, -7745.550006097556, -4765.168400426913, -3661.729831901769, -4524.529519621077, -3410.116244568377, -10471.859332544725, -15546.286469255267, 0.0115, -0.10550000000000001, 0.99, 192.0, 0.0, 0.0, 0.0, 0.0, 0.0, 0.0, 0.0, 0.0, 0.0, 1.645921236406097E9, 0.0, 2022-02-27 11:20:36.406
168.0, -1885.3696448051508, -5289.585028837327, -2025.157454628641, -10685.653768259737, -926.4798076724777, 114.15035893325317, -5804.837442021066, -1748.3758030385738, -2008.9300881540883, -6685.160897393334, -4540.220444228702, -3416.0841603379445, -4380.785451028997, -3134.6086424122623, -10025.673809727885, -14311.978436944299, 0.0115, -0.10550000000000001, 0.99, 192.0, 0.0, 0.0, 0.0, 0.0, 0.0, 0.0, 0.0, 0.0, 0.0, 1.645921236413441E9, 0.0, 2022-02-27 11:20:36.413
170.0, -2209.447587662648, -5553.67088957678, -2325.408437896781, -11022.695722901311, -1258.1796953892347, -179.70802542066878, -6137.163178582571, -2199.8139858024106, -4914.7462743218275, -7615.216984178661, -4471.779402706552, -3579.6542262618814, -4197.50114649548, -3142.05177331588, -10461.510474861918, -15596.309673346243, 0.0115, -0.10550000000000001, 0.99, 192.0, 0.0, 0.0, 0.0, 0.0, 0.0, 0.0, 0.0, 0.0, 0.0, 1.645921236420469E9, 0.0, 2022-02-27 11:20:36.420
172.0, -2344.899159061809, -5644.508379043148, -2348.3860311968365, -11038.341944020027, -1349.8665511449042, -211.31339208047297, -5994.201421046427, -1989.9311053670772, -2289.31037060146, -7123.277440461808, -4788.458918149343, -3533.0731908170214, -4623.883023724917, -3387.876258835347, -10184.706471527395, -14712.164069672117, 0.0115, -0.10550000000000001, 0.99, 192.0, 0.0, 0.0, 0.0, 0.0, 0.0, 0.0, 0.0, 0.0, 0.0, 1.645921236435145E9, 0.0, 2022-02-27 11:20:36.435
174.0, -1727.432218483951, -5173.087736736266, -1951.9554915375104, -10620.967819806077, -805.9815533139174, 176.0423393299984, -5850.099724543063, -1838.7886093602908, -3402.606058431394, -6956.42166810294, -4357.33847109538, -3421.448579007218, -4146.941500537575, -3008.9694868289816, -10178.090355168624, -14804.633236483722, 0.01175, -0.10775000000000001, 0.988, 192.0, 0.0, 48.0, 126.0, 72.0, 15.0, 104.0, 0.0, 0.0, 0.0, 1.645921236443127E9, 0.0, 2022-02-27 11:20:36.443
176.0, -2582.095871221527, -5823.299982941149, -2559.945292466318, -11268.654318887511, -1585.2974754926533, -402.8901938069098, -6210.432196907067, -2257.436783008192, -4236.259071380981, -7756.189436458282, -4753.254920632234, -3657.885331855456, -4517.13109220637, -3401.9131543532794, -10491.148888009655, -15569.12995208859, 0.01175, -0.10775000000000001, 0.988, 192.0, 0.0, 0.0, 0.0, 0.0, 0.0, 0.0, 0.0, 0.0, 0.0, 1.645921236451911E9, 0.0, 2022-02-27 11:20:36.451
178.0, -1894.3773978206395, -5294.0553777283885, -2025.3362685842835, -10695.086204419877, -933.7888281093632, 102.46039658312758, -5795.650875049934, -1765.273721846786, -1976.5424104383483, -6684.579752037496, -4543.193226241258, -3417.805244661003, -4391.648398834276, -3142.09647680479, -10035.240356354756, -14314.012445689732, 0.01175, -0.10775000000000001, 0.988, 192.0, 0.0, 0.0, 0.0, 0.0, 0.0, 0.0, 0.0, 0.0, 0.0, 1.645921236458364E9, 0.0, 2022-02-27 11:20:36.458
180.0, -2196.1706514561956, -5545.087819705942, -2308.152891177284, -11015.721978631256, -1242.779343459528, -178.5010312200822, -6119.907631863074, -2210.2075469741285, -4881.486878572331, -7588.126669898828, -4455.440277509722, -3571.3617290689626, -4182.458422477058, -3127.2549184864665, -10451.45218985703, -15575.679013213994, 0.01175, -0.10775000000000001, 0.988, 192.0, 0.0, 0.0, 0.0, 0.0, 0.0, 0.0, 0.0, 0.0, 0.0, 1.645921236465788E9, 0.0, 2022-02-27 11:20:36.465
182.0, -2344.1391997503283, -5644.30721334305, -2340.8311415709427, -11032.530490461648, -1344.9938708536472, -215.09083689341986, -5974.062499292195, -1979.8281168732783, -2272.6136174933454, -7129.848853331668, -4782.133374468491, -3532.6932111612814, -4615.992857932193, -3380.030796531534, -10177.732727257338, -14701.390528844659, 0.01175, -0.10775000000000001, 0.988, 192.0, 0.0, 0.0, 0.0, 0.0, 0.0, 0.0, 0.0, 0.0, 0.0, 1.645921236473771E9, 0.0, 2022-02-27 11:20:36.473
184.0, -1735.5682534656828, -5186.610542131727, -1949.3403374362395, -10625.885203586246, -813.6258499176324, 163.9723973241326, -5845.785837863188, -1852.2890630112963, -3397.5322124400395, -6971.218522932354, -4366.189761899682, -3436.2007303477208, -4158.184427998594, -3012.7692833863834, -10182.359538359588, -14801.906323660174, 0.011875, -0.10587500000000001, 0.986, 192.0, 0.0, 48.0, 126.0, 96.0, 15.0, 96.0, 0.0, 0.0, 0.0, 1.645921236481835E9, 0.0, 2022-02-27 11:20:36.481
186.0, -2580.620656087477, -5828.753808588244, -2550.64696677291, -11269.74955436582, -1588.0914435495667, -413.12729276744045, -6210.767473073897, -2268.7467657025772, -4257.247359424515, -7781.9386460707965, -4752.718478765307, -3660.4557824678163, -4524.440112643256, -3409.065712578978, -10495.328664222798, -15583.926806918003, 0.011875, -0.10587500000000001, 0.986, 192.0, 0.0, 0.0, 0.0, 0.0, 0.0, 0.0, 0.0, 0.0, 0.0, 1.645921236488146E9, 0.0, 2022-02-27 11:20:36.488
188.0, -1902.871060713656, -5305.186546467131, -2031.997088431965, -10706.954980725644, -954.7547644084411, 91.4633383111165, -5806.044436221652, -1774.527344051283, -1951.262587459396, -6700.404787111854, -4533.403162169834, -3416.5088434825952, -4395.425843647224, -3141.470627960042, -10031.909946430917, -14311.017311932721, 0.011875, -0.10587500000000001, 0.986, 192.0, 0.0, 0.0, 0.0, 0.0, 0.0, 0.0, 0.0, 0.0, 0.0, 1.645921236495445E9, 0.0, 2022-02-27 11:20:36.495
190.0, -2184.7489100395337, -5530.223909643163, -2311.460949356669, -11014.98437106423, -1246.2215121056454, -188.5593162249704, -6133.7433616809085, -2202.8538230483323, -4872.926160445948, -7588.7078152546665, -4453.339213530924, -3570.8476389464904, -4196.383559272714, -3136.7097063910614, -10461.73399230647, -15576.997766136858, 0.011875, -0.10587500000000001, 0.986, 192.0, 0.0, 0.0, 0.0, 0.0, 0.0, 0.0, 0.0, 0.0, 0.0, 1.645921236503497E9, 0.0, 2022-02-27 11:20:36.503
192.0, -2355.1362580223395, -5644.374268576416, -2357.2596737455933, -11052.021211626676, -1371.8830194333816, -234.96153771418784, -6041.028325680295, -2029.8289692198002, -2337.1878072247277, -7159.219045545941, -4801.467633422331, -3546.3948305123845, -4646.815913536062, -3393.5983054159055, -10211.662675340494, -14753.648907381166, 0.011875, -0.10587500000000001, 0.986, 192.0, 0.0, 0.0, 0.0, 0.0, 0.0, 0.0, 0.0, 0.0, 0.0, 1.645921236511723E9, 0.0, 2022-02-27 11:20:36.511
194.0, -1710.62370665356, -5156.815666772803, -1938.7679623088793, -10614.061130769389, -805.3780562136241, 167.25810375906275, -5858.5039804582575, -1902.4016740800946, -3324.75493249356, -6936.282746348709, -4357.2267123731035, -3424.5554714865057, -4163.72766062351, -3003.426254204065, -10187.366329117576, -14790.194009565594, 0.0109375, -0.10393750000000002, 0.987, 192.0, 0.0, 40.0, 126.0, 104.0, 15.0, 112.0, 0.0, 0.0, 0.0, 1.645921236517991E9, 0.0, 2022-02-27 11:20:36.517
196.0, -2581.291208421136, -5827.122131243006, -2559.6100162994885, -11277.595016669633, -1602.8882983789802, -424.0572958060856, -6199.055158979316, -2263.0470708664743, -4315.272488030492, -7764.280767951103, -4748.114019407513, -3660.2546167677187, -4517.488720117655, -3407.188166044732, -10508.136213795688, -15612.80526075426, 0.0109375, -0.10393750000000002, 0.987, 192.0, 0.0, 0.0, 0.0, 0.0, 0.0, 0.0, 0.0, 0.0, 0.0, 1.645921236526145E9, 0.0, 2022-02-27 11:20:36.526
198.0, -1904.972124692455, -5300.135052220232, -2036.3109751118393, -10720.187213443187, -977.7323577084968, 70.43034677867256, -5847.305756486149, -1789.6594750475258, -1937.1362849636419, -6690.65942652934, -4552.133924023381, -3423.124959841366, -4409.641553120799, -3132.664040644651, -10041.163568635413, -14323.623695805514, 0.0109375, -0.10393750000000002, 0.987, 192.0, 0.0, 0.0, 0.0, 0.0, 0.0, 0.0, 0.0, 0.0, 0.0, 1.645921236534022E9, 0.0, 2022-02-27 11:20:36.534
200.0, -2173.8859622342543, -5522.892537461822, -2294.8759549708316, -11013.285638485628, -1253.9775674316368, -187.6652464467581, -6117.337181250713, -2184.927723995176, -4848.965090389859, -7590.518306555547, -4448.243015795114, -3581.2635518626635, -4197.523498239934, -3103.2267931970114, -10462.628062084683, -15562.804408407737, 0.0109375, -0.10393750000000002, 0.987, 192.0, 0.0, 0.0, 0.0, 0.0, 0.0, 0.0, 0.0, 0.0, 0.0, 1.645921236541226E9, 0.0, 2022-02-27 11:20:36.541
202.0, -2369.106098306906, -5659.081716428008, -2366.1556680388057, -11071.042546158142, -1406.3941128723757, -261.24718919362897, -6018.3413050581585, -2025.8503587067555, -2375.0963658209284, -7186.309359825774, -4810.341275971088, -3557.1683713398425, -4659.1764282198465, -3427.997640132623, -10223.039713268246, -14774.413677980147, 0.0109375, -0.10393750000000002, 0.987, 192.0, 0.0, 0.0, 0.0, 0.0, 0.0, 0.0, 0.0, 0.0, 0.0, 1.645921236555621E9, 0.0, 2022-02-27 11:20:36.555
204.0, -1706.4439304404177, -5143.806951499814, -1928.8661395151782, -10611.982418535044, -816.0845418077162, 160.97726356712147, -5812.168814202406, -1845.7623536303465, -3284.8570686408366, -6934.829882959114, -4369.453116590156, -3425.2707273090755, -4187.264047534949, -3028.0355248493584, -10176.838657479128, -14768.088134299296, 0.01146875, -0.10296875000000001, 0.9875, 192.0, 0.0, 48.0, 126.0, 104.0, 15.0, 112.0, 0.0, 0.0, 0.0, 1.645921236563725E9, 0.0, 2022-02-27 11:20:36.563
206.0, -2544.8355132145302, -5796.701407039333, -2531.3127078190696, -11260.048897272218, -1587.9126295939243, -426.49363595171405, -6205.626571849176, -2317.1382924483173, -4346.542578523467, -7773.15441049986, -4724.22000458479, -3644.3848782044506, -4503.116548432893, -3400.8849741083354, -10503.978789327, -15626.126900449623, 0.01146875, -0.10296875000000001, 0.9875, 192.0, 0.0, 0.0, 0.0, 0.0, 0.0, 0.0, 0.0, 0.0, 0.0, 1.645921236570229E9, 0.0, 2022-02-27 11:20:36.570
208.0, -1905.486214814927, -5307.131148234743, -2035.26044312244, -10724.255230934052, -985.4213578011224, 62.070794352387715, -5804.81509027661, -1791.6487803040482, -1893.9974181648993, -6689.877115473404, -4540.488665162166, -3394.425319960752, -4416.324724712936, -3137.559072680363, -10026.813748695105, -14318.9298294699, 0.01146875, -0.10296875000000001, 0.9875, 192.0, 0.0, 0.0, 0.0, 0.0, 0.0, 0.0, 0.0, 0.0, 0.0, 1.645921236578256E9, 0.0, 2022-02-27 11:20:36.578
210.0, -2135.6644792156794, -5496.405720282283, -2274.915847172242, -10985.055385238575, -1233.033982877014, -161.53605717850414, -6145.254510075392, -2191.8791165207763, -4809.00017130377, -7544.49606472207, -4432.507387698578, -3543.1761793108203, -4190.572105714334, -3101.438653640587, -10448.658221800117, -15544.140701787557, 0.01146875, -0.10296875000000001, 0.9875, 192.0, 0.0, 0.0, 0.0, 0.0, 0.0, 0.0, 0.0, 0.0, 0.0, 1.645921236586304E9, 0.0, 2022-02-27 11:20:36.586
212.0, -2375.0293105875626, -5660.132248417407, -2379.522011223079, -11078.664491017402, -1417.4135228888422, -262.78945956104513, -6028.153720874038, -2040.937786214088, -2411.440302305258, -7212.9526392165, -4809.00017130377, -3542.7514961661695, -4666.35133819, -3396.1687560282658, -10234.059123284713, -14804.40971903917, 0.01146875, -0.10296875000000001, 0.9875, 192.0, 0.0, 0.0, 0.0, 0.0, 0.0, 0.0, 0.0, 0.0, 0.0, 1.645921236593598E9, 0.0, 2022-02-27 11:20:36.593
214.0, -1713.2612124992863, -5152.92646323758, -1939.5726251092703, -10619.604363394305, -829.3838297586238, 163.23478975710748, -5837.269823225716, -1847.818714120235, -3232.062248237401, -6912.969876881823, -4382.148907440771, -3427.4611982656957, -4204.676056465632, -3012.813986875294, -10177.218637134867, -14750.67612536861, 0.012734375, -0.105484375, 0.98675, 192.0, 0.0, 56.0, 126.0, 80.0, 15.0, 104.0, 0.0, 0.0, 0.0, 1.64592123660088E9, 0.0, 2022-02-27 11:20:36.600
216.0, -2565.8685047469744, -5795.449709349837, -2556.234902886737, -11280.388984726547, -1610.152615326955, -439.3235372690603, -6248.631328181187, -2318.0547139709847, -4406.333494941413, -7796.534335200112, -4739.016859414203, -3675.207933808319, -4514.471234616189, -3376.9462557967017, -10524.542394225884, -15652.680772862528, 0.012734375, -0.105484375, 0.98675, 192.0, 0.0, 0.0, 0.0, 0.0, 0.0, 0.0, 0.0, 0.0, 0.0, 1.645921236607882E9, 0.0, 2022-02-27 11:20:36.607
218.0, -1924.5969563242147, -5321.458616430595, -2051.1748851746183, -10728.814986802934, -1008.3989511011781, 41.57424468687114, -5838.29800347066, -1809.7983968017575, -1890.6893599855139, -6695.822679498516, -4567.71308990873, -3413.8936893813243, -4439.324669757446, -3174.2159335870665, -10047.287946616167, -14330.373922631017, 0.012734375, -0.105484375, 0.98675, 192.0, 0.0, 0.0, 0.0, 0.0, 0.0, 0.0, 0.0, 0.0, 0.0, 1.645921236615954E9, 0.0, 2022-02-27 11:20:36.615
220.0, -2114.1844527941294, -5466.856714112368, -2257.5038382415582, -10965.609367562458, -1214.325572767922, -151.9248070627221, -6133.273975047347, -2203.5243753819914, -4779.965255256326, -7515.639962630268, -4426.919451584751, -3525.8535773579574, -4176.892838107686, -3106.914831032137, -10445.081942687268, -15538.865690096103, 0.012734375, -0.105484375, 0.98675, 192.0, 0.0, 0.0, 0.0, 0.0, 0.0, 0.0, 0.0, 0.0, 0.0, 1.645921236623278E9, 0.0, 2022-02-27 11:20:36.623
222.0, -2377.242133288638, -5661.182780406807, -2374.0681855759844, -11080.676148018378, -1417.1676536998336, -263.52706712807026, -6054.931110731496, -2053.7900392758893, -2435.759000272632, -7196.0100169193765, -4799.031293276703, -3542.282109532608, -4650.928634515838, -3414.1395585703326, -10234.684972129462, -14828.706065262088, 0.012734375, -0.105484375, 0.98675, 192.0, 0.0, 0.0, 0.0, 0.0, 0.0, 0.0, 0.0, 0.0, 0.0, 1.645921236630563E9, 0.0, 2022-02-27 11:20:36.630
224.0, -1703.4264449389511, -5160.906036008124, -1922.071209200765, -10609.076691755854, -802.8076056012637, 183.84309814490058, -5833.760599346233, -1836.1287517701094, -3163.9564828820808, -6890.9534085933465, -4371.86710499133, -3415.279497537553, -4190.013312102951, -3006.913126339093, -10163.762886972772, -14728.905526269142, 0.01, -0.11, 0.99, 192.0, 0.0, 40.0, 126.0, 72.0, 15.0, 120.0, 0.0, 0.0, 0.0, 1.645921236638589E9, 0.0, 2022-02-27 11:20:36.638
226.0, -2554.7373360082315, -5808.324314156093, -2541.5051032906895, -11268.453153187413, -1585.3868824704746, -410.02040028815276, -6231.554595417332, -2305.0236469535407, -4432.373277231846, -7802.345788758492, -4717.737998692751, -3646.3294799720625, -4484.206972623703, -3362.7976015564923, -10517.076911577811, -15655.653554875084, 0.01, -0.11, 0.99, 192.0, 0.0, 0.0, 0.0, 0.0, 0.0, 0.0, 0.0, 0.0, 0.0, 1.645921236646638E9, 0.0, 2022-02-27 11:20:36.646
228.0, -1940.2431774429297, -5323.380866453751, -2056.74046954399, -10734.715847339136, -999.5700120413319, 60.617930962792755, -5831.01133477823, -1801.237678675375, -1864.3143015282515, -6701.678836545806, -4568.517752709121, -3410.6973899242153, -4436.217777278159, -3145.8962733621925, -10040.627126768486, -14320.02506494821, 0.01, -0.11, 0.99, 192.0, 0.0, 0.0, 0.0, 0.0, 0.0, 0.0, 0.0, 0.0, 0.0, 1.645921236653314E9, 0.0, 2022-02-27 11:20:36.653
230.0, -2102.1368625327186, -5456.4184494517385, -2245.63506193579, -10953.382963345404, -1187.4811276770984, -117.88310025728944, -6111.771596881342, -2174.087127934352, -4750.907987464427, -7494.696378075645, -4425.4442364507, -3536.3588972519515, -4174.881181106708, -3077.3881766066766, -10436.454169327519, -15510.233105448855, 0.01, -0.11, 0.99, 192.0, 0.0, 0.0, 0.0, 0.0, 0.0, 0.0, 0.0, 0.0, 0.0, 1.645921236661176E9, 0.0, 2022-02-27 11:20:36.661
232.0, -2382.047758346529, -5658.053536183064, -2378.8738106338756, -11082.486639319259, -1418.128778711412, -248.14906694281902, -6042.414133836524, -2033.159379143641, -2477.400300192869, -7221.4239503650615, -4806.899107324971, -3563.851542931979, -4652.336794416523, -3385.5069739230844, -10242.575137922186, -14839.948992723108, 0.01, -0.11, 0.99, 192.0, 0.0, 0.0, 0.0, 0.0, 0.0, 0.0, 0.0, 0.0, 0.0, 1.645921236668235E9, 0.0, 2022-02-27 11:20:36.668
234.0, -1706.4215786959624, -5151.965338226001, -1929.9613749934883, -10606.550944632405, -806.1380155251045, 175.59530444089228, -5827.502110898747, -1829.1997109889642, -3120.6388021276957, -6884.985492823779, -4373.968168970128, -3413.513709725584, -4195.243620305493, -2999.2911814798335, -10155.895072924504, -14700.608217788724, 0.01, -0.11, 0.99, 192.0, 0.0, 40.0, 126.0, 72.0, 15.0, 120.0, 0.0, 0.0, 0.0, 1.64592123668285E9, 0.0, 2022-02-27 11:20:36.682
236.0, -2552.45745807379, -5801.059997208118, -2549.3058621055916, -11268.900188076519, -1585.3198272371087, -413.7084381232784, -6238.953022832039, -2289.824460723932, -4487.917362203284, -7798.9036201123745, -4723.16947259539, -3656.588930677048, -4478.9096091877955, -3363.3116916789645, -10523.804786658859, -15669.601043415196, 0.01, -0.11, 0.99, 192.0, 0.0, 0.0, 0.0, 0.0, 0.0, 0.0, 0.0, 0.0, 0.0, 1.645921236690836E9, 0.0, 2022-02-27 11:20:36.690
238.0, -1956.7834683398569, -5321.212747241587, -2076.0747284978306, -10746.22699573362, -1025.3415733983009, 40.59076793083763, -5839.527349415702, -1792.1181669376097, -1861.7214991714359, -6709.010208727147, -4589.684854708297, -3421.225061562665, -4455.350870531902, -3166.6833957056283, -10046.46093207132, -14322.640219049481, 0.01, -0.11, 0.99, 192.0, 0.0, 0.0, 0.0, 0.0, 0.0, 0.0, 0.0, 0.0, 0.0, 1.645921236698855E9, 0.0, 2022-02-27 11:20:36.698
240.0, -2076.544115131392, -5432.077399739909, -2235.5544251864467, -10938.586108515992, -1173.3771769257996, -118.64305956876989, -6108.530593935322, -2157.390374826238, -4721.761312694706, -7480.055985457419, -4425.35482947288, -3535.2636617736416, -4178.032777074906, -3073.7671940049167, -10434.442512326541, -15484.707413280896, 0.01, -0.11, 0.99, 192.0, 0.0, 0.0, 0.0, 0.0, 0.0, 0.0, 0.0, 0.0, 0.0, 1.645921236705454E9, 0.0, 2022-02-27 11:20:36.705
242.0, -2399.660932977311, -5674.705585802268, -2397.693979465244, -11106.693578564356, -1435.965470786747, -285.4764801831818, -6041.318898358214, -2053.9912049759873, -2553.306824363092, -7273.235294012463, -4814.744569628784, -3565.0138336436553, -4656.427163651844, -3406.249392777609, -10256.813199140215, -14884.89835082273, 0.01, -0.11, 0.99, 192.0, 0.0, 0.0, 0.0, 0.0, 0.0, 0.0, 0.0, 0.0, 0.0, 1.645921236713545E9, 0.0, 2022-02-27 11:20:36.713
244.0, -1699.3137239591747, -5137.615518285695, -1927.7932557813235, -10603.868735297769, -803.6346201461101, 183.2619527890626, -5816.840328793565, -1814.0228765038105, -3039.7701906883945, -6858.275158199687, -4380.249009162069, -3413.9160411257794, -4198.372864529236, -3002.9345158260485, -10140.248851805789, -14673.294386064337, 0.012, -0.11, 0.994, 192.0, 0.0, 48.0, 126.0, 72.0, 15.5, 8.0, 0.0, 0.0, 0.0, 1.645921236721455E9, 0.0, 2022-02-27 11:20:36.721
246.0, -2541.88508294643, -5787.33602611256, -2551.1834086398376, -11264.787467096743, -1580.4024434569412, -411.4285601888371, -6248.7877903923745, -2286.7175682446446, -4545.0037175421385, -7789.918218841341, -4706.137443320446, -3652.789134119646, -4466.191466592725, -3349.7218310501376, -10524.475338992517, -15684.420249989063, 0.012, -0.11, 0.994, 192.0, 0.0, 0.0, 0.0, 0.0, 0.0, 0.0, 0.0, 0.0, 0.0, 1.645921236728549E9, 0.0, 2022-02-27 11:20:36.728
248.0, -1971.1556400246193, -5337.350706738318, -2092.8161850948554, -10764.51072269806, -1027.241471677002, 31.18068351515335, -5835.01229703573, -1794.465100105417, -1848.6457286650812, -6717.034484986602, -4603.162956614847, -3433.026782635067, -4466.079707870449, -3181.904933679692, -10043.286984358667, -14330.619791820025, 0.012, -0.11, 0.994, 192.0, 0.0, 0.0, 0.0, 0.0, 0.0, 0.0, 0.0, 0.0, 0.0, 1.645921236735215E9, 0.0, 2022-02-27 11:20:36.735
250.0, -2068.139859216197, -5425.774207803513, -2236.6496606647565, -10928.863099677934, -1156.881589517783, -100.44873958214994, -6076.366433664136, -2135.887996660232, -4674.129745260447, -7461.593444537336, -4415.4530066791785, -3536.5824146965047, -4165.962835069041, -3077.566990562319, -10409.25209632541, -15457.214767600868, 0.012, -0.11, 0.994, 192.0, 0.0, 0.0, 0.0, 0.0, 0.0, 0.0, 0.0, 0.0, 0.0, 1.645921236743247E9, 0.0, 2022-02-27 11:20:36.743
252.0, -2412.33437208347, -5679.801783538078, -2420.559814043023, -11105.285418663672, -1442.9392150568028, -280.4249859362824, -6049.119657173116, -2036.0427541783756, -2582.5429061106333, -7279.270265015396, -4822.008886576758, -3562.219865586742, -4664.384384677933, -3410.3397620129304, -10255.136818306068, -14885.770068856487, 0.012, -0.11, 0.994, 192.0, 0.0, 0.0, 0.0, 0.0, 0.0, 0.0, 0.0, 0.0, 0.0, 1.645921236751195E9, 0.0, 2022-02-27 11:20:36.751
254.0, -1696.0950727576105, -5125.5902797687395, -1939.9526047650106, -10594.682168326637, -807.2556027478698, 185.0947958343978, -5825.065770753118, -1799.7624635413247, -3016.2338037769564, -6843.411248136908, -4385.72518655362, -3399.610924674383, -4214.041437392407, -3007.695437395029, -10140.338258783611, -14655.725914922466, 0.012, -0.11, 0.994, 192.0, 0.0, 48.0, 126.0, 72.0, 15.5, 8.0, 0.0, 0.0, 0.0, 1.645921236758219E9, 0.0, 2022-02-27 11:20:36.758
0.0, -2534.1513793648937, -5766.414793302392, -2558.514780821178, -11261.658222873, -1584.761033625726, -406.108845008474, -6237.3436972312575, -2310.0304377115294, -4569.076546320503, -7775.814268090042, -4699.923658361871, -3640.67448862487, -4470.1030218724045, -3342.837493757903, -10528.878632650212, -15693.495058237919, 0.012, -0.11, 0.994, 192.0, 0.0, 0.0, 0.0, 0.0, 0.0, 0.0, 0.0, 0.0, 0.0, 1.645921236765785E9, 0.0, 2022-02-27 11:20:36.765
2.0, -1976.7659278829012, -5340.122323050777, -2108.060074813375, -10763.951929086677, -1047.4250969201444, 11.399389672206603, -5852.066678055129, -1811.6759433360035, -1832.3066034682518, -6718.308534420555, -4603.922915926328, -3414.608945203894, -4473.03110039605, -3164.4482212600974, -10039.598946523542, -14330.508033097749, 0.012, -0.11, 0.994, 192.0, 0.0, 0.0, 0.0, 0.0, 0.0, 0.0, 0.0, 0.0, 0.0, 1.645921236773759E9, 0.0, 2022-02-27 11:20:36.773
4.0, -2043.7317542710014, -5407.423425605706, -2229.050067549952, -10907.405425000838, -1142.9117492332161, -96.42542558019467, -6089.39750068158, -2151.3330520788495, -4658.2376549527235, -7453.077429899863, -4420.392742203801, -3523.5289959346055, -4180.379710242714, -3098.197650694567, -10413.811852194292, -15450.844520431105, 0.012, -0.11, 0.994, 192.0, 0.0, 0.0, 0.0, 0.0, 0.0, 0.0, 0.0, 0.0, 0.0, 1.645921236781768E9, 0.0, 2022-02-27 11:20:36.781
6.0, -2436.206035161738, -5692.676388344335, -2443.984442232185, -11131.213442231829, -1464.866276367459, -304.274297270095, -6067.9398260044845, -2070.2856266839062, -2698.570811578132, -7321.246841102463, -4835.218767549845, -3579.542467539605, -4681.25995174169, -3427.9529366437123, -10283.970568653414, -14953.33939234488, 0.012, -0.11, 0.994, 192.0, 0.0, 0.0, 0.0, 0.0, 0.0, 0.0, 0.0, 0.0, 0.0, 1.645921236788351E9, 0.0, 2022-02-27 11:20:36.788
8.0, -1704.6110873950824, -5136.788503740848, -1945.6522996011138, -10606.215668465575, -803.0758265347274, 174.3659584958504, -5804.233944920772, -1787.2454866463527, -2939.7014307619847, -6820.813634492592, -4398.8456605488855, -3408.9763056011566, -4236.147312658705, -3015.2279752764675, -10129.028276089224, -14628.412083198082, 0.012, -0.108, 0.988, 192.0, 0.0, 48.0, 126.0, 80.0, 15.0, 112.0, 0.0, 0.0, 0.0, 1.645921236803518E9, 0.0, 2022-02-27 11:20:36.803
10.0, -2533.6372892424215, -5769.991072415241, -2558.000690698706, -11264.876874074564, -1579.150745767444, -412.12146426695165, -6261.863560898729, -2302.609658552368, -4604.660523493352, -7791.728710142221, -4698.135518805447, -3649.503427684716, -4473.344024818423, -3347.263139160054, -10529.348019283774, -15694.657348949595, 0.012, -0.108, 0.988, 192.0, 0.0, 0.0, 0.0, 0.0, 0.0, 0.0, 0.0, 0.0, 0.0, 1.645921236810461E9, 0.0, 2022-02-27 11:20:36.810
12.0, -1984.6560936756248, -5342.625718429771, -2111.457539970582, -10772.065612323953, -1050.2190649770575, 17.747285097513807, -5847.484570441791, -1792.2075739154309, -1824.0141062753328, -6717.794444298082, -4600.257229835657, -3410.8762038798577, -4484.0728621569715, -3180.4073668011865, -10047.153836149435, -14327.959934229844, 0.012, -0.108, 0.988, 192.0, 0.0, 0.0, 0.0, 0.0, 0.0, 0.0, 0.0, 0.0, 0.0, 1.64592123681814E9, 0.0, 2022-02-27 11:20:36.818
14.0, -2042.0553734368532, -5403.266001137019, -2218.2988784669496, -10905.30436102204, -1134.1275136622803, -90.27869585498523, -6089.218686725937, -2122.0075633534866, -4637.20466342028, -7433.89963315721, -4407.853413564374, -3515.594126652971, -4178.189239286094, -3071.822592237305, -10408.156860847099, -15433.186642311412, 0.012, -0.108, 0.988, 192.0, 0.0, 0.0, 0.0, 0.0, 0.0, 0.0, 0.0, 0.0, 0.0, 1.645921236826108E9, 0.0, 2022-02-27 11:20:36.826
16.0, -2443.045668965062, -5698.55489713608, -2442.308061398037, -11132.666305621422, -1467.1461543019002, -302.1955850357515, -6075.96410226394, -2072.5655046183474, -2696.939134232895, -7332.7803412414005, -4828.937927357903, -3574.7591942261693, -4679.024777296159, -3424.510767997595, -10280.193123840467, -14952.758246989042, 0.012, -0.108, 0.988, 192.0, 0.0, 0.0, 0.0, 0.0, 0.0, 0.0, 0.0, 0.0, 0.0, 1.645921236834053E9, 0.0, 2022-02-27 11:20:36.834
18.0, -1701.660657126982, -5130.172387382077, -1939.3714594091725, -10594.995092749012, -803.9251928240291, 189.85571740337818, -5851.217311765828, -1799.6730565635035, -2933.15236963658, -6828.927317729869, -4398.286866937503, -3404.841232876925, -4241.645841794711, -3012.9704490864815, -10128.491834222297, -14619.471385415958, 0.012, -0.108, 0.986, 192.0, 0.0, 48.0, 126.0, 80.0, 15.0, 104.0, 0.0, 0.0, 0.0, 1.64592123684064E9, 0.0, 2022-02-27 11:20:36.840
20.0, -2535.201911354293, -5779.423508575382, -2557.0619174315834, -11257.590205382134, -1570.4559171743294, -409.1933857433064, -6242.596357178254, -2314.321972646949, -4655.5330938736315, -7806.1232335714385, -4684.523306432165, -3638.439314179339, -4454.83678040943, -3335.8861012323027, -10534.13129259721, -15710.571791001772, 0.012, -0.108, 0.986, 192.0, 0.0, 0.0, 0.0, 0.0, 0.0, 0.0, 0.0, 0.0, 0.0, 1.645921236848708E9, 0.0, 2022-02-27 11:20:36.848
22.0, -2010.3829515436832, -5366.944416397145, -2125.3603250217825, -10782.36976651785, -1070.5368006869317, 5.722046580558608, -5837.53804415918, -1780.785832498769, -1833.848873835668, -6749.891549335904, -4619.122102155937, -3434.7925704470363, -4505.865813000895, -3197.819375731871, -10048.51729256121, -14330.329219142106, 0.012, -0.108, 0.986, 192.0, 0.0, 0.0, 0.0, 0.0, 0.0, 0.0, 0.0, 0.0, 0.0, 1.645921236855647E9, 0.0, 2022-02-27 11:20:36.855
24.0, -2015.322687068306, -5384.915218939212, -2197.9140875237094, -10878.236398486662, -1105.3608185483001, -63.74717518653574, -6050.170189162515, -2095.2972287293946, -4606.314552583045, -7409.983266590031, -4407.831061819918, -3511.034370784089, -4176.870486363231, -3056.8022199633388, -10393.516468228874, -15402.073014029625, 0.012, -0.108, 0.986, 192.0, 0.0, 0.0, 0.0, 0.0, 0.0, 0.0, 0.0, 0.0, 0.0, 1.645921236863757E9, 0.0, 2022-02-27 11:20:36.863
26.0, -2445.6831748107884, -5697.951400035787, -2441.2575294086373, -11129.49235790877, -1469.7836601476265, -299.22280302319564, -6103.523803177333, -2078.0193302654425, -2790.436481289444, -7341.855149490256, -4827.95445060187, -3575.4297465598283, -4671.961626048283, -3425.024858120067, -10293.179487369, -14985.995290994084, 0.012, -0.108, 0.986, 192.0, 0.0, 0.0, 0.0, 0.0, 0.0, 0.0, 0.0, 0.0, 0.0, 1.645921236870431E9, 0.0, 2022-02-27 11:20:36.870
28.0, -1689.7695290767585, -5120.404675055108, -1923.4793691014493, -10583.595703076804, -797.6220008876326, 196.60594422888093, -5820.863642795521, -1767.1736201254869, -2843.5218743707987, -6791.354035300498, -4387.803898787964, -3387.8092036019807, -4232.414571334669, -3009.7294461404617, -10115.416063715944, -14586.547265833291, 0.012, -0.108, 0.988, 192.0, 0.0, 48.0, 126.0, 80.0, 15.0, 112.0, 0.0, 0.0, 0.0, 1.645921236878271E9, 0.0, 2022-02-27 11:20:36.878
30.0, -2518.616916968455, -5759.619862987979, -2543.874388202952, -11250.057667500696, -1566.6114171280167, -409.03692353211926, -6266.5797789787985, -2306.431806854225, -4674.442669682821, -7783.860896093953, -4666.932483545838, -3638.1263897569647, -4447.348946016901, -3321.9162609477357, -10532.700780952071, -15707.353139800209, 0.012, -0.108, 0.988, 192.0, 0.0, 0.0, 0.0, 0.0, 0.0, 0.0, 0.0, 0.0, 0.0, 1.645921236886282E9, 0.0, 2022-02-27 11:20:36.886
32.0, -2012.618125989214, -5364.619834973792, -2120.241775541517, -10787.667129953757, -1067.9663500745714, -8.225441959552999, -5816.43799739337, -1809.3513619126513, -1816.9286032830005, -6740.526168409129, -4614.182366631314, -3421.493282496129, -4503.764749022097, -3204.368436857276, -10047.17618789389, -14339.716951813336, 0.012, -0.108, 0.988, 192.0, 0.0, 0.0, 0.0, 0.0, 0.0, 0.0, 0.0, 0.0, 0.0, 1.64592123689349E9, 0.0, 2022-02-27 11:20:36.893
34.0, -2001.7328264394794, -5369.492515265049, -2187.6546368187232, -10871.955558294721, -1097.9623911335934, -76.39826254823954, -6041.6988780139545, -2083.115528001252, -4573.1222120669145, -7399.992036818509, -4401.036131505505, -3507.5251469046057, -4171.528419438412, -3065.7652694899166, -10384.307549513287, -15385.108039988047, 0.012, -0.108, 0.988, 192.0, 0.0, 0.0, 0.0, 0.0, 0.0, 0.0, 0.0, 0.0, 0.0, 1.645921236901064E9, 0.0, 2022-02-27 11:20:36.901
36.0, -2448.499494612157, -5696.386777923915, -2448.6559568233442, -11141.49524468127, -1495.3987592934084, -330.6493557273574, -6098.248791485881, -2088.971685048543, -2801.455891305911, -7361.50233286647, -4829.831997136116, -3572.635778502915, -4676.83430633954, -3431.216291334187, -10297.001635670858, -14994.44425039819, 0.014, -0.107, 0.987, 192.0, 0.0, 64.0, 126.0, 88.0, 15.0, 104.0, 0.0, 0.0, 0.0, 1.645921236909146E9, 0.0, 2022-02-27 11:20:36.909
38.0, -1695.5362791462278, -5123.958602423501, -1934.6105378401921, -10597.990226506023, -818.7443993978977, 153.93646406369973, -5823.501148641247, -1791.4699663484057, -2856.1729617325022, -6809.056616909101, -4401.840794305896, -3402.449596220207, -4248.083144197839, -3035.1880830750565, -10124.468520220342, -14595.376204893138, 0.014, -0.107, 0.987, 192.0, 0.0, 0.0, 0.0, 0.0, 0.0, 0.0, 0.0, 0.0, 0.0, 1.645921236916136E9, 0.0, 2022-02-27 11:20:36.916
40.0, -2508.491576730201, -5752.512008251191, -2543.4720568027565, -11248.694211088921, -1566.4102514279189, -417.91056608087615, -6262.601168465754, -2316.7806645370324, -4702.918792118882, -7809.677160939832, -4665.233750967235, -3639.8698258244785, -4438.028268579039, -3339.037697200501, -10533.728961197015, -15728.520241799384, 0.014, -0.107, 0.987, 192.0, 0.0, 0.0, 0.0, 0.0, 0.0, 0.0, 0.0, 0.0, 0.0, 1.645921236930803E9, 0.0, 2022-02-27 11:20:36.930
42.0, -2006.9184311531105, -5358.338994781851, -2128.310755289883, -10791.42222302225, -1078.6281321797528, -20.608308387793112, -5883.1579545924615, -1830.9878505453887, -1813.0617514922324, -6755.881816849926, -4618.093921910992, -3424.778988931059, -4506.312847890002, -3213.5103003394966, -10048.964327450316, -14347.942393772888, 0.014, -0.107, 0.987, 192.0, 0.0, 0.0, 0.0, 0.0, 0.0, 0.0, 0.0, 0.0, 0.0, 1.645921236938646E9, 0.0, 2022-02-27 11:20:36.938
44.0, -1969.3451487237394, -5335.607270670805, -2169.370909854282, -10856.734020320657, -1078.270504268468, -54.98529136005538, -6061.301357901259, -2084.836612324311, -4529.648069101342, -7372.611149860758, -4379.91373299524, -3500.417292167818, -4158.497352420968, -3053.2706443394, -10380.507752955884, -15369.260653169235, 0.014, -0.107, 0.987, 192.0, 0.0, 0.0, 0.0, 0.0, 0.0, 0.0, 0.0, 0.0, 0.0, 1.645921236945799E9, 0.0, 2022-02-27 11:20:36.945
46.0, -2444.789105032576, -5698.465490158259, -2450.5782068465005, -11144.602137160557, -1489.833174924037, -343.0098704111422, -6098.4052536970685, -2083.3613971902605, -2836.659888823019, -7337.563614554837, -4818.723180141828, -3572.0993366359876, -4664.853771311495, -3434.7031634692153, -10300.197935127966, -15023.255649001081, 0.012, -0.1075, 0.9884999999999999, 192.0, 0.0, 40.0, 126.0, 80.0, 15.0, 120.0, 0.0, 0.0, 0.0, 1.645921236953516E9, 0.0, 2022-02-27 11:20:36.953
48.0, -1686.819098808658, -5124.8303204572585, -1929.2461191709185, -10585.696767055604, -796.0126752868504, 175.61765618534758, -5804.345703643049, -1752.0638408736995, -2798.3266470821677, -6813.68342801135, -4390.799032544975, -3395.162927527777, -4249.960690732085, -3019.2512892784225, -10111.482156691809, -14568.732925502412, 0.012, -0.1075, 0.9884999999999999, 192.0, 0.0, 0.0, 0.0, 0.0, 0.0, 0.0, 0.0, 0.0, 0.0, 1.645921236961218E9, 0.0, 2022-02-27 11:20:36.961
50.0, -2486.005721808162, -5740.218548800773, -2524.048390871095, -11227.974143978852, -1543.3208994055867, -404.4771676632366, -6245.256214768436, -2294.9430102041974, -4733.920661678393, -7813.007570863673, -4642.524378600643, -3623.1283692274537, -4407.16050948626, -3311.455644542652, -10531.22556581802, -15723.40169231912, 0.012, -0.1075, 0.9884999999999999, 192.0, 0.0, 0.0, 0.0, 0.0, 0.0, 0.0, 0.0, 0.0, 0.0, 1.64592123696932E9, 0.0, 2022-02-27 11:20:36.969
52.0, -2023.190501116574, -5372.107669366321, -2134.5245402484584, -10792.13747884482, -1080.7738996474625, -28.744343369524884, -5869.411631752448, -1808.9043270235452, -1798.3766553850955, -6762.497933208697, -4614.696456753785, -3425.2483755646203, -4499.182641408759, -3223.1215504552783, -10045.678621015384, -14346.064847238642, 0.012, -0.1075, 0.9884999999999999, 192.0, 0.0, 0.0, 0.0, 0.0, 0.0, 0.0, 0.0, 0.0, 0.0, 1.645921236975893E9, 0.0, 2022-02-27 11:20:36.975
54.0, -1964.4054131991165, -5339.161198039198, -2159.2008661271175, -10838.696162545224, -1051.3143004553676, -39.696698152625345, -6040.134255902083, -2066.843458037789, -4493.3488361059235, -7372.1641149716515, -4379.623160317321, -3495.8128328100247, -4150.495427905968, -3054.0529553953356, -10368.661328394572, -15339.666943510407, 0.012, -0.1075, 0.9884999999999999, 192.0, 0.0, 0.0, 0.0, 0.0, 0.0, 0.0, 0.0, 0.0, 0.0, 1.645921236982896E9, 0.0, 2022-02-27 11:20:36.982
56.0, -2467.9678640327293, -5707.98733329622, -2458.602483105956, -11149.765390129733, -1477.5620672180735, -337.82426569751095, -6097.175907752026, -2083.473155912537, -2910.800625181273, -7400.997865318998, -4826.47923546782, -3583.4987263081944, -4658.908207286383, -3437.8771111818687, -10305.919981708525, -15048.893099891318, 0.013000000000000001, -0.10775, 0.98725, 192.0, 0.0, 56.0, 126.0, 80.0, 15.0, 104.0, 0.0, 0.0, 0.0, 1.645921236991682E9, 0.0, 2022-02-27 11:20:36.991
58.0, -1707.494462429817, -5134.262756617398, -1931.838921527734, -10585.406194377685, -784.7920995702863, 185.05009234548717, -5794.712101782811, -1745.0006896258224, -2759.747536152308, -6793.34334055702, -4395.805823302963, -3404.0142183320786, -4242.0034697059955, -3031.5223969843864, -10101.312112964644, -14550.113922371142, 0.013000000000000001, -0.10775, 0.98725, 192.0, 0.0, 0.0, 0.0, 0.0, 0.0, 0.0, 0.0, 0.0, 0.0, 1.645921236998181E9, 0.0, 2022-02-27 11:20:36.998
60.0, -2501.8084051380642, -5764.716060723789, -2531.424466541346, -11227.258888156282, -1523.0478671846233, -383.6676935753457, -6241.009383321927, -2294.115995659351, -4791.409348417443, -7818.506099999679, -4644.11135245697, -3634.3042414551073, -4396.945762270184, -3308.3040485744536, -10531.493786751484, -15729.883698211159, 0.013000000000000001, -0.10775, 0.98725, 192.0, 0.0, 0.0, 0.0, 0.0, 0.0, 0.0, 0.0, 0.0, 0.0, 1.645921237006281E9, 0.0, 2022-02-27 11:20:37.006
62.0, -2072.319635429339, -5429.082265982898, -2164.2970638629276, -10816.61263902338, -1092.6650276976857, -32.87941609375669, -5876.631245211512, -1799.1813181854866, -1844.9576908299555, -6814.979829189758, -4654.1249339729475, -3442.9509571732233, -4520.5285573635765, -3238.141922729245, -10058.46381884382, -14368.058963782665, 0.013000000000000001, -0.10775, 0.98725, 192.0, 0.0, 0.0, 0.0, 0.0, 0.0, 0.0, 0.0, 0.0, 0.0, 1.645921237013335E9, 0.0, 2022-02-27 11:20:37.013
64.0, -1957.454020673516, -5346.760791154003, -2150.3048718339055, -10816.992618679122, -1013.3610383702563, -6.102026236298828, -6014.072121867195, -2027.102056396253, -4461.1846758347365, -7354.148608940674, -4389.994369744583, -3497.9809520221893, -4143.789904569377, -3050.0296413933806, -10358.58069164523, -15306.02756810517, 0.013000000000000001, -0.10775, 0.98725, 192.0, 0.0, 0.0, 0.0, 0.0, 0.0, 0.0, 0.0, 0.0, 0.0, 1.645921237020848E9, 0.0, 2022-02-27 11:20:37.020
66.0, -2522.0590856145723, -5771.108659638007, -2482.4964979286788, -11165.813942648643, -1483.6193899654616, -335.00794589614225, -6103.434396199513, -2089.016388537453, -3044.8663884242046, -7457.212502624096, -4837.208072806367, -3603.436482362328, -4646.123009457947, -3433.898500668824, -10328.428188375019, -15097.217571403691, 0.0145, -0.106875, 0.989625, 192.0, 0.0, 64.0, 126.0, 88.0, 15.5, 0.0, 0.0, 0.0, 0.0, 1.64592123702888E9, 0.0, 2022-02-27 11:20:37.028
68.0, -1782.68573077747, -5213.0303040779, -1944.355898422706, -10590.323578157851, -780.0088262568505, 191.93442963772173, -5784.609113289012, -1732.1260848195654, -2684.3103986156466, -6806.888497696937, -4433.647326665799, -3418.8557766504023, -4255.3251094013585, -3030.8741963951825, -10087.811659313638, -14511.087776552175, 0.0145, -0.106875, 0.989625, 192.0, 0.0, 0.0, 0.0, 0.0, 0.0, 0.0, 0.0, 0.0, 0.0, 1.645921237036865E9, 0.0, 2022-02-27 11:20:37.036
70.0, -2605.1181680104933, -5858.280463013704, -2532.2514810861926, -11227.057722456184, -1505.6582099983943, -370.39075736889333, -6231.219319250503, -2270.6466639812784, -4857.950491660892, -7839.337925832025, -4672.632178381941, -3657.0583173106097, -4391.938971512195, -3292.5684204779177, -10526.039961104389, -15724.496927797429, 0.0145, -0.106875, 0.989625, 192.0, 0.0, 0.0, 0.0, 0.0, 0.0, 0.0, 0.0, 0.0, 0.0, 1.645921237050493E9, 0.0, 2022-02-27 11:20:37.050
72.0, -2234.9732798306086, -5581.945846312743, -2170.3320348658604, -10826.067426927975, -1084.1490130602137, -21.502378166005393, -5861.812038637643, -1810.4465973909614, -1878.775880190835, -6845.847588282537, -4695.185088537346, -3479.2725419130975, -4511.498452603633, -3228.709486569105, -10048.673754772397, -14358.358306689062, 0.0145, -0.106875, 0.989625, 192.0, 0.0, 0.0, 0.0, 0.0, 0.0, 0.0, 0.0, 0.0, 0.0, 1.645921237058502E9, 0.0, 2022-02-27 11:20:37.058
74.0, -2186.693511807145, -5562.566883869992, -2159.5361422939473, -10827.47558682866, -1010.3882563577005, -0.8717180337569754, -6006.740749685854, -2006.6949137085576, -4491.27012387158, -7396.706330383579, -4448.511236728577, -3553.055650360066, -4141.554730123846, -3039.6807837105735, -10348.075371751234, -15288.615559174486, 0.0145, -0.106875, 0.989625, 192.0, 0.0, 0.0, 0.0, 0.0, 0.0, 0.0, 0.0, 0.0, 0.0, 1.645921237066713E9, 0.0, 2022-02-27 11:20:37.066
76.0, -2782.188687585436, -6022.409322549024, -2499.819099881542, -11183.78474519071, -1484.4017010213972, -329.7105824602345, -6101.042759542795, -2082.735548345512, -3142.722325649539, -7531.621459915813, -4924.424579670976, -3689.2895328151626, -4664.920826544861, -3445.320242085486, -10331.37861864312, -15095.675301036275, 0.01225, -0.10743749999999999, 0.9918125, 192.0, 0.0, 40.0, 126.0, 80.0, 15.5, 8.0, 0.0, 0.0, 0.0, 1.645921237073043E9, 0.0, 2022-02-27 11:20:37.073
78.0, -2024.4645505505266, -5443.052106267465, -1961.522038164382, -10609.479023156051, -779.1371082230936, 201.47862452013786, -5785.436127833859, -1709.8413955976243, -2783.7533096973075, -6858.208102966321, -4514.873566016384, -3493.532954875583, -4260.309548414892, -3040.6195569776964, -10090.784441326196, -14510.30546549624, 0.01225, -0.10743749999999999, 0.9918125, 192.0, 0.0, 0.0, 0.0, 0.0, 0.0, 0.0, 0.0, 0.0, 0.0, 1.645921237080987E9, 0.0, 2022-02-27 11:20:37.080
80.0, -2778.8135741726846, -6024.130406872083, -2544.544940536611, -11232.958582992385, -1492.1801080918442, -359.14782990787387, -6243.289261256369, -2266.891570912787, -4971.7432226828605, -7884.46609788729, -4727.885690675461, -3718.6597250294362, -4384.786413286497, -3289.7521006765487, -10530.912641395646, -15733.750550001927, 0.01225, -0.10743749999999999, 0.9918125, 192.0, 0.0, 0.0, 0.0, 0.0, 0.0, 0.0, 0.0, 0.0, 0.0, 1.645921237089088E9, 0.0, 2022-02-27 11:20:37.089
82.0, -2372.0565285750067, -5692.3858156664155, -2197.7799770569777, -10846.206348682208, -1090.4745567410657, -29.191378258631023, -5844.221215751317, -1798.622524574104, -1957.0069857844098, -6895.043777828668, -4754.953653210838, -3531.0168303271334, -4535.168949981803, -3242.2769954534765, -10059.491999088765, -14375.122115030541, 0.01225, -0.10743749999999999, 0.9918125, 192.0, 0.0, 0.0, 0.0, 0.0, 0.0, 0.0, 0.0, 0.0, 0.0, 1.645921237096275E9, 0.0, 2022-02-27 11:20:37.096
84.0, -2201.4903666365585, -5586.483250437171, -2152.830618957355, -10811.538793032027, -990.919886937128, 11.80172107240213, -6001.443386249946, -1999.4082450161275, -4490.688978515742, -7397.7568623729785, -4474.998053908116, -3561.7057754642697, -4151.590663384279, -3054.6564524956293, -10337.99473500189, -15261.63700361693, 0.01225, -0.10743749999999999, 0.9918125, 192.0, 0.0, 0.0, 0.0, 0.0, 0.0, 0.0, 0.0, 0.0, 0.0, 1.645921237102764E9, 0.0, 2022-02-27 11:20:37.102
86.0, -2744.25777724478, -5991.474508222879, -2504.177690050327, -11181.817791678643, -1493.0741778700565, -338.76303896463384, -6111.548079436789, -2095.453690940582, -3192.656122762695, -7559.49408525158, -4914.120425477079, -3670.759936661713, -4656.561274118576, -3445.2084833632093, -10339.291136180298, -15124.37494091689, 0.012125, -0.10571875, 0.99390625, 192.0, 0.0, 48.0, 126.0, 96.0, 15.5, 16.0, 0.0, 0.0, 0.0, 1.645921237110825E9, 0.0, 2022-02-27 11:20:37.110
88.0, -1953.877741560667, -5372.331186810874, -1959.19745674103, -10606.707406843592, -785.06032050375, 191.71091219316867, -5768.649967747923, -1721.1290265475545, -2719.6261548550315, -6845.244091182243, -4498.243868141636, -3458.619530036394, -4270.770164819975, -3042.139475600657, -10087.208162213346, -14500.314235724716, 0.012125, -0.10571875, 0.99390625, 192.0, 0.0, 0.0, 0.0, 0.0, 0.0, 0.0, 0.0, 0.0, 0.0, 1.64592123711875E9, 0.0, 2022-02-27 11:20:37.118
90.0, -2675.906142700451, -5922.273507389249, -2525.970640894251, -11229.248193412805, -1489.8108231795816, -361.9865014536979, -6239.020078065405, -2274.669977983234, -4953.392440485053, -7863.835437755041, -4693.553411192109, -3698.051416641643, -4377.633855060799, -3285.7958419079596, -10529.437426261597, -15739.249079137931, 0.012125, -0.10571875, 0.99390625, 192.0, 0.0, 0.0, 0.0, 0.0, 0.0, 0.0, 0.0, 0.0, 0.0, 1.645921237125392E9, 0.0, 2022-02-27 11:20:37.125
92.0, -2272.054823881963, -5610.489023982171, -2185.1735931841845, -10850.475531873171, -1107.6183447382862, -47.83273313435711, -5869.031652096707, -1818.1355974835872, -1912.5717178072593, -6882.482097444785, -4731.685487232863, -3507.6369056268823, -4541.963880296216, -3260.5383706734624, -10064.14116193547, -14388.555513448182, 0.012125, -0.10571875, 0.99390625, 192.0, 0.0, 0.0, 0.0, 0.0, 0.0, 0.0, 0.0, 0.0, 0.0, 1.645921237133484E9, 0.0, 2022-02-27 11:20:37.133
94.0, -2074.577161619325, -5466.70025190118, -2124.287441287928, -10805.347359817906, -979.7887181983851, 8.180738470642385, -6001.532793227768, -2028.7784372304009, -4408.456910664668, -7358.9542339985655, -4438.4082482347785, -3542.2597577881525, -4150.450724417058, -3051.281339082878, -10338.62058384664, -15259.78180882714, 0.012125, -0.10571875, 0.99390625, 192.0, 0.0, 0.0, 0.0, 0.0, 0.0, 0.0, 0.0, 0.0, 0.0, 1.645921237141324E9, 0.0, 2022-02-27 11:20:37.141
96.0, -2651.4980377552556, -5891.361044807559, -2497.8744981139303, -11187.070451625641, -1502.573669263562, -353.5375420495918, -6129.205957556482, -2116.9784208510423, -3205.2178031465774, -7536.091808806874, -4883.654997784495, -3650.2410352517413, -4656.3601084184775, -3458.0830881694665, -10355.831427077226, -15159.400124478356, 0.0100625, -0.102859375, 0.993953125, 192.0, 0.0, 32.0, 126.0, 112.0, 15.5, 8.0, 0.0, 0.0, 0.0, 1.645921237148652E9, 0.0, 2022-02-27 11:20:37.148
98.0, -1853.4066502340615, -5267.590912293304, -1943.6853460890468, -10598.549020117405, -791.4305676735124, 187.732301680124, -5826.943317287364, -1738.496331989328, -2640.1209998275044, -6806.933201185847, -4469.410117794289, -3441.5651490169944, -4273.27356019897, -3046.431010536076, -10094.181906483402, -14491.641758876058, 0.0100625, -0.102859375, 0.993953125, 192.0, 0.0, 0.0, 0.0, 0.0, 0.0, 0.0, 0.0, 0.0, 0.0, 1.645921237156071E9, 0.0, 2022-02-27 11:20:37.156
100.0, -2586.7673858126864, -5837.1357127589845, -2515.040637855606, -11212.149108904494, -1494.1023581150007, -364.5793038105135, -6237.5225111868995, -2266.310425556949, -4942.082457790668, -7825.345733803003, -4657.343585174512, -3663.8085441361127, -4371.665939291232, -3283.9406471181687, -10543.89900492418, -15739.83022449377, 0.0100625, -0.102859375, 0.993953125, 192.0, 0.0, 0.0, 0.0, 0.0, 0.0, 0.0, 0.0, 0.0, 0.0, 1.645921237162996E9, 0.0, 2022-02-27 11:20:37.162
102.0, -2209.894622551754, -5548.060601718498, -2182.2231629160838, -10849.045020228032, -1131.4676560720989, -57.24281755004139, -5890.399919795981, -1836.6875453814919, -1900.099444401198, -6875.195428752355, -4711.50186198972, -3482.804117537036, -4559.644110160364, -3265.209885264622, -10080.23441794329, -14401.608932210082, 0.0100625, -0.102859375, 0.993953125, 192.0, 0.0, 0.0, 0.0, 0.0, 0.0, 0.0, 0.0, 0.0, 0.0, 1.645921237178195E9, 0.0, 2022-02-27 11:20:37.178
104.0, -1989.3723117556945, -5382.724747982592, -2096.057188040875, -10778.949949616188, -974.759575695941, 25.011602045488605, -6047.130351916594, -2020.262422592929, -4347.280186090492, -7325.627783015702, -4405.77470133003, -3510.766149850625, -4153.490561662979, -3039.7478389439393, -10343.739133326904, -15238.435892872321, 0.0100625, -0.102859375, 0.993953125, 192.0, 0.0, 0.0, 0.0, 0.0, 0.0, 0.0, 0.0, 0.0, 0.0, 1.645921237185713E9, 0.0, 2022-02-27 11:20:37.185
106.0, -2603.553545898622, -5843.461256439836, -2486.8103846085532, -11192.636035995012, -1513.414265324386, -352.35289959346056, -6111.033989314317, -2123.549833720903, -3243.2157687205995, -7541.836207131888, -4860.297424828699, -3639.2216252352746, -4655.913073529372, -3444.9179106852903, -10366.515560926862, -15182.265959056134, 0.008, -0.108, 0.994, 192.0, 0.0, 32.0, 126.0, 80.0, 15.5, 8.0, 0.0, 0.0, 0.0, 1.645921237195139E9, 0.0, 2022-02-27 11:20:37.195
108.0, -1811.9665160139223, -5227.313068784842, -1931.324831405262, -10600.158345718188, -799.2536782328699, 182.32317952193972, -5767.957063669809, -1749.6722042169815, -2594.5904963720436, -6770.142229812412, -4462.056393868494, -3434.2337768356538, -4287.3775109502685, -3054.231769350978, -10078.692147575874, -14478.409526158515, 0.008, -0.108, 0.994, 192.0, 0.0, 0.0, 0.0, 0.0, 0.0, 0.0, 0.0, 0.0, 0.0, 1.645921237201686E9, 0.0, 2022-02-27 11:20:37.201
110.0, -2522.081437359028, -5781.345758598538, -2484.2846374851033, -11199.408614564969, -1484.5581632325845, -342.4287250553042, -6223.642077880154, -2253.9499108731643, -4937.612108899607, -7810.459471995769, -4637.785808776118, -3647.3576602170065, -4362.948758953662, -3269.0543853109343, -10530.353847784263, -15734.532861057862, 0.008, -0.108, 0.994, 192.0, 0.0, 0.0, 0.0, 0.0, 0.0, 0.0, 0.0, 0.0, 0.0, 1.645921237208492E9, 0.0, 2022-02-27 11:20:37.208
112.0, -2173.081299433863, -5507.46983378766, -2175.607046557313, -10857.113999976398, -1138.2178828976016, -57.08635533885424, -5881.660387713956, -1823.1423882415759, -1870.7069004424693, -6873.809620596126, -4698.828422883561, -3473.8187162660024, -4555.062002547026, -3256.4703531825967, -10075.384089396488, -14400.156068820486, 0.008, -0.108, 0.994, 192.0, 0.0, 0.0, 0.0, 0.0, 0.0, 0.0, 0.0, 0.0, 0.0, 1.64592123721627E9, 0.0, 2022-02-27 11:20:37.216
114.0, -1925.9827644804436, -5316.138901250231, -2071.9396557735986, -10761.157961029765, -951.7819823958854, 47.00571858951075, -5989.440499477447, -2007.9242596535994, -4258.70022281411, -7272.944721334544, -4381.791279529486, -3494.40467290934, -4145.622747614711, -3008.4106932175987, -10329.791644786794, -15202.494287788188, 0.008, -0.108, 0.994, 192.0, 0.0, 0.0, 0.0, 0.0, 0.0, 0.0, 0.0, 0.0, 0.0, 1.645921237224337E9, 0.0, 2022-02-27 11:20:37.224
116.0, -2567.5001820922116, -5796.947276228342, -2487.68210264231, -11190.132640616017, -1530.6921637883383, -366.4792020892146, -6165.773411485364, -2144.8510461868104, -3298.156356591744, -7524.088922034374, -4843.086581598113, -3632.270232709674, -4643.194930934302, -3442.2357013506535, -10383.368776246165, -15220.174517652336, 0.01, -0.11, 0.994, 192.0, 0.0, 40.0, 126.0, 72.0, 15.5, 8.0, 0.0, 0.0, 0.0, 1.645921237230675E9, 0.0, 2022-02-27 11:20:37.230
118.0, -1776.203724885431, -5191.50557416744, -1926.5415580918263, -10592.424642136652, -817.9620883419619, 177.8975341197889, -5813.018180491707, -1753.6731664744816, -2515.0182861111507, -6746.2035115007775, -4456.043774610016, -3400.8179188749696, -4295.893525587741, -3058.5456560308526, -10089.823316314616, -14458.561177082203, 0.01, -0.11, 0.994, 192.0, 0.0, 0.0, 0.0, 0.0, 0.0, 0.0, 0.0, 0.0, 0.0, 1.645921237237986E9, 0.0, 2022-02-27 11:20:37.237
120.0, -2458.4460208947685, -5722.404208469893, -2456.4120121493356, -11178.6885474549, -1465.2015525342886, -338.7183354757232, -6239.042429809861, -2296.8876119718093, -4939.35554496712, -7794.410919476858, -4601.330113569512, -3612.600697589004, -4337.356011552335, -3259.934873573169, -10544.033115390912, -15745.172291418588, 0.01, -0.11, 0.994, 192.0, 0.0, 0.0, 0.0, 0.0, 0.0, 0.0, 0.0, 0.0, 0.0, 1.64592123724589E9, 0.0, 2022-02-27 11:20:37.245
122.0, -2169.639130787746, -5495.131670848331, -2189.6215903307907, -10868.491037904148, -1172.4384036586766, -90.68102725518075, -5930.387190626525, -1856.3570805021623, -1887.716577972958, -6887.377129480497, -4698.582553694553, -3460.4970765706394, -4564.09210730697, -3276.3857574922754, -10098.562848396641, -14444.792502497734, 0.01, -0.11, 0.994, 192.0, 0.0, 0.0, 0.0, 0.0, 0.0, 0.0, 0.0, 0.0, 0.0, 1.645921237254013E9, 0.0, 2022-02-27 11:20:37.254
124.0, -1887.068377383754, -5273.737642018515, -2057.6345393222023, -10740.50494915306, -954.7994678973517, 62.09314609684302, -6002.583325217167, -1994.7814339138788, -4185.319445767337, -7226.81072077879, -4371.3753666133125, -3464.6992045282373, -4146.002727270452, -3015.4514927210207, -10329.344609897687, -15175.247511297168, 0.01, -0.11, 0.994, 192.0, 0.0, 0.0, 0.0, 0.0, 0.0, 0.0, 0.0, 0.0, 0.0, 1.645921237260567E9, 0.0, 2022-02-27 11:20:37.260
126.0, -2549.976414439251, -5774.573180028579, -2484.530506674112, -11198.268675597748, -1535.698954546327, -366.7921265115889, -6158.754963726397, -2171.2931598774385, -3358.2378456876095, -7530.280355248494, -4833.229462293322, -3610.924316754856, -4640.132741943925, -3428.444675021729, -10396.802174663804, -15252.91982327936, 0.012, -0.11, 0.992, 192.0, 0.0, 48.0, 126.0, 72.0, 15.5, 0.0, 0.0, 0.0, 0.0, 1.645921237268608E9, 0.0, 2022-02-27 11:20:37.268
128.0, -1759.6634339885038, -5167.320986666798, -1925.5580813357928, -10591.262351424975, -818.5655854422553, 174.90240036277777, -5810.090101968062, -1741.1114860905989, -2450.2876341685815, -6719.001438498669, -4452.243978052614, -3389.843212347414, -4304.364836736302, -3063.1948188775564, -10082.268426688723, -14451.341563623138, 0.012, -0.11, 0.992, 192.0, 0.0, 0.0, 0.0, 0.0, 0.0, 0.0, 0.0, 0.0, 0.0, 1.645921237276641E9, 0.0, 2022-02-27 11:20:37.276
130.0, -2430.975726959196, -5691.201173210285, -2457.596654605467, -11170.574864217624, -1468.5766659470398, -328.3024225595501, -6271.631273225698, -2296.2617631270605, -4933.141760008545, -7762.470276650224, -4586.667369206831, -3597.6473805484034, -4333.71267720612, -3250.5694926463957, -10542.51319676795, -15743.942945473545, 0.012, -0.11, 0.992, 192.0, 0.0, 0.0, 0.0, 0.0, 0.0, 0.0, 0.0, 0.0, 0.0, 1.645921237283756E9, 0.0, 2022-02-27 11:20:37.283
132.0, -2145.119267120274, -5471.260007770063, -2185.419462373193, -10859.10330523292, -1173.108955992336, -83.59552426284841, -5923.949888223397, -1868.5611329747599, -1871.3774527761286, -6861.046774512145, -4690.804146624106, -3430.031648878056, -4569.769450398619, -3271.714242901116, -10097.266447218233, -14441.28327861825, 0.012, -0.11, 0.992, 192.0, 0.0, 0.0, 0.0, 0.0, 0.0, 0.0, 0.0, 0.0, 0.0, 1.645921237298225E9, 0.0, 2022-02-27 11:20:37.298
134.0, -1860.3356910152067, -5254.626900509227, -2051.2419404079847, -10730.469015892628, -941.2319590129804, 57.6004454613263, -5991.720377411888, -1993.8873641356665, -4169.986149070996, -7211.767996760368, -4365.765078755031, -3442.3027565840193, -4150.361317439237, -3024.2580800364117, -10319.822766759726, -15171.33595601749, 0.012, -0.11, 0.992, 192.0, 0.0, 0.0, 0.0, 0.0, 0.0, 0.0, 0.0, 0.0, 0.0, 1.645921237306201E9, 0.0, 2022-02-27 11:20:37.306
136.0, -2537.302975333092, -5770.594569515535, -2495.728730646221, -11201.375568077037, -1538.8729022589807, -374.3470161374827, -6173.864742978185, -2167.828639486866, -3405.3329712549416, -7552.497989237069, -4827.797988390683, -3605.492842852216, -4635.684744797319, -3427.1929773322317, -10397.942113631025, -15277.350279969012, 0.006, -0.108, 0.99, 192.0, 0.0, 24.0, 126.0, 80.0, 15.0, 120.0, 0.0, 0.0, 0.0, 1.645921237313305E9, 0.0, 2022-02-27 11:20:37.313
138.0, -1750.8568466731128, -5158.78262028487, -1931.7495145499129, -10588.468383368061, -813.0894080507051, 181.89849637728886, -5813.219346191806, -1738.138704078043, -2402.4549010342243, -6710.775996539116, -4448.868864639862, -3386.937485568224, -4310.086883316861, -3052.6447954946516, -10078.446278386866, -14429.481557545849, 0.006, -0.108, 0.99, 192.0, 0.0, 0.0, 0.0, 0.0, 0.0, 0.0, 0.0, 0.0, 0.0, 1.645921237320891E9, 0.0, 2022-02-27 11:20:37.320
140.0, -2408.2663545926043, -5675.353786391472, -2446.8007620335534, -11148.938375584887, -1438.3571074434649, -307.7388176606676, -6249.056011325838, -2285.979960677619, -4947.424524715487, -7741.169064184316, -4570.23883703218, -3591.3218368675516, -4318.088807831861, -3222.361591143798, -10533.214871074542, -15728.766110988392, 0.006, -0.108, 0.99, 192.0, 0.0, 0.0, 0.0, 0.0, 0.0, 0.0, 0.0, 0.0, 0.0, 1.645921237328763E9, 0.0, 2022-02-27 11:20:37.328
142.0, -2163.4253458291705, -5474.679824671724, -2201.5350701254692, -10872.670814117291, -1172.2819414474895, -86.23303010857465, -5926.74385628031, -1871.4445080094945, -1894.8691361986562, -6876.089498530567, -4699.45427172831, -3442.8391984509467, -4573.278674278102, -3263.913484086214, -10096.081804762103, -14449.776941511267, 0.006, -0.108, 0.99, 192.0, 0.0, 0.0, 0.0, 0.0, 0.0, 0.0, 0.0, 0.0, 0.0, 1.645921237336792E9, 0.0, 2022-02-27 11:20:37.336
144.0, -1839.6379756495926, -5226.307240284353, -2031.4382948205823, -10710.732425538592, -906.4749963849779, 86.25538185302996, -5965.054746276706, -1977.8611633612113, -4102.90856396062, -7169.813772417757, -4359.059555418438, -3441.8780734393686, -4143.588738869278, -3003.2474402484227, -10298.119222893623, -15129.113510741416, 0.006, -0.108, 0.99, 192.0, 0.0, 0.0, 0.0, 0.0, 0.0, 0.0, 0.0, 0.0, 0.0, 1.645921237343247E9, 0.0, 2022-02-27 11:20:37.343
146.0, -2537.4370857998238, -5773.030909661164, -2488.754986376165, -11196.301722085682, -1534.1566841789108, -360.06425143054145, -6169.5508562983105, -2155.356366080805, -3455.5349893015614, -7542.998497843564, -4817.650296407974, -3604.956400985289, -4623.838320236006, -3406.3835032443412, -10394.410538007085, -15288.101469052013, 0.008, -0.108, 0.99, 192.0, 0.0, 32.0, 126.0, 80.0, 15.0, 120.0, 0.0, 0.0, 0.0, 1.645921237350446E9, 0.0, 2022-02-27 11:20:37.350
148.0, -1751.6615094735039, -5155.340451638753, -1924.708715046491, -10583.014557720966, -813.3352772397134, 195.08602560592004, -5813.465215380814, -1734.0036313538112, -2371.721252408177, -6718.75556930966, -4443.012707592572, -3374.196991228699, -4307.561136193412, -3047.3250803142882, -10063.738830535272, -14413.745929449313, 0.008, -0.108, 0.99, 192.0, 0.0, 0.0, 0.0, 0.0, 0.0, 0.0, 0.0, 0.0, 0.0, 1.645921237358543E9, 0.0, 2022-02-27 11:20:37.358
150.0, -2381.8018891575207, -5652.331489602505, -2419.464578564713, -11125.670209606911, -1411.4679588637305, -284.0236167935868, -6238.550691431844, -2277.3521873178706, -4958.734507409872, -7738.397447871858, -4555.643147902864, -3575.6532640043815, -4300.006246567517, -3197.8640792207816, -10524.698856437071, -15723.580506274762, 0.008, -0.108, 0.99, 192.0, 0.0, 0.0, 0.0, 0.0, 0.0, 0.0, 0.0, 0.0, 0.0, 1.645921237365551E9, 0.0, 2022-02-27 11:20:37.365
152.0, -2178.66923554769, -5495.064615614965, -2203.9714102710977, -10885.858343345923, -1193.136119024291, -91.88802145576733, -5933.158806938984, -1866.7953451627905, -1927.9050145036001, -6895.490812717773, -4706.271553787178, -3437.7877042040473, -4576.743194668674, -3266.3498242318424, -10100.976836797814, -14473.469790633893, 0.008, -0.108, 0.99, 192.0, 0.0, 0.0, 0.0, 0.0, 0.0, 0.0, 0.0, 0.0, 0.0, 1.645921237373092E9, 0.0, 2022-02-27 11:20:37.373
154.0, -1821.041324262777, -5217.6347634356935, -2017.1555301136411, -10700.8753062338, -902.6081445942098, 111.42344610970571, -5963.110144509094, -1963.0419567873428, -4035.071019538763, -7140.130655781109, -4349.940043680674, -3432.311526812497, -4139.185445211583, -2985.701320851007, -10286.161039610033, -15092.411946345801, 0.008, -0.108, 0.99, 192.0, 0.0, 0.0, 0.0, 0.0, 0.0, 0.0, 0.0, 0.0, 0.0, 1.645921237381107E9, 0.0, 2022-02-27 11:20:37.381
156.0, -2539.4487428008015, -5770.974549171276, -2493.2700387561367, -11195.78763196321, -1545.801943040126, -362.0982601759744, -6174.043556933828, -2163.313587106894, -3502.630114868893, -7570.044108634485, -4813.403464961465, -3596.4850898367276, -4617.780997488618, -3409.468043979173, -10404.222953822966, -15302.853620392516, 0.004, -0.10200000000000001, 0.988, 192.0, 0.0, 16.0, 126.0, 104.0, 15.0, 112.0, 0.0, 0.0, 0.0, 1.645921237389053E9, 0.0, 2022-02-27 11:20:37.389
158.0, -1754.5448845082385, -5167.320986666798, -1932.2636046723849, -10591.687034569626, -822.9465273554954, 185.74299642360168, -5791.4710988367915, -1728.0580673286997, -2348.9671765526746, -6702.32703713501, -4449.829989651441, -3375.292226707009, -4315.3171915194025, -3041.6700889670956, -10059.246129899757, -14400.491344987315, 0.004, -0.10200000000000001, 0.988, 192.0, 0.0, 0.0, 0.0, 0.0, 0.0, 0.0, 0.0, 0.0, 0.0, 1.64592123739608E9, 0.0, 2022-02-27 11:20:37.396
160.0, -2362.4452784592245, -5630.002096891653, -2419.0845989089726, -11124.999657273253, -1411.3114966525432, -283.017788293098, -6230.571118661299, -2272.948893660175, -4966.289397035765, -7708.826089957487, -4543.796723341551, -3579.6542262618814, -4294.306551731414, -3197.685265265139, -10517.523946466918, -15719.691302739539, 0.004, -0.10200000000000001, 0.988, 192.0, 0.0, 0.0, 0.0, 0.0, 0.0, 0.0, 0.0, 0.0, 0.0, 1.645921237404213E9, 0.0, 2022-02-27 11:20:37.404
162.0, -2175.674101790679, -5482.279417786529, -2212.353314441838, -10889.166401525308, -1205.7425028970843, -94.9502104461444, -5946.03341174524, -1869.1869818195084, -1925.133398191142, -6897.994208096768, -4701.756501407207, -3448.673003753782, -4579.090127836482, -3269.434364966675, -10099.456918174854, -14479.840037803655, 0.004, -0.10200000000000001, 0.988, 192.0, 0.0, 0.0, 0.0, 0.0, 0.0, 0.0, 0.0, 0.0, 0.0, 1.645921237410862E9, 0.0, 2022-02-27 11:20:37.410
164.0, -1804.657495577037, -5203.307295239842, -2009.2877160653732, -10687.240742116064, -891.0075892219054, 112.45162635464983, -5934.477559861846, -1943.7076978335022, -3997.7212545539446, -7132.955745810956, -4348.867159946819, -3437.25126233712, -4143.700497591555, -2985.410748173088, -10272.168847581012, -15078.553864783511, 0.004, -0.10200000000000001, 0.988, 192.0, 0.0, 0.0, 0.0, 0.0, 0.0, 0.0, 0.0, 0.0, 0.0, 1.64592123742534E9, 0.0, 2022-02-27 11:20:37.425
166.0, -2538.353507322491, -5769.09700263703, -2500.8696318709412, -11203.275466355737, -1551.3898791539525, -371.79891726957766, -6166.26514986338, -2185.8217937733884, -3597.8038427595907, -7603.683484039722, -4809.849537593072, -3605.850470763501, -4613.601221275476, -3398.9180205962684, -10404.401767778609, -15345.254879624234, 0.006, -0.10400000000000001, 0.996, 192.0, 0.0, 24.0, 126.0, 96.0, 15.5, 16.0, 0.0, 0.0, 0.0, 1.645921237433352E9, 0.0, 2022-02-27 11:20:37.433
168.0, -1756.7130037204033, -5154.692251049549, -1933.068267472776, -10596.157383460688, -837.9445478850065, 174.76828989604593, -5802.579915831079, -1752.5779309961715, -2282.02370190903, -6687.932513705792, -4455.820257165463, -3373.392328428308, -4323.542633478955, -3049.2249785929894, -10043.711667503318, -14397.94324611941, 0.006, -0.10400000000000001, 0.996, 192.0, 0.0, 0.0, 0.0, 0.0, 0.0, 0.0, 0.0, 0.0, 0.0, 1.64592123744128E9, 0.0, 2022-02-27 11:20:37.441
170.0, -2335.3102606904818, -5613.573564717003, -2401.292610322548, -11109.95693325483, -1396.671104034317, -272.13248874336347, -6230.392304705657, -2265.058727867452, -4958.041603331757, -7696.510278762613, -4530.89976679084, -3587.6561507768815, -4283.957694048607, -3189.2139541165775, -10502.83885035978, -15718.238439349943, 0.006, -0.10400000000000001, 0.996, 192.0, 0.0, 0.0, 0.0, 0.0, 0.0, 0.0, 0.0, 0.0, 0.0, 1.645921237448498E9, 0.0, 2022-02-27 11:20:37.448
172.0, -2193.823718288388, -5506.0169703980655, -2231.8216838624103, -10905.237305788673, -1231.5364159985086, -118.84422526886765, -5967.222865488871, -1899.8312234677344, -1959.420974185583, -6930.9853829128015, -4716.7545219367175, -3459.1783236477763, -4588.522563996621, -3285.035882596479, -10104.776633355217, -14518.128576055597, 0.006, -0.10400000000000001, 0.996, 192.0, 0.0, 0.0, 0.0, 0.0, 0.0, 0.0, 0.0, 0.0, 0.0, 1.64592123745602E9, 0.0, 2022-02-27 11:20:37.456
174.0, -1787.3572453686293, -5192.936085812579, -2001.576364228292, -10676.981291411077, -890.8734787551736, 114.46328335562747, -5936.310402907182, -1933.805875039801, -3925.256899029839, -7111.475719389406, -4348.218959357615, -3429.8304831779583, -4143.611090613734, -2988.025902274359, -10259.003670096836, -15055.620974972366, 0.009000000000000001, -0.10200000000000001, 0.994, 192.0, 0.0, 48.0, 126.0, 112.0, 15.5, 0.0, 0.0, 0.0, 0.0, 1.645921237464014E9, 0.0, 2022-02-27 11:20:37.464
176.0, -2536.811236955075, -5766.325386324571, -2501.942515604796, -11205.93532394592, -1561.4481641588409, -375.3975481268821, -6173.954149956006, -2198.5622881129134, -3613.7853400451354, -7601.604771805379, -4806.720293369329, -3610.052598721099, -4611.76837823014, -3416.5088434825952, -10407.083977113245, -15360.744638531762, 0.009000000000000001, -0.10200000000000001, 0.994, 192.0, 0.0, 0.0, 0.0, 0.0, 0.0, 0.0, 0.0, 0.0, 0.0, 1.645921237471207E9, 0.0, 2022-02-27 11:20:37.471
178.0, -1765.6760532469814, -5174.741765825959, -1939.7737908093682, -10596.71617707207, -848.1816468455371, 178.38927249780568, -5817.756750316233, -1758.1882188544535, -2269.5961319918792, -6691.2629236296325, -4458.4801147556445, -3379.6508168757937, -4327.387133525269, -3056.466943796509, -10037.497882544743, -14392.89175187251, 0.009000000000000001, -0.10200000000000001, 0.994, 192.0, 0.0, 0.0, 0.0, 0.0, 0.0, 0.0, 0.0, 0.0, 0.0, 1.645921237477801E9, 0.0, 2022-02-27 11:20:37.477
180.0, -2340.406458426292, -5621.217861320718, -2406.9699534141964, -11113.823785045599, -1411.1326826969007, -279.93324755826563, -6244.809179879329, -2296.440577082703, -4967.429336002986, -7691.436432771258, -4524.685981832264, -3571.2276186022305, -4276.671025356177, -3187.5375732824295, -10502.727091637504, -15719.154860872612, 0.009000000000000001, -0.10200000000000001, 0.994, 192.0, 0.0, 0.0, 0.0, 0.0, 0.0, 0.0, 0.0, 0.0, 0.0, 1.645921237485693E9, 0.0, 2022-02-27 11:20:37.485
182.0, -2205.24545970505, -5509.1909181107185, -2237.3649164873264, -10913.64156170387, -1247.6296720063297, -125.84032128337876, -5953.096562993117, -1904.9050694590892, -1959.9574160525103, -6939.188473127899, -4725.114074363002, -3468.0072627076224, -4593.283485565601, -3296.904658902247, -10103.48023217681, -14523.515346469325, 0.009000000000000001, -0.10200000000000001, 0.994, 192.0, 0.0, 0.0, 0.0, 0.0, 0.0, 0.0, 0.0, 0.0, 0.0, 1.645921237495026E9, 0.0, 2022-02-27 11:20:37.495
184.0, -1800.589478086171, -5210.258687765442, -2000.0564456053312, -10675.01433789901, -894.4497578680227, 107.82481525240127, -5923.50285333429, -1939.5055698759045, -3919.9371838494762, -7122.986867783889, -4361.71941300862, -3454.35034684543, -4160.888989077686, -3000.140547769135, -10255.717963661906, -15050.658887703286, 0.009500000000000001, -0.10200000000000001, 0.991, 192.0, 0.0, 40.0, 126.0, 104.0, 15.0, 112.0, 0.0, 0.0, 0.0, 1.645921237501467E9, 0.0, 2022-02-27 11:20:37.501
186.0, -2552.7927342406197, -5778.663549263901, -2508.8715563859414, -11215.41246359497, -1576.6249986439943, -381.11959470744074, -6201.759720058409, -2224.445608192159, -3712.5800505375923, -7645.727115360155, -4813.6046306615635, -3622.2566511936966, -4609.354389828967, -3415.6594771932937, -10415.309419072797, -15402.587104152097, 0.009500000000000001, -0.10200000000000001, 0.991, 192.0, 0.0, 0.0, 0.0, 0.0, 0.0, 0.0, 0.0, 0.0, 0.0, 1.645921237508292E9, 0.0, 2022-02-27 11:20:37.508
188.0, -1783.0880621776655, -5186.319969453808, -1944.713526333991, -10605.790985320924, -864.0066819198945, 155.3669757088394, -5809.777177545689, -1743.2572535583083, -2225.9655268151196, -6684.1774206373, -4469.655986983298, -3390.9160960812687, -4338.361840052824, -3071.241446881467, -10037.60964126702, -14385.560379691171, 0.009500000000000001, -0.10200000000000001, 0.991, 192.0, 0.0, 0.0, 0.0, 0.0, 0.0, 0.0, 0.0, 0.0, 0.0, 1.645921237516188E9, 0.0, 2022-02-27 11:20:37.516
190.0, -2335.9361095352306, -5616.009904862632, -2393.8941829078417, -11101.038587217163, -1394.6594470333396, -277.7874800905562, -6201.849127036229, -2272.054823881963, -4979.856905920137, -7698.253714830126, -4522.651973086831, -3576.770851227147, -4266.053946739906, -3174.4394510316197, -10487.706719363538, -15702.994549631423, 0.009500000000000001, -0.10200000000000001, 0.991, 192.0, 0.0, 0.0, 0.0, 0.0, 0.0, 0.0, 0.0, 0.0, 0.0, 1.645921237524274E9, 0.0, 2022-02-27 11:20:37.524
192.0, -2207.190061472662, -5501.345455806906, -2236.7837711314883, -10909.551192468547, -1250.6248057633409, -129.39424865177259, -5978.286978994248, -1940.3772879096614, -1982.8232506302895, -6952.130133167521, -4726.633992985963, -3467.8731522408907, -4597.95500015676, -3316.305973089454, -10097.557019896152, -14533.998314618864, 0.009500000000000001, -0.10200000000000001, 0.991, 192.0, 0.0, 0.0, 0.0, 0.0, 0.0, 0.0, 0.0, 0.0, 0.0, 1.645921237530863E9, 0.0, 2022-02-27 11:20:37.530
194.0, -1778.4388993309617, -5180.620274617705, -1988.1206140661973, -10654.115456833299, -883.1397751736373, 125.16976894971955, -5922.228803900338, -1927.457979614494, -3856.6593952965018, -7098.444652371962, -4346.922558179207, -3424.711933697693, -4149.623709872211, -2996.2960477228225, -10239.423541953987, -15017.220677998148, 0.01175, -0.10300000000000001, 0.9904999999999999, 192.0, 0.0, 56.0, 126.0, 96.0, 15.0, 120.0, 0.0, 0.0, 0.0, 1.645921237545913E9, 0.0, 2022-02-27 11:20:37.545
196.0, -2559.565312810578, -5767.241807847239, -2513.207794810271, -11217.02178919575, -1583.6434464029608, -392.04959774608585, -6193.400167632123, -2213.5379568979693, -3740.8103037846454, -7631.533757631035, -4803.166366000934, -3618.926241269856, -4603.1182531259365, -3427.7517709436147, -10417.745759218426, -15408.733833877306, 0.01175, -0.10300000000000001, 0.9904999999999999, 192.0, 0.0, 0.0, 0.0, 0.0, 0.0, 0.0, 0.0, 0.0, 0.0, 1.645921237553997E9, 0.0, 2022-02-27 11:20:37.553
198.0, -1797.4155303735174, -5178.630969361183, -1956.6046543842144, -10608.026159766456, -875.7860512478413, 146.00159478206572, -5785.279665622672, -1742.0726111021772, -2210.475767907592, -6700.293028389577, -4474.282798085546, -3382.064805276967, -4346.0731918899055, -3081.232676652989, -10026.143196361447, -14377.491399942804, 0.01175, -0.10300000000000001, 0.9904999999999999, 192.0, 0.0, 0.0, 0.0, 0.0, 0.0, 0.0, 0.0, 0.0, 0.0, 1.645921237560515E9, 0.0, 2022-02-27 11:20:37.560
200.0, -2319.217004682661, -5596.765052886612, -2390.51906949509, -11088.298092877638, -1381.516621293619, -259.4590496372044, -6207.437063150056, -2268.5456000024797, -4975.006577373335, -7701.718235220699, -4522.1155312199035, -3586.2256391317414, -4268.602045607811, -3182.039044146424, -10485.717414107015, -15699.462974007485, 0.01175, -0.10300000000000001, 0.9904999999999999, 192.0, 0.0, 0.0, 0.0, 0.0, 0.0, 0.0, 0.0, 0.0, 0.0, 1.645921237568532E9, 0.0, 2022-02-27 11:20:37.568
202.0, -2223.2609657360276, -5522.244336872618, -2246.0820968248963, -10921.44232051877, -1257.620901777852, -138.64787085626972, -5974.330720225659, -1906.6708572710584, -1992.6356664461694, -6961.897845494491, -4735.798208212639, -3473.282274399075, -4601.0618926360485, -3308.6840282301937, -10102.228534487313, -14544.414227535037, 0.01175, -0.10300000000000001, 0.9904999999999999, 192.0, 0.0, 0.0, 0.0, 0.0, 0.0, 0.0, 0.0, 0.0, 0.0, 1.645921237576515E9, 0.0, 2022-02-27 11:20:37.576
204.0, -1765.4078323135177, -5171.746632068948, -1972.9661313254992, -10647.946375363634, -865.6607110095872, 127.00261199505474, -5901.26286760126, -1919.0984271882091, -3801.0259033472425, -7068.247445612842, -4346.564930267922, -3420.8227301624693, -4146.114485992728, -2999.849975091216, -10227.286544714754, -14993.773698064531, 0.011875, -0.10350000000000001, 0.99025, 192.0, 0.0, 48.0, 126.0, 96.0, 15.0, 120.0, 0.0, 0.0, 0.0, 1.645921237583147E9, 0.0, 2022-02-27 11:20:37.583
206.0, -2556.883103475941, -5771.913322438398, -2512.649001198888, -11219.614591552567, -1577.4743649332959, -398.01751351565287, -6171.65192027711, -2212.15214874174, -3790.207659030874, -7646.397667693815, -4794.404482174455, -3622.770741316169, -4586.734424440197, -3418.9451836282237, -10418.505718529907, -15434.72891267883, 0.011875, -0.10350000000000001, 0.99025, 192.0, 0.0, 0.0, 0.0, 0.0, 0.0, 0.0, 0.0, 0.0, 0.0, 1.645921237591233E9, 0.0, 2022-02-27 11:20:37.591
208.0, -1795.5826873281824, -5173.512419880917, -1953.810686327301, -10606.103909743299, -874.7578710028972, 145.64396687078082, -5784.407947588915, -1750.3427565506408, -2164.9452644521316, -6691.151164907356, -4480.049548155016, -3392.234849004132, -4343.86036918883, -3086.172412177612, -10022.388103292955, -14363.633318380515, 0.011875, -0.10350000000000001, 0.99025, 192.0, 0.0, 0.0, 0.0, 0.0, 0.0, 0.0, 0.0, 0.0, 0.0, 1.645921237598278E9, 0.0, 2022-02-27 11:20:37.598
210.0, -2298.988675950608, -5576.380261943372, -2376.1021943214173, -11072.383650825459, -1366.3621385529207, -255.1228112128748, -6203.033769492361, -2274.267646583038, -4956.879312620082, -7676.70663317521, -4500.2778768870685, -3563.2927493205966, -4246.138542430227, -3170.684357963128, -10480.464754160019, -15685.314319767276, 0.011875, -0.10350000000000001, 0.99025, 192.0, 0.0, 0.0, 0.0, 0.0, 0.0, 0.0, 0.0, 0.0, 0.0, 1.645921237606197E9, 0.0, 2022-02-27 11:20:37.606
212.0, -2238.2366345210835, -5535.387162612339, -2260.633082465301, -10934.316925325027, -1276.77634677605, -157.6245018988254, -5976.856467349108, -1934.3423169067285, -2020.5753470153031, -6979.734537569826, -4739.039211158659, -3467.8731522408907, -4609.846128206984, -3316.8200632119256, -10117.606534672563, -14571.21396913695, 0.011875, -0.10350000000000001, 0.99025, 192.0, 0.0, 0.0, 0.0, 0.0, 0.0, 0.0, 0.0, 0.0, 0.0, 1.645921237612871E9, 0.0, 2022-02-27 11:20:37.612
214.0, -1762.7032712344255, -5151.473599847985, -1975.000140070932, -10643.699543917126, -864.5207720423666, 130.6906498301804, -5900.614667012056, -1891.784595463824, -3752.0308795012093, -7054.948157661934, -4351.012927414528, -3444.4932275406395, -4156.44099193108, -2990.1716697420684, -10219.239916710845, -14972.226616409615, 0.0119375, -0.10475000000000001, 0.9901249999999999, 192.0, 0.0, 48.0, 126.0, 88.0, 15.0, 120.0, 0.0, 0.0, 0.0, 1.645921237620859E9, 0.0, 2022-02-27 11:20:37.620
216.0, -2561.9569494672955, -5780.630502775968, -2523.9366321488183, -11223.928478232441, -1583.1964115138546, -395.49176639220315, -6205.358350915712, -2237.208454276139, -3848.52336031477, -7653.594929408423, -4790.582333872597, -3636.137084500442, -4587.293218051579, -3405.7129509106817, -10428.58635527925, -15453.571433254652, 0.0119375, -0.10475000000000001, 0.9901249999999999, 192.0, 0.0, 0.0, 0.0, 0.0, 0.0, 0.0, 0.0, 0.0, 0.0, 1.645921237628825E9, 0.0, 2022-02-27 11:20:37.628
218.0, -1808.2561264343415, -5189.605675888739, -1973.0108348144097, -10620.453729683606, -886.7160542864865, 140.07838250140935, -5823.523500385702, -1760.8257247001798, -2141.833560685344, -6682.076356658502, -4483.447013312222, -3391.7207588816595, -4353.806895471442, -3072.068461426313, -10029.78653070766, -14362.962766046854, 0.0119375, -0.10475000000000001, 0.9901249999999999, 192.0, 0.0, 0.0, 0.0, 0.0, 0.0, 0.0, 0.0, 0.0, 0.0, 1.645921237636039E9, 0.0, 2022-02-27 11:20:37.636
220.0, -2277.3521873178706, -5558.275348934573, -2358.5784266684564, -11056.826836684566, -1344.546835964541, -239.2977761385174, -6185.13002218366, -2257.5932452193792, -4957.907492865025, -7671.766897650587, -4496.925115218773, -3566.0420138885993, -4248.530179086945, -3158.43560200162, -10482.722280350004, -15682.743869154916, 0.0119375, -0.10475000000000001, 0.9901249999999999, 192.0, 0.0, 0.0, 0.0, 0.0, 0.0, 0.0, 0.0, 0.0, 0.0, 1.64592123764344E9, 0.0, 2022-02-27 11:20:37.643
222.0, -2264.499934256069, -5541.66800280428, -2277.508649529058, -10959.8873209819, -1302.2126319661895, -174.27655151802918, -5972.117897524584, -1950.0332415143541, -2072.2302284515176, -7010.199965262409, -4745.163589139413, -3497.5562688775385, -4619.278564367123, -3328.688839517694, -10122.635677175007, -14606.417966654059, 0.0119375, -0.10475000000000001, 0.9901249999999999, 192.0, 0.0, 0.0, 0.0, 0.0, 0.0, 0.0, 0.0, 0.0, 0.0, 1.645921237651528E9, 0.0, 2022-02-27 11:20:37.651
224.0, -1764.3573003241183, -5128.473654803473, -1969.5463144238372, -10650.069791086888, -853.0766788812493, 142.64883311376968, -5886.376605794026, -1883.8273744377345, -3686.987303136266, -7017.084302554644, -4351.996404170562, -3471.2706173980973, -4165.605207157756, -2992.8091755877945, -10208.444024138931, -14941.180043361193, 0.01196875, -0.106375, 0.9910625, 192.0, 0.0, 48.0, 126.0, 80.0, 15.5, 0.0, 0.0, 0.0, 0.0, 1.645921237658678E9, 0.0, 2022-02-27 11:20:37.658
226.0, -2593.808185316108, -5794.130956426973, -2529.9268996628407, -11240.826397040653, -1587.4879464492735, -407.82992933153264, -6213.762606830908, -2248.272567781516, -3963.657196004057, -7692.755185694121, -4790.783499572694, -3699.727797475791, -4581.52646798211, -3408.126939311855, -10444.724314775982, -15494.855105263605, 0.01196875, -0.106375, 0.9910625, 192.0, 0.0, 0.0, 0.0, 0.0, 0.0, 0.0, 0.0, 0.0, 0.0, 1.645921237673153E9, 0.0, 2022-02-27 11:20:37.673
228.0, -1875.1772493335307, -5225.971964117523, -1981.549201196337, -10642.470197972083, -893.376874134168, 126.30970791694021, -5776.584837029557, -1744.2183785698867, -2108.3282957468386, -6694.034539942091, -4516.840519528451, -3434.569053002483, -4384.317026652936, -3114.715589847039, -10023.885670171461, -14351.518672885737, 0.01196875, -0.106375, 0.9910625, 192.0, 0.0, 0.0, 0.0, 0.0, 0.0, 0.0, 0.0, 0.0, 0.0, 1.645921237681174E9, 0.0, 2022-02-27 11:20:37.681
230.0, -2367.474420961669, -5691.64820809939, -2370.8495343744203, -11067.19804611183, -1329.7052776462172, -229.88769172283315, -6180.145583170126, -2243.981032846097, -4976.548847740752, -7674.627920940867, -4516.5946503394425, -3582.671711763348, -4248.060792453384, -3164.29175904891, -10470.182951710576, -15658.134598509623, 0.01196875, -0.106375, 0.9910625, 192.0, 0.0, 0.0, 0.0, 0.0, 0.0, 0.0, 0.0, 0.0, 0.0, 1.645921237689198E9, 0.0, 2022-02-27 11:20:37.689
232.0, -2386.6745694487777, -5675.1302689469185, -2291.4114345802586, -10966.79401001859, -1285.2029544357008, -164.97822582462143, -5977.392909216036, -1941.00313675441, -2124.42155175466, -7047.147398847032, -4787.9001245379595, -3504.9993997811557, -4633.158997673869, -3330.4322755852077, -10126.949563854881, -14602.931094519032, 0.01196875, -0.106375, 0.9910625, 192.0, 0.0, 0.0, 0.0, 0.0, 0.0, 0.0, 0.0, 0.0, 0.0, 1.645921237695725E9, 0.0, 2022-02-27 11:20:37.695
234.0, -1899.071264156254, -5268.149705904688, -1974.0166633148986, -10639.899747359723, -836.4916844954115, 156.0375280424986, -5873.993739365786, -1893.1480518755975, -3706.6344865124806, -7037.826721409169, -4391.1566604562595, -3507.5922021379715, -4168.667396148133, -3001.0346175473474, -10205.091262470634, -14927.657237965732, 0.011984375, -0.10718749999999999, 0.98853125, 192.0, 0.0, 48.0, 126.0, 80.0, 15.0, 104.0, 0.0, 0.0, 0.0, 1.645921237703825E9, 0.0, 2022-02-27 11:20:37.703
236.0, -2767.481239733844, -5983.293769752237, -2546.198969626304, -11241.943984263418, -1593.4111587299299, -405.23712697471706, -6200.530374113367, -2247.0432218364745, -4018.754246086389, -7740.118532194917, -4834.235290793811, -3668.8376866385565, -4584.745119183674, -3411.77027365807, -10442.064457185801, -15496.464430864387, 0.011984375, -0.10718749999999999, 0.98853125, 192.0, 0.0, 0.0, 0.0, 0.0, 0.0, 0.0, 0.0, 0.0, 0.0, 1.645921237711714E9, 0.0, 2022-02-27 11:20:37.711
238.0, -2048.5597310733474, -5420.767417045524, -1997.3071810373285, -10654.495436489038, -890.4487956105228, 129.7518765630575, -5791.7169680258, -1748.7110792054034, -2158.731479493556, -6748.237520246211, -4556.760735125629, -3422.3426487854304, -4385.211096431148, -3099.762272806439, -10019.795300936139, -14353.709143842358, 0.011984375, -0.10718749999999999, 0.98853125, 192.0, 0.0, 0.0, 0.0, 0.0, 0.0, 0.0, 0.0, 0.0, 0.0, 1.645921237718383E9, 0.0, 2022-02-27 11:20:37.718
240.0, -2483.4129194513466, -5757.317633309082, -2360.143048780328, -11065.14168562194, -1314.8637193278933, -221.37167708536114, -6178.692719780532, -2237.5884339318795, -5017.720761027427, -7708.066130646006, -4548.244720488157, -3620.2896976816296, -4248.261958153482, -3162.81654391486, -10466.45021038654, -15661.487360177918, 0.011984375, -0.10718749999999999, 0.98853125, 192.0, 0.0, 0.0, 0.0, 0.0, 0.0, 0.0, 0.0, 0.0, 0.0, 1.645921237725417E9, 0.0, 2022-02-27 11:20:37.725
242.0, -2518.0134198681617, -5762.391479300437, -2310.276306900538, -10992.65497835338, -1301.9891145216363, -181.07148183244252, -5972.4978771803235, -1955.6658811170914, -2199.1657852132066, -7095.673036059504, -4824.981668589315, -3560.834057430513, -4640.356259388478, -3345.8549792593694, -10137.09725583759, -14633.441225700526, 0.011984375, -0.10718749999999999, 0.98853125, 192.0, 0.0, 0.0, 0.0, 0.0, 0.0, 0.0, 0.0, 0.0, 0.0, 1.645921237733402E9, 0.0, 2022-02-27 11:20:37.733
244.0, -1956.3811369396612, -5334.355572981307, -1970.619198157692, -10630.802587366414, -825.7628471568642, 169.3591677378616, -5873.5914079655895, -1847.6175484201372, -3673.0621663406096, -7061.743087976348, -4415.274192723536, -3480.9265710027903, -4181.273780020926, -3007.315457739289, -10196.150564688513, -14890.955673570119, 0.012, -0.11, 0.986, 192.0, 0.0, 48.0, 126.0, 72.0, 15.0, 104.0, 0.0, 0.0, 0.0, 1.645921237741419E9, 0.0, 2022-02-27 11:20:37.741
246.0, -2768.062385089682, -5956.538731639234, -2544.0532021585946, -11256.293804203726, -1571.2605799747205, -392.54133612410266, -6186.8064030178075, -2224.6467738922565, -4109.234107641471, -7771.656843621355, -4829.720238413839, -3686.7637856917127, -4569.545932954065, -3390.67022689226, -10450.222843911988, -15514.994027017836, 0.012, -0.11, 0.986, 192.0, 0.0, 0.0, 0.0, 0.0, 0.0, 0.0, 0.0, 0.0, 0.0, 1.645921237747995E9, 0.0, 2022-02-27 11:20:37.747
248.0, -2031.840626220778, -5386.748061984546, -2005.487919507971, -10660.865683658802, -903.7704353058858, 124.52156836051564, -5792.767500015199, -1735.8364743991465, -2109.7141039030676, -6729.730275837216, -4564.76265964063, -3451.6681375107933, -4394.375311657824, -3118.358924193254, -10013.894440399938, -14335.112492455542, 0.012, -0.11, 0.986, 192.0, 0.0, 0.0, 0.0, 0.0, 0.0, 0.0, 0.0, 0.0, 0.0, 1.645921237755972E9, 0.0, 2022-02-27 11:20:37.755
250.0, -2412.401427316836, -5690.776490065634, -2353.8398568439316, -11049.294298803128, -1293.5625068619856, -202.5515082539926, -6166.756888241397, -2219.550576156447, -4992.262124092833, -7665.798981881021, -4527.077618488982, -3603.9505724848, -4240.5506063164, -3152.62414844324, -10460.661108572616, -15638.420359900041, 0.012, -0.11, 0.986, 192.0, 0.0, 0.0, 0.0, 0.0, 0.0, 0.0, 0.0, 0.0, 0.0, 1.645921237763995E9, 0.0, 2022-02-27 11:20:37.763
